Measurement Sequence started on: 10-20-44-796
Integration time: 35
Scans to Average: 2 
>>>>>Begin Spectral Data<<<<<
432.953 .0401327
433.882 .0331788
434.810 .0374996
435.737 .0393802
436.662 .0404614
437.586 .0393538
438.509 .0395575
439.431 .0398287
440.351 .0398712
441.269 .0398246
442.187 .0397361
443.103 .0396546
444.018 .0395548
444.932 .0394453
445.844 .0393450
446.756 .0392540
447.666 .0391758
448.575 .0391133
449.482 .0390841
450.388 .0390836
451.294 .0390935
452.198 .0391067
453.100 .0391097
454.002 .0391137
454.902 .0391012
455.801 .0390758
456.699 .0390504
457.596 .0390287
458.492 .0390119
459.387 .0389990
460.280 .0389923
461.172 .0389902
462.064 .0389933
462.954 .0389945
463.843 .0389922
464.730 .0389880
465.617 .0389790
466.503 .0389667
467.387 .0389519
468.271 .0389384
469.153 .0389250
470.035 .0389106
470.915 .0388981
471.794 .0388818
472.673 .0388619
473.550 .0388361
474.426 .0388060
475.301 .0387675
476.175 .0387206
477.048 .0386642
477.920 .0386012
478.791 .0385345
479.661 .0384622
480.530 .0383881
481.398 .0383157
482.266 .0382508
483.132 .0381902
483.997 .0381325
484.861 .0380830
485.724 .0380411
486.587 .0380050
487.448 .0379695
488.308 .0379335
489.168 .0378973
490.026 .0378592
490.884 .0378173
491.741 .0377679
492.597 .0377172
493.452 .0376627
494.306 .0376083
495.159 .0375532
496.011 .0374985
496.862 .0374447
497.713 .0373868
498.562 .0373239
499.411 .0372506
500.259 .0371626
501.106 .0370637
501.952 .0369541
502.798 .0368394
503.642 .0367190
504.486 .0366006
505.329 .0364880
506.171 .0363852
507.012 .0362881
507.852 .0361925
508.692 .0360923
509.531 .0359852
510.369 .0358630
511.206 .0357244
512.043 .0355767
512.878 .0354209
513.713 .0352631
514.547 .0351111
515.381 .0349612
516.213 .0348157
517.045 .0346700
517.876 .0345233
518.706 .0343668
519.536 .0342070
520.365 .0340436
521.193 .0338738
522.020 .0337125
522.847 .0335636
523.673 .0334249
524.498 .0332925
525.323 .0331564
526.146 .0330212
526.969 .0328814
527.792 .0327392
528.614 .0325900
529.435 .0324481
530.255 .0323211
531.075 .0322017
531.894 .0320897
532.712 .0319833
533.530 .0318742
534.347 .0317597
535.163 .0316305
535.979 .0314928
536.794 .0313531
537.608 .0312225
538.422 .0311174
539.235 .0310439
540.048 .0309987
540.860 .0309824
541.671 .0309869
542.481 .0310073
543.292 .0310270
544.101 .0310376
544.910 .0310453
545.718 .0310489
546.526 .0310549
547.333 .0310645
548.139 .0310897
548.945 .0311376
549.750 .0311960
550.555 .0312627
551.359 .0313319
552.162 .0313960
552.965 .0314549
553.768 .0315035
554.569 .0315418
555.371 .0315676
556.171 .0315868
556.972 .0316049
557.771 .0316250
558.570 .0316484
559.369 .0316775
560.167 .0317082
560.964 .0317419
561.761 .0317736
562.558 .0318059
563.354 .0318378
564.149 .0318668
564.944 .0318935
565.738 .0319204
566.532 .0319480
567.325 .0319819
568.118 .0320198
568.910 .0320653
569.702 .0321159
570.494 .0321724
571.285 .0322322
572.075 .0322957
572.865 .0323609
573.654 .0324248
574.443 .0324853
575.232 .0325424
576.020 .0325930
576.807 .0326424
577.594 .0326893
578.381 .0327343
579.167 .0327760
579.952 .0328149
580.738 .0328501
581.522 .0328810
582.307 .0329087
583.091 .0329343
583.874 .0329592
584.657 .0329839
585.440 .0330083
586.222 .0330338
587.004 .0330595
587.785 .0330840
588.566 .0331038
589.346 .0331177
590.126 .0331233
590.906 .0331211
591.685 .0331147
592.464 .0331045
593.242 .0330938
594.020 .0330831
594.797 .0330751
595.575 .0330684
596.351 .0330632
597.128 .0330580
597.904 .0330526
598.679 .0330458
599.454 .0330365
600.229 .0330252
601.004 .0330127
601.778 .0329995
602.551 .0329872
603.325 .0329756
604.097 .0329650
604.870 .0329550
605.642 .0329465
606.414 .0329387
607.185 .0329315
607.956 .0329247
608.727 .0329175
609.497 .0329098
610.267 .0329003
611.037 .0328877
611.806 .0328726
612.575 .0328544
613.344 .0328330
614.112 .0328089
614.880 .0327829
615.647 .0327552
616.414 .0327270
617.181 .0326995
617.948 .0326726
618.714 .0326469
619.480 .0326217
620.245 .0325972
621.011 .0325735
621.775 .0325491
622.540 .0325244
623.304 .0324999
624.068 .0324763
624.832 .0324529
625.595 .0324299
626.358 .0324076
627.120 .0323851
627.883 .0323622
628.645 .0323377
629.406 .0323113
630.168 .0322832
630.929 .0322522
631.689 .0322184
632.450 .0321823
633.210 .0321440
633.970 .0321030
634.729 .0320611
635.489 .0320182
636.248 .0319736
637.006 .0319280
637.765 .0318819
638.523 .0318367
639.280 .0317922
640.038 .0317491
640.795 .0317081
641.552 .0316697
642.309 .0316340
643.065 .0315992
643.821 .0315657
644.577 .0315332
645.332 .0315009
646.088 .0314681
646.843 .0314349
647.597 .0314023
648.352 .0313702
649.106 .0313394
649.860 .0313098
650.613 .0312811
651.367 .0312535
652.120 .0312269
652.872 .0312009
653.625 .0311752
654.377 .0311503
655.129 .0311261
655.881 .0311027
656.632 .0310803
657.384 .0310582
658.135 .0310373
658.885 .0310169
659.636 .0309971
660.386 .0309773
661.136 .0309576
661.885 .0309389
662.635 .0309206
663.384 .0309038
664.133 .0308880
664.881 .0308731
665.630 .0308595
666.378 .0308469
667.126 .0308355
667.874 .0308244
668.621 .0308142
669.368 .0308049
670.115 .0307962
670.862 .0307877
671.608 .0307796
672.354 .0307725
673.100 .0307661
673.846 .0307599
674.591 .0307539
675.337 .0307487
676.082 .0307445
676.826 .0307403
677.571 .0307366
678.315 .0307332
679.059 .0307300
679.803 .0307264
680.547 .0307225
681.290 .0307180
682.033 .0307125
682.776 .0307058
683.518 .0306983
684.261 .0306899
685.003 .0306809
685.745 .0306711
686.487 .0306609
687.228 .0306503
687.969 .0306391
688.710 .0306260
689.451 .0306118
690.192 .0305960
690.932 .0305786
691.672 .0305596
692.412 .0305395
693.152 .0305188
693.891 .0304983
694.630 .0304784
695.369 .0304593
696.108 .0304406
696.846 .0304229
697.585 .0304049
698.323 .0303869
699.061 .0303688
699.798 .0303504
700.536 .0303319
701.273 .0303135
702.010 .0302953
702.746 .0302771
703.483 .0302587
704.219 .0302400
704.955 .0302200
705.691 .0301982
706.427 .0301735
707.162 .0301464
707.897 .0301168
708.632 .0300858
709.367 .0300535
710.101 .0300203
710.835 .0299871
711.569 .0299539
712.303 .0299202
713.037 .0298866
713.770 .0298526
714.503 .0298183
715.236 .0297831
715.969 .0297479
716.702 .0297126
717.434 .0296782
718.166 .0296447
718.898 .0296121
719.629 .0295804
720.361 .0295500
721.092 .0295193
721.823 .0294887
722.554 .0294578
723.284 .0294264
724.014 .0293939
724.744 .0293612
725.474 .0293279
726.204 .0292953
726.933 .0292632
727.662 .0292324
728.391 .0292028
729.120 .0291746
729.849 .0291475
730.577 .0291218
731.305 .0290967
732.033 .0290729
732.760 .0290492
733.488 .0290263
734.215 .0290041
734.942 .0289830
735.669 .0289626
736.395 .0289435
737.122 .0289257
737.848 .0289087
738.573 .0288921
739.299 .0288762
740.024 .0288607
740.750 .0288455
741.474 .0288303
742.199 .0288150
742.924 .0288000
743.648 .0287858
744.372 .0287720
745.096 .0287596
745.819 .0287486
746.543 .0287384
747.266 .0287293
747.989 .0287211
748.711 .0287141
749.434 .0287080
750.156 .0287029
750.878 .0286987
751.599 .0286956
752.321 .0286937
753.042 .0286927
753.763 .0286934
754.484 .0286954
755.205 .0286977
755.925 .0287004
756.645 .0287029
757.365 .0287050
758.085 .0287065
758.804 .0287071
759.523 .0287067
760.242 .0287049
760.961 .0287012
761.679 .0286955
762.397 .0286878
763.115 .0286780
763.833 .0286658
764.551 .0286520
765.268 .0286373
765.985 .0286219
766.702 .0286071
767.418 .0285934
768.134 .0285815
768.850 .0285709
769.566 .0285618
770.282 .0285534
770.997 .0285459
771.712 .0285395
772.427 .0285340
773.142 .0285297
773.856 .0285268
774.570 .0285251
775.284 .0285247
775.998 .0285252
776.711 .0285261
777.424 .0285263
778.137 .0285255
778.849 .0285231
779.562 .0285189
780.274 .0285133
780.986 .0285073
781.697 .0285010
782.409 .0284954
783.120 .0284911
783.831 .0284876
784.541 .0284854
785.252 .0284845
785.962 .0284845
786.671 .0284850
787.381 .0284859
788.090 .0284874
788.799 .0284887
789.508 .0284898
790.217 .0284904
790.925 .0284899
791.633 .0284887
792.341 .0284859
793.048 .0284810
793.755 .0284739
794.462 .0284647
795.169 .0284525
795.875 .0284383
796.581 .0284221
797.287 .0284044
797.993 .0283851
798.698 .0283655
799.403 .0283452
800.108 .0283247
800.812 .0283040
801.517 .0282837
802.221 .0282635
802.924 .0282441
803.628 .0282249
804.331 .0282067
805.034 .0281897
805.736 .0281740
806.439 .0281591
807.141 .0281455
807.843 .0281319
808.544 .0281180
809.245 .0281031
809.946 .0280876
810.647 .0280708
811.347 .0280534
812.047 .0280354
812.747 .0280172
813.447 .0279993
814.146 .0279816
814.845 .0279640
815.543 .0279470
816.242 .0279297
816.940 .0279119
817.638 .0278932
818.335 .0278741
819.032 .0278543
819.729 .0278350
820.426 .0278157
821.122 .0277966
821.818 .0277776
822.514 .0277588
823.209 .0277389
823.905 .0277187
824.599 .0276977
825.294 .0276751
825.988 .0276511
826.682 .0276257
827.376 .0275992
828.069 .0275726
828.762 .0275458
829.455 .0275192
830.147 .0274923
830.840 .0274661
831.531 .0274397
832.223 .0274138
832.914 .0273889
833.605 .0273647
834.296 .0273411
834.986 .0273188
835.676 .0272972
836.366 .0272769
837.055 .0272577
837.744 .0272398
838.433 .0272225
839.121 .0272057
839.809 .0271888
840.497 .0271722
841.185 .0271556
841.872 .0271394
842.559 .0271229
843.245 .0271070
843.932 .0270911
844.617 .0270750
845.303 .0270587
845.988 .0270424
846.673 .0270254
847.358 .0270083
848.042 .0269909
848.726 .0269735
849.410 .0269562
850.093 .0269397
850.776 .0269241
851.459 .0269097
852.141 .0268959
852.823 .0268827
853.505 .0268694
854.186 .0268562
854.867 .0268422
855.548 .0268275
856.228 .0268122
856.908 .0267965
857.588 .0267806
858.267 .0267650
858.946 .0267498
859.625 .0267357
860.303 .0267223
860.981 .0267100
861.659 .0266985
862.336 .0266873
863.013 .0266759
863.690 .0266645
864.366 .0266527
865.042 .0266409
865.718 .0266296
866.393 .0266189
867.068 .0266091
867.743 .0266006
868.417 .0265932
869.091 .0265864
869.765 .0265808
870.438 .0265754
871.111 .0265699
871.783 .0265644
872.456 .0265580
873.127 .0265508
873.799 .0265430
874.470 .0265345
875.141 .0265254
875.811 .0265165
876.481 .0265077
877.151 .0264992
877.820 .0264920
878.489 .0264860
879.158 .0264813
879.826 .0264782
880.494 .0264761
881.162 .0264748
881.829 .0264739
882.496 .0264730
883.163 .0264717
883.829 .0264704
884.495 .0264688
885.160 .0264678
885.825 .0264675
886.490 .0264685
887.154 .0264707
887.818 .0264747
888.482 .0264798
889.145 .0264851
889.808 .0264905
890.471 .0264946
891.133 .0264980
891.795 .0265002
892.456 .0265008
893.117 .0265007
893.778 .0265007
894.439 .0265011
895.099 .0265016
895.758 .0265030
896.417 .0265048
897.076 .0265070
897.735 .0265094
898.393 .0265111
899.051 .0265122
899.708 .0265126
900.365 .0265121
901.022 .0265112
901.678 .0265106
902.334 .0265100
902.990 .0265096
903.645 .0265101
904.300 .0265112
904.954 .0265127
905.608 .0265143
906.262 .0265162
906.915 .0265179
907.568 .0265194
908.221 .0265202
908.873 .0265209
909.525 .0265218
910.176 .0265227
910.828 .0265237
911.478 .0265250
912.129 .0265262
912.778 .0265267
913.428 .0265261
914.077 .0265249
914.726 .0265226
915.375 .0265193
916.023 .0265151
916.670 .0265106
917.318 .0265064
917.964 .0265019
918.611 .0264973
919.257 .0264926
919.903 .0264873
920.548 .0264809
921.193 .0264733
921.838 .0264647
922.482 .0264555
923.126 .0264462
923.770 .0264372
924.413 .0264286
925.056 .0264210
925.698 .0264142
926.340 .0264084
926.982 .0264032
927.623 .0263987
928.264 .0263946
928.904 .0263912
929.544 .0263881
930.184 .0263854
930.823 .0263827
931.462 .0263806
932.101 .0263784
932.739 .0263761
933.377 .0263733
934.014 .0263694
934.651 .0263647
935.288 .0263591
935.924 .0263522
936.560 .0263440
937.196 .0263343
937.831 .0263230
938.466 .0263095
939.100 .0262946
939.734 .0262778
940.368 .0262601
941.001 .0262418
941.634 .0262229
942.266 .0262036
942.899 .0261844
943.530 .0261647
944.162 .0261442
944.793 .0261230
945.423 .0261009
946.053 .0260776
946.683 .0260537
947.313 .0260296
947.942 .0260059
948.571 .0259832
949.199 .0259617
949.827 .0259405
950.455 .0259203
951.082 .0259008
951.709 .0258815
952.335 .0258620
952.961 .0258426
953.587 .0258231
954.212 .0258031
954.837 .0257831
955.462 .0257626
956.086 .0257417
956.710 .0257213
957.334 .0257006
957.957 .0256796
958.579 .0256582
959.202 .0256364
959.824 .0256142
960.445 .0255917
961.067 .0255684
961.688 .0255444
962.308 .0255196
962.928 .0254944
963.548 .0254687
964.168 .0254425
964.787 .0254170
965.406 .0253924
966.024 .0253696
966.642 .0253484
967.260 .0253284
967.877 .0253102
968.494 .0252925
969.110 .0252754
969.727 .0252575
970.342 .0252388
970.958 .0252195
971.573 .0251998
972.188 .0251795
972.802 .0251593
973.416 .0251398
974.030 .0251207
974.643 .0251026
975.256 .0250848
975.869 .0250668
976.481 .0250486
977.093 .0250302
977.705 .0250117
978.316 .0249927
978.927 .0249747
979.538 .0249567
980.148 .0249391
980.758 .0249222
981.367 .0249058
981.977 .0248905
982.586 .0248762
983.194 .0248626
983.802 .0248501
984.410 .0248380
985.018 .0248263
985.625 .0248145
986.232 .0248028
986.838 .0247902
987.445 .0247766
988.050 .0247619
988.656 .0247465
989.261 .0247307
989.866 .0247148
990.471 .0246991
991.075 .0246843
991.679 .0246698
992.282 .0246555
992.886 .0246412
993.489 .0246274
994.091 .0246135
994.694 .0245995
995.296 .0245853
995.897 .0245708
996.499 .0245563
997.100 .0245418
997.701 .0245278
998.301 .0245144
998.901 .0245021
999.501 .0244909
1000.101 .0244810
1000.700 .0244727
1001.299 .0244652
1001.898 .0244587
1002.496 .0244524
1003.094 .0244463
1003.692 .0244396
1004.289 .0244320
1004.887 .0244242
1005.484 .0244159
1006.080 .0244080
1006.677 .0244000
1007.273 .0243924
1007.868 .0243854
1008.464 .0243786
1009.059 .0243719
1009.654 .0243646
1010.249 .0243569
1010.843 .0243485
1011.437 .0243391
1012.031 .0243284
1012.625 .0243169
1013.218 .0243052
1013.811 .0242932
1014.404 .0242818
1014.997 .0242709
1015.589 .0242614
1016.181 .0242530
1016.773 .0242455
1017.365 .0242387
1017.956 .0242322
1018.547 .0242252
1019.138 .0242175
1019.728 .0242098
1020.319 .0242022
1020.909 .0241950
1021.499 .0241893
1022.088 .0241855
1022.678 .0241826
1023.267 .0241806
1023.856 .0241788
1024.445 .0241766
1025.033 .0241747
1025.621 .0241716
1026.209 .0241680
1026.797 .0241652
1027.385 .0241636
1027.972 .0241636
1028.560 .0241653
1029.147 .0241691
1029.734 .0241743
1030.320 .0241788
1030.907 .0241825
1031.493 .0241845
1032.079 .0241853
1032.665 .0241853
1033.250 .0241853
1033.836 .0241865
1034.421 .0241891
1035.006 .0241931
1035.591 .0241999
1036.176 .0242073
1036.761 .0242148
1037.345 .0242222
1037.929 .0242284
1038.514 .0242335
1039.097 .0242374
1039.681 .0242403
1040.265 .0242438
1040.848 .0242482
1041.432 .0242535
1042.015 .0242589
1042.598 .0242645
1043.181 .0242698
1043.764 .0242736
1044.346 .0242764
1044.929 .0242782
1045.511 .0242781
1046.094 .0242783
1046.676 .0242795
1047.258 .0242814
1047.840 .0242852
1048.422 .0242912
1049.003 .0242991
1049.585 .0243074
1050.166 .0243150
1050.748 .0243220
1051.329 .0243272
1051.910 .0243307
1052.491 .0243323
1053.072 .0243327
1053.653 .0243336
1054.234 .0243337
1054.815 .0243335
1055.396 .0243339
1055.976 .0243339
1056.557 .0243328
1057.138 .0243302
1057.718 .0243261
1058.298 .0243201
1058.879 .0243125
1059.459 .0243043
1060.039 .0242968
1060.620 .0242900
1061.200 .0242847
1061.780 .0242809
1062.360 .0242790
1062.940 .0242783
1063.520 .0242782
1064.101 .0242799
1064.681 .0242830
1065.261 .0242864
1065.841 .0242897
1066.421 .0242934
1067.001 .0242969
1067.581 .0242995
1068.161 .0243011
1068.741 .0243019
1069.321 .0243015
1069.901 .0243010
1070.482 .0242998
1071.062 .0242996
1071.642 .0243001
1072.222 .0243014
1072.803 .0243027
1073.383 .0243045
1073.963 .0243060
1074.544 .0243076
1075.124 .0243095
1075.705 .0243117
1076.286 .0243135
1076.866 .0243170
1077.447 .0243206
1078.028 .0243264
1078.609 .0243325
1079.190 .0243402
1079.771 .0243501
1080.352 .0243626
1080.934 .0243752
1081.515 .0243904
1082.097 .0244089
1082.679 .0244295
1083.260 .0244503
1083.842 .0244717
1084.424 .0244914
1085.007 .0245089
1085.589 .0245241
1086.172 .0245367
1086.754 .0245474
1087.337 .0245581
1087.920 .0245670
1088.503 .0245758
1089.087 .0245850
1089.670 .0245927
1090.254 .0245988
1090.838 .0246039
1091.422 .0246061
1092.006 .0246055
1092.590 .0246018
1093.175 .0245968
1093.760 .0245916
1094.345 .0245874
1094.930 .0245843
1095.516 .0245842
1096.102 .0245869
1096.688 .0245926
1097.274 .0245998
1097.860 .0246090
1098.447 .0246172
1099.034 .0246248
1099.622 .0246303
1100.209 .0246323
1100.797 .0246318
1101.385 .0246289
1101.973 .0246243
1102.562 .0246213
1103.151 .0246195
1103.740 .0246188
1104.330 .0246206
1104.920 .0246247
1105.510 .0246290
1106.101 .0246353
1106.691 .0246410
1107.283 .0246467
1107.874 .0246536
1108.466 .0246631
1109.058 .0246759
1109.651 .0246923
1110.244 .0247158
1110.837 .0247434
1111.431 .0247752
1112.025 .0248096
1112.620 .0248429
1113.215 .0248743
1113.810 .0249023
1114.406 .0249250
1115.002 .0249427
1115.599 .0249560
1116.196 .0249648
1116.793 .0249697
1117.391 .0249733
1117.989 .0249757
1118.588 .0249792
1119.187 .0249797
1119.787 .0249821
1120.387 .0249817
1120.988 .0249801
1121.589 .0249763
1122.190 .0249724
1122.793 .0249708
1123.395 .0249735
1123.998 .0249838
1124.602 .0250040
1125.206 .0250317
1125.811 .0250701
1126.416 .0251146
1127.022 .0251668
1127.628 .0252249
1128.235 .0252850
1128.843 .0253450
1129.451 .0254096
1130.059 .0254719
1130.669 .0255344
1131.278 .0255969
1131.889 .0256621
1132.500 .0257250
1133.112 .0257839
1133.724 .0258401
1134.337 .0258898
1134.950 .0259323
1135.564 .0259715
1136.179 .0260043
1136.795 .0260387
1137.411 .0260705
1138.028 .0261013
1138.645 .0261357
1139.263 .0261781
1139.882 .0262185
1140.502 .0262581
1141.122 .0262993
1141.743 .0263566
1142.365 .0264078
1142.987 .0263698
1143.611 .0264248
1144.235 .0264971
1144.859 .0269805
1145.485 .0266741
