Measurement Sequence started on: 10-20-44-796
Integration time: 35
Scans to Average: 2 
>>>>>Begin Spectral Data<<<<<
432.953 .0403085
433.882 .0435035
434.810 .0380532
435.737 .0387946
436.662 .0388582
437.586 .0379575
438.509 .0374705
439.431 .0369921
440.351 .0367367
441.269 .0365180
442.187 .0363610
443.103 .0362823
444.018 .0362427
444.932 .0362363
445.844 .0362289
446.756 .0362243
447.666 .0362384
448.575 .0362519
449.482 .0362779
450.388 .0363095
451.294 .0363445
452.198 .0363886
453.100 .0364360
454.002 .0364899
454.902 .0365376
455.801 .0365777
456.699 .0366134
457.596 .0366397
458.492 .0366581
459.387 .0366562
460.280 .0366473
461.172 .0366220
462.064 .0365848
462.954 .0365402
463.843 .0364926
464.730 .0364451
465.617 .0363968
466.503 .0363511
467.387 .0362993
468.271 .0362379
469.153 .0361643
470.035 .0360769
470.915 .0359811
471.794 .0358763
472.673 .0357663
473.550 .0356567
474.426 .0355579
475.301 .0354684
476.175 .0353894
477.048 .0353226
477.920 .0352675
478.791 .0352251
479.661 .0351900
480.530 .0351653
481.398 .0351447
482.266 .0351305
483.132 .0351199
483.997 .0351134
484.861 .0351129
485.724 .0351171
486.587 .0351249
487.448 .0351398
488.308 .0351541
489.168 .0351715
490.026 .0351880
490.884 .0352024
491.741 .0352109
492.597 .0352108
493.452 .0351969
494.306 .0351731
495.159 .0351373
496.011 .0350949
496.862 .0350447
497.713 .0349917
498.562 .0349348
499.411 .0348738
500.259 .0348105
501.106 .0347412
501.952 .0346638
502.798 .0345833
503.642 .0344919
504.486 .0343936
505.329 .0342897
506.171 .0341803
507.012 .0340698
507.852 .0339556
508.692 .0338395
509.531 .0337194
510.369 .0335978
511.206 .0334750
512.043 .0333488
512.878 .0332220
513.713 .0330944
514.547 .0329635
515.381 .0328378
516.213 .0327098
517.045 .0325813
517.876 .0324465
518.706 .0323062
519.536 .0321599
520.365 .0320108
521.193 .0318551
522.020 .0317004
522.847 .0315425
523.673 .0313879
524.498 .0312226
525.323 .0310499
526.146 .0308778
526.969 .0307003
527.792 .0305159
528.614 .0303237
529.435 .0301279
530.255 .0299380
531.075 .0297544
531.894 .0295904
532.712 .0294385
533.530 .0293034
534.347 .0291817
535.163 .0290623
535.979 .0289560
536.794 .0288644
537.608 .0287833
538.422 .0287257
539.235 .0286917
540.048 .0286772
540.860 .0286866
541.671 .0287204
542.481 .0287800
543.292 .0288471
544.101 .0289191
544.910 .0289906
545.718 .0290578
546.526 .0291303
547.333 .0291965
548.139 .0292622
548.945 .0293319
549.750 .0293931
550.555 .0294529
551.359 .0295069
552.162 .0295600
552.965 .0296108
553.768 .0296607
554.569 .0297066
555.371 .0297484
556.171 .0297885
556.972 .0298339
557.771 .0298777
558.570 .0299240
559.369 .0299721
560.167 .0300201
560.964 .0300727
561.761 .0301255
562.558 .0301782
563.354 .0302374
564.149 .0302942
564.944 .0303536
565.738 .0304087
566.532 .0304650
567.325 .0305175
568.118 .0305666
568.910 .0306117
569.702 .0306536
570.494 .0306923
571.285 .0307312
572.075 .0307700
572.865 .0308139
573.654 .0308596
574.443 .0309082
575.232 .0309585
576.020 .0310106
576.807 .0310583
577.594 .0311031
578.381 .0311428
579.167 .0311784
579.952 .0312101
580.738 .0312413
581.522 .0312728
582.307 .0313073
583.091 .0313464
583.874 .0313893
584.657 .0314360
585.440 .0314860
586.222 .0315347
587.004 .0315810
587.785 .0316249
588.566 .0316643
589.346 .0316992
590.126 .0317295
590.906 .0317557
591.685 .0317788
592.464 .0317998
593.242 .0318184
594.020 .0318353
594.797 .0318518
595.575 .0318666
596.351 .0318797
597.128 .0318909
597.904 .0318980
598.679 .0319015
599.454 .0319006
600.229 .0318947
601.004 .0318838
601.778 .0318696
602.551 .0318519
603.325 .0318324
604.097 .0318121
604.870 .0317904
605.642 .0317687
606.414 .0317478
607.185 .0317265
607.956 .0317052
608.727 .0316844
609.497 .0316632
610.267 .0316412
611.037 .0316198
611.806 .0315978
612.575 .0315762
613.344 .0315559
614.112 .0315370
614.880 .0315195
615.647 .0315035
616.414 .0314893
617.181 .0314760
617.948 .0314639
618.714 .0314518
619.480 .0314391
620.245 .0314253
621.011 .0314098
621.775 .0313925
622.540 .0313738
623.304 .0313543
624.068 .0313348
624.832 .0313152
625.595 .0312965
626.358 .0312778
627.120 .0312588
627.883 .0312389
628.645 .0312186
629.406 .0311972
630.168 .0311751
630.929 .0311522
631.689 .0311292
632.450 .0311057
633.210 .0310821
633.970 .0310583
634.729 .0310345
635.489 .0310098
636.248 .0309843
637.006 .0309579
637.765 .0309307
638.523 .0309029
639.280 .0308755
640.038 .0308486
640.795 .0308219
641.552 .0307954
642.309 .0307686
643.065 .0307425
643.821 .0307174
644.577 .0306919
645.332 .0306674
646.088 .0306442
646.843 .0306218
647.597 .0306001
648.352 .0305798
649.106 .0305606
649.860 .0305419
650.613 .0305236
651.367 .0305043
652.120 .0304847
652.872 .0304647
653.625 .0304443
654.377 .0304236
655.129 .0304036
655.881 .0303834
656.632 .0303634
657.384 .0303443
658.135 .0303257
658.885 .0303074
659.636 .0302894
660.386 .0302711
661.136 .0302529
661.885 .0302345
662.635 .0302167
663.384 .0301988
664.133 .0301819
664.881 .0301651
665.630 .0301488
666.378 .0301329
667.126 .0301172
667.874 .0301016
668.621 .0300856
669.368 .0300686
670.115 .0300512
670.862 .0300329
671.608 .0300150
672.354 .0299982
673.100 .0299826
673.846 .0299681
674.591 .0299546
675.337 .0299417
676.082 .0299292
676.826 .0299168
677.571 .0299044
678.315 .0298921
679.059 .0298801
679.803 .0298685
680.547 .0298571
681.290 .0298460
682.033 .0298348
682.776 .0298229
683.518 .0298098
684.261 .0297948
685.003 .0297778
685.745 .0297595
686.487 .0297400
687.228 .0297201
687.969 .0297000
688.710 .0296798
689.451 .0296599
690.192 .0296402
690.932 .0296202
691.672 .0296002
692.412 .0295802
693.152 .0295604
693.891 .0295417
694.630 .0295248
695.369 .0295097
696.108 .0294963
696.846 .0294846
697.585 .0294732
698.323 .0294616
699.061 .0294495
699.798 .0294356
700.536 .0294204
701.273 .0294043
702.010 .0293877
702.746 .0293709
703.483 .0293549
704.219 .0293396
704.955 .0293253
705.691 .0293118
706.427 .0292981
707.162 .0292837
707.897 .0292696
708.632 .0292556
709.367 .0292412
710.101 .0292272
710.835 .0292140
711.569 .0292011
712.303 .0291891
713.037 .0291771
713.770 .0291652
714.503 .0291526
715.236 .0291395
715.969 .0291252
716.702 .0291099
717.434 .0290936
718.166 .0290762
718.898 .0290581
719.629 .0290395
720.361 .0290192
721.092 .0289980
721.823 .0289760
722.554 .0289531
723.284 .0289292
724.014 .0289046
724.744 .0288801
725.474 .0288558
726.204 .0288318
726.933 .0288082
727.662 .0287845
728.391 .0287609
729.120 .0287368
729.849 .0287126
730.577 .0286882
731.305 .0286635
732.033 .0286395
732.760 .0286158
733.488 .0285928
734.215 .0285702
734.942 .0285481
735.669 .0285262
736.395 .0285050
737.122 .0284837
737.848 .0284625
738.573 .0284416
739.299 .0284209
740.024 .0284007
740.750 .0283808
741.474 .0283608
742.199 .0283404
742.924 .0283194
743.648 .0282980
744.372 .0282755
745.096 .0282531
745.819 .0282306
746.543 .0282091
747.266 .0281886
747.989 .0281692
748.711 .0281509
749.434 .0281338
750.156 .0281179
750.878 .0281025
751.599 .0280884
752.321 .0280750
753.042 .0280629
753.763 .0280522
754.484 .0280427
755.205 .0280345
755.925 .0280272
756.645 .0280205
757.365 .0280138
758.085 .0280066
758.804 .0279985
759.523 .0279890
760.242 .0279787
760.961 .0279672
761.679 .0279543
762.397 .0279397
763.115 .0279241
763.833 .0279067
764.551 .0278877
765.268 .0278670
765.985 .0278449
766.702 .0278220
767.418 .0277985
768.134 .0277745
768.850 .0277508
769.566 .0277279
770.282 .0277063
770.997 .0276856
771.712 .0276667
772.427 .0276492
773.142 .0276332
773.856 .0276180
774.570 .0276038
775.284 .0275899
775.998 .0275765
776.711 .0275636
777.424 .0275510
778.137 .0275386
778.849 .0275267
779.562 .0275156
780.274 .0275057
780.986 .0274966
781.697 .0274888
782.409 .0274816
783.120 .0274754
783.831 .0274698
784.541 .0274643
785.252 .0274592
785.962 .0274548
786.671 .0274507
787.381 .0274468
788.090 .0274434
788.799 .0274403
789.508 .0274375
790.217 .0274343
790.925 .0274306
791.633 .0274258
792.341 .0274194
793.048 .0274113
793.755 .0274017
794.462 .0273909
795.169 .0273798
795.875 .0273682
796.581 .0273573
797.287 .0273464
797.993 .0273358
798.698 .0273255
799.403 .0273154
800.108 .0273054
800.812 .0272955
801.517 .0272858
802.221 .0272771
802.924 .0272696
803.628 .0272634
804.331 .0272587
805.034 .0272555
805.736 .0272524
806.439 .0272487
807.141 .0272439
807.843 .0272375
808.544 .0272291
809.245 .0272189
809.946 .0272073
810.647 .0271948
811.347 .0271825
812.047 .0271703
812.747 .0271589
813.447 .0271487
814.146 .0271389
814.845 .0271292
815.543 .0271197
816.242 .0271105
816.940 .0271013
817.638 .0270928
818.335 .0270854
819.032 .0270789
819.729 .0270734
820.426 .0270686
821.122 .0270637
821.818 .0270581
822.514 .0270513
823.209 .0270425
823.905 .0270319
824.599 .0270196
825.294 .0270054
825.988 .0269902
826.682 .0269741
827.376 .0269575
828.069 .0269396
828.762 .0269209
829.455 .0269013
830.147 .0268803
830.840 .0268582
831.531 .0268352
832.223 .0268120
832.914 .0267891
833.605 .0267668
834.296 .0267454
834.986 .0267250
835.676 .0267055
836.366 .0266865
837.055 .0266676
837.744 .0266490
838.433 .0266305
839.121 .0266122
839.809 .0265945
840.497 .0265775
841.185 .0265613
841.872 .0265461
842.559 .0265319
843.245 .0265185
843.932 .0265054
844.617 .0264925
845.303 .0264798
845.988 .0264666
846.673 .0264535
847.358 .0264404
848.042 .0264271
848.726 .0264134
849.410 .0263989
850.093 .0263839
850.776 .0263676
851.459 .0263503
852.141 .0263314
852.823 .0263109
853.505 .0262892
854.186 .0262660
854.867 .0262418
855.548 .0262174
856.228 .0261931
856.908 .0261697
857.588 .0261475
858.267 .0261270
858.946 .0261077
859.625 .0260900
860.303 .0260737
860.981 .0260586
861.659 .0260440
862.336 .0260297
863.013 .0260156
863.690 .0260015
864.366 .0259873
865.042 .0259732
865.718 .0259593
866.393 .0259458
867.068 .0259322
867.743 .0259184
868.417 .0259040
869.091 .0258888
869.765 .0258726
870.438 .0258556
871.111 .0258376
871.783 .0258188
872.456 .0257994
873.127 .0257799
873.799 .0257606
874.470 .0257415
875.141 .0257226
875.811 .0257038
876.481 .0256853
877.151 .0256670
877.820 .0256489
878.489 .0256316
879.158 .0256154
879.826 .0256001
880.494 .0255860
881.162 .0255726
881.829 .0255600
882.496 .0255481
883.163 .0255359
883.829 .0255234
884.495 .0255110
885.160 .0254987
885.825 .0254872
886.490 .0254769
887.154 .0254685
887.818 .0254615
888.482 .0254555
889.145 .0254501
889.808 .0254442
890.471 .0254373
891.133 .0254288
891.795 .0254188
892.456 .0254081
893.117 .0253972
893.778 .0253869
894.439 .0253781
895.099 .0253709
895.758 .0253650
896.417 .0253599
897.076 .0253550
897.735 .0253498
898.393 .0253434
899.051 .0253365
899.708 .0253291
900.365 .0253213
901.022 .0253138
901.678 .0253073
902.334 .0253023
902.990 .0252986
903.645 .0252959
904.300 .0252939
904.954 .0252924
905.608 .0252913
906.262 .0252905
906.915 .0252900
907.568 .0252899
908.221 .0252906
908.873 .0252916
909.525 .0252932
910.176 .0252951
910.828 .0252969
911.478 .0252988
912.129 .0253005
912.778 .0253014
913.428 .0253015
914.077 .0253011
914.726 .0253001
915.375 .0252979
916.023 .0252948
916.670 .0252904
917.318 .0252850
917.964 .0252789
918.611 .0252715
919.257 .0252627
919.903 .0252531
920.548 .0252426
921.193 .0252314
921.838 .0252199
922.482 .0252088
923.126 .0251986
923.770 .0251900
924.413 .0251832
925.056 .0251780
925.698 .0251744
926.340 .0251723
926.982 .0251705
927.623 .0251689
928.264 .0251672
928.904 .0251652
929.544 .0251627
930.184 .0251607
930.823 .0251590
931.462 .0251577
932.101 .0251572
932.739 .0251572
933.377 .0251568
934.014 .0251554
934.651 .0251532
935.288 .0251496
935.924 .0251449
936.560 .0251395
937.196 .0251338
937.831 .0251285
938.466 .0251241
939.100 .0251199
939.734 .0251161
940.368 .0251126
941.001 .0251091
941.634 .0251049
942.266 .0251004
942.899 .0250950
943.530 .0250887
944.162 .0250820
944.793 .0250752
945.423 .0250674
946.053 .0250587
946.683 .0250487
947.313 .0250373
947.942 .0250243
948.571 .0250097
949.199 .0249935
949.827 .0249760
950.455 .0249577
951.082 .0249391
951.709 .0249202
952.335 .0249020
952.961 .0248846
953.587 .0248681
954.212 .0248521
954.837 .0248369
955.462 .0248218
956.086 .0248071
956.710 .0247928
957.334 .0247786
957.957 .0247648
958.579 .0247518
959.202 .0247400
959.824 .0247291
960.445 .0247195
961.067 .0247110
961.688 .0247035
962.308 .0246969
962.928 .0246902
963.548 .0246827
964.168 .0246741
964.787 .0246643
965.406 .0246531
966.024 .0246410
966.642 .0246283
967.260 .0246152
967.877 .0246029
968.494 .0245911
969.110 .0245796
969.727 .0245682
970.342 .0245574
970.958 .0245463
971.573 .0245349
972.188 .0245231
972.802 .0245109
973.416 .0244991
974.030 .0244877
974.643 .0244767
975.256 .0244669
975.869 .0244577
976.481 .0244493
977.093 .0244411
977.705 .0244340
978.316 .0244269
978.927 .0244200
979.538 .0244130
980.148 .0244053
980.758 .0243964
981.367 .0243866
981.977 .0243758
982.586 .0243646
983.194 .0243529
983.802 .0243414
984.410 .0243303
985.018 .0243209
985.625 .0243125
986.232 .0243056
986.838 .0242996
987.445 .0242942
988.050 .0242883
988.656 .0242817
989.261 .0242740
989.866 .0242645
990.471 .0242543
991.075 .0242438
991.679 .0242329
992.282 .0242233
992.886 .0242145
993.489 .0242071
994.091 .0242002
994.694 .0241937
995.296 .0241862
995.897 .0241775
996.499 .0241676
997.100 .0241554
997.701 .0241422
998.301 .0241287
998.901 .0241152
999.501 .0241024
1000.101 .0240911
1000.700 .0240811
1001.299 .0240717
1001.898 .0240630
1002.496 .0240534
1003.094 .0240425
1003.692 .0240304
1004.289 .0240169
1004.887 .0240021
1005.484 .0239866
1006.080 .0239708
1006.677 .0239549
1007.273 .0239399
1007.868 .0239255
1008.464 .0239116
1009.059 .0238989
1009.654 .0238866
1010.249 .0238745
1010.843 .0238627
1011.437 .0238512
1012.031 .0238401
1012.625 .0238295
1013.218 .0238200
1013.811 .0238114
1014.404 .0238041
1014.997 .0237984
1015.589 .0237934
1016.181 .0237899
1016.773 .0237867
1017.365 .0237838
1017.956 .0237801
1018.547 .0237757
1019.138 .0237700
1019.728 .0237639
1020.319 .0237583
1020.909 .0237530
1021.499 .0237480
1022.088 .0237437
1022.678 .0237388
1023.267 .0237330
1023.856 .0237256
1024.445 .0237161
1025.033 .0237042
1025.621 .0236906
1026.209 .0236744
1026.797 .0236567
1027.385 .0236386
1027.972 .0236212
1028.560 .0236043
1029.147 .0235883
1029.734 .0235733
1030.320 .0235590
1030.907 .0235450
1031.493 .0235320
1032.079 .0235193
1032.665 .0235079
1033.250 .0234973
1033.836 .0234876
1034.421 .0234790
1035.006 .0234717
1035.591 .0234663
1036.176 .0234622
1036.761 .0234588
1037.345 .0234567
1037.929 .0234544
1038.514 .0234519
1039.097 .0234491
1039.681 .0234456
1040.265 .0234402
1040.848 .0234337
1041.432 .0234263
1042.015 .0234178
1042.598 .0234088
1043.181 .0234009
1043.764 .0233934
1044.346 .0233871
1044.929 .0233827
1045.511 .0233783
1046.094 .0233749
1046.676 .0233734
1047.258 .0233717
1047.840 .0233713
1048.422 .0233727
1049.003 .0233753
1049.585 .0233782
1050.166 .0233820
1050.748 .0233857
1051.329 .0233880
1051.910 .0233896
1052.491 .0233894
1053.072 .0233869
1053.653 .0233836
1054.234 .0233796
1054.815 .0233745
1055.396 .0233704
1055.976 .0233674
1056.557 .0233645
1057.138 .0233627
1057.718 .0233614
1058.298 .0233593
1058.879 .0233577
1059.459 .0233558
1060.039 .0233526
1060.620 .0233481
1061.200 .0233425
1061.780 .0233351
1062.360 .0233254
1062.940 .0233153
1063.520 .0233044
1064.101 .0232932
1064.681 .0232827
1065.261 .0232724
1065.841 .0232632
1066.421 .0232564
1067.001 .0232499
1067.581 .0232438
1068.161 .0232379
1068.741 .0232313
1069.321 .0232238
1069.901 .0232166
1070.482 .0232106
1071.062 .0232060
1071.642 .0232034
1072.222 .0232045
1072.803 .0232078
1073.383 .0232138
1073.963 .0232220
1074.544 .0232311
1075.124 .0232400
1075.705 .0232482
1076.286 .0232542
1076.866 .0232590
1077.447 .0232618
1078.028 .0232622
1078.609 .0232613
1079.190 .0232605
1079.771 .0232604
1080.352 .0232615
1080.934 .0232649
1081.515 .0232717
1082.097 .0232810
1082.679 .0232926
1083.260 .0233045
1083.842 .0233154
1084.424 .0233243
1085.007 .0233317
1085.589 .0233368
1086.172 .0233405
1086.754 .0233443
1087.337 .0233494
1087.920 .0233576
1088.503 .0233672
1089.087 .0233777
1089.670 .0233883
1090.254 .0233974
1090.838 .0234025
1091.422 .0234033
1092.006 .0234008
1092.590 .0233970
1093.175 .0233930
1093.760 .0233918
1094.345 .0233935
1094.930 .0233973
1095.516 .0234028
1096.102 .0234090
1096.688 .0234138
1097.274 .0234177
1097.860 .0234169
1098.447 .0234147
1099.034 .0234131
1099.622 .0234123
1100.209 .0234144
1100.797 .0234207
1101.385 .0234311
1101.973 .0234437
1102.562 .0234560
1103.151 .0234689
1103.740 .0234798
1104.330 .0234904
1104.920 .0234998
1105.510 .0235072
1106.101 .0235148
1106.691 .0235221
1107.283 .0235276
1107.874 .0235339
1108.466 .0235393
1109.058 .0235433
1109.651 .0235453
1110.244 .0235450
1110.837 .0235421
1111.431 .0235347
1112.025 .0235248
1112.620 .0235125
1113.215 .0234995
1113.810 .0234886
1114.406 .0234794
1115.002 .0234734
1115.599 .0234724
1116.196 .0234743
1116.793 .0234783
1117.391 .0234834
1117.989 .0234898
1118.588 .0234964
1119.187 .0235025
1119.787 .0235082
1120.387 .0235168
1120.988 .0235296
1121.589 .0235500
1122.190 .0235745
1122.793 .0236045
1123.395 .0236397
1123.998 .0236770
1124.602 .0237141
1125.206 .0237501
1125.811 .0237841
1126.416 .0238162
1127.022 .0238451
1127.628 .0238709
1128.235 .0238948
1128.843 .0239219
1129.451 .0239524
1130.059 .0239882
1130.669 .0240305
1131.278 .0240811
1131.889 .0241363
1132.500 .0241962
1133.112 .0242570
1133.724 .0243153
1134.337 .0243708
1134.950 .0244182
1135.564 .0244614
1136.179 .0245014
1136.795 .0245428
1137.411 .0245926
1138.028 .0246533
1138.645 .0247261
1139.263 .0248081
1139.882 .0248916
1140.502 .0249815
1141.122 .0250661
1141.743 .0251645
1142.365 .0252733
1142.987 .0251874
1143.611 .0254316
1144.235 .0253854
1144.859 .0259383
1145.485 .0262193
