Measurement Sequence started on: 10-20-44-796
Integration time: 35
Scans to Average: 2 
>>>>>Begin Spectral Data<<<<<
432.953 .0290136
433.882 .0383941
434.810 .0378081
435.737 .0346680
436.662 .0323758
437.586 .0334384
438.509 .0331756
439.431 .0327099
440.351 .0323646
441.269 .0321738
442.187 .0320543
443.103 .0319355
444.018 .0318397
444.932 .0317692
445.844 .0317127
446.756 .0316699
447.666 .0316483
448.575 .0316273
449.482 .0316110
450.388 .0316059
451.294 .0316022
452.198 .0316114
453.100 .0316315
454.002 .0316635
454.902 .0317063
455.801 .0317590
456.699 .0318155
457.596 .0318726
458.492 .0319306
459.387 .0319880
460.280 .0320418
461.172 .0320840
462.064 .0321205
462.954 .0321422
463.843 .0321564
464.730 .0321639
465.617 .0321669
466.503 .0321695
467.387 .0321717
468.271 .0321720
469.153 .0321686
470.035 .0321589
470.915 .0321416
471.794 .0321140
472.673 .0320776
473.550 .0320327
474.426 .0319856
475.301 .0319399
476.175 .0319039
477.048 .0318706
477.920 .0318456
478.791 .0318275
479.661 .0318124
480.530 .0317959
481.398 .0317753
482.266 .0317542
483.132 .0317319
483.997 .0317092
484.861 .0316897
485.724 .0316764
486.587 .0316732
487.448 .0316759
488.308 .0316830
489.168 .0316922
490.026 .0317007
490.884 .0317025
491.741 .0316959
492.597 .0316798
493.452 .0316539
494.306 .0316199
495.159 .0315831
496.011 .0315443
496.862 .0315035
497.713 .0314598
498.562 .0314120
499.411 .0313576
500.259 .0312944
501.106 .0312204
501.952 .0311375
502.798 .0310459
503.642 .0309474
504.486 .0308447
505.329 .0307406
506.171 .0306404
507.012 .0305429
507.852 .0304461
508.692 .0303492
509.531 .0302472
510.369 .0301410
511.206 .0300299
512.043 .0299174
512.878 .0298025
513.713 .0296862
514.547 .0295715
515.381 .0294573
516.213 .0293457
517.045 .0292375
517.876 .0291290
518.706 .0290161
519.536 .0289045
520.365 .0287887
521.193 .0286671
522.020 .0285467
522.847 .0284245
523.673 .0282978
524.498 .0281614
525.323 .0280146
526.146 .0278539
526.969 .0276868
527.792 .0275145
528.614 .0273283
529.435 .0271382
530.255 .0269481
531.075 .0267532
531.894 .0265601
532.712 .0263741
533.530 .0261929
534.347 .0260214
535.163 .0258661
535.979 .0257245
536.794 .0256047
537.608 .0255171
538.422 .0254650
539.235 .0254435
540.048 .0254495
540.860 .0254782
541.671 .0255202
542.481 .0255770
543.292 .0256354
544.101 .0256940
544.910 .0257555
545.718 .0258230
546.526 .0258939
547.333 .0259729
548.139 .0260595
548.945 .0261542
549.750 .0262447
550.555 .0263258
551.359 .0263888
552.162 .0264325
552.965 .0264565
553.768 .0264661
554.569 .0264633
555.371 .0264570
556.171 .0264499
556.972 .0264475
557.771 .0264489
558.570 .0264575
559.369 .0264702
560.167 .0264878
560.964 .0265102
561.761 .0265400
562.558 .0265768
563.354 .0266271
564.149 .0266883
564.944 .0267625
565.738 .0268479
566.532 .0269395
567.325 .0270340
568.118 .0271312
568.910 .0272275
569.702 .0273273
570.494 .0274299
571.285 .0275383
572.075 .0276507
572.865 .0277667
573.654 .0278807
574.443 .0279903
575.232 .0280915
576.020 .0281803
576.807 .0282564
577.594 .0283222
578.381 .0283793
579.167 .0284304
579.952 .0284795
580.738 .0285305
581.522 .0285835
582.307 .0286390
583.091 .0286954
583.874 .0287526
584.657 .0288077
585.440 .0288601
586.222 .0289084
587.004 .0289530
587.785 .0289940
588.566 .0290327
589.346 .0290684
590.126 .0291016
590.906 .0291318
591.685 .0291598
592.464 .0291854
593.242 .0292093
594.020 .0292300
594.797 .0292485
595.575 .0292644
596.351 .0292785
597.128 .0292894
597.904 .0292981
598.679 .0293050
599.454 .0293087
600.229 .0293097
601.004 .0293087
601.778 .0293045
602.551 .0292987
603.325 .0292916
604.097 .0292836
604.870 .0292748
605.642 .0292659
606.414 .0292567
607.185 .0292468
607.956 .0292371
608.727 .0292264
609.497 .0292145
610.267 .0292025
611.037 .0291897
611.806 .0291761
612.575 .0291621
613.344 .0291482
614.112 .0291342
614.880 .0291205
615.647 .0291069
616.414 .0290931
617.181 .0290797
617.948 .0290664
618.714 .0290528
619.480 .0290395
620.245 .0290263
621.011 .0290125
621.775 .0289978
622.540 .0289818
623.304 .0289638
624.068 .0289449
624.832 .0289250
625.595 .0289057
626.358 .0288866
627.120 .0288686
627.883 .0288514
628.645 .0288350
629.406 .0288187
630.168 .0288017
630.929 .0287835
631.689 .0287642
632.450 .0287432
633.210 .0287214
633.970 .0286989
634.729 .0286782
635.489 .0286590
636.248 .0286418
637.006 .0286258
637.765 .0286101
638.523 .0285941
639.280 .0285777
640.038 .0285594
640.795 .0285395
641.552 .0285183
642.309 .0284967
643.065 .0284747
643.821 .0284532
644.577 .0284321
645.332 .0284124
646.088 .0283945
646.843 .0283774
647.597 .0283604
648.352 .0283441
649.106 .0283281
649.860 .0283123
650.613 .0282973
651.367 .0282834
652.120 .0282704
652.872 .0282589
653.625 .0282487
654.377 .0282394
655.129 .0282309
655.881 .0282224
656.632 .0282138
657.384 .0282038
658.135 .0281925
658.885 .0281789
659.636 .0281641
660.386 .0281487
661.136 .0281320
661.885 .0281148
662.635 .0280973
663.384 .0280795
664.133 .0280610
664.881 .0280423
665.630 .0280243
666.378 .0280072
667.126 .0279914
667.874 .0279769
668.621 .0279648
669.368 .0279549
670.115 .0279469
670.862 .0279403
671.608 .0279352
672.354 .0279307
673.100 .0279260
673.846 .0279220
674.591 .0279176
675.337 .0279136
676.082 .0279102
676.826 .0279066
677.571 .0279024
678.315 .0278969
679.059 .0278897
679.803 .0278808
680.547 .0278705
681.290 .0278581
682.033 .0278439
682.776 .0278290
683.518 .0278131
684.261 .0277962
685.003 .0277793
685.745 .0277624
686.487 .0277453
687.228 .0277286
687.969 .0277121
688.710 .0276963
689.451 .0276815
690.192 .0276681
690.932 .0276558
691.672 .0276443
692.412 .0276333
693.152 .0276224
693.891 .0276116
694.630 .0276009
695.369 .0275898
696.108 .0275786
696.846 .0275674
697.585 .0275560
698.323 .0275443
699.061 .0275323
699.798 .0275199
700.536 .0275064
701.273 .0274916
702.010 .0274755
702.746 .0274579
703.483 .0274399
704.219 .0274218
704.955 .0274045
705.691 .0273878
706.427 .0273716
707.162 .0273562
707.897 .0273414
708.632 .0273267
709.367 .0273116
710.101 .0272956
710.835 .0272791
711.569 .0272618
712.303 .0272441
713.037 .0272263
713.770 .0272091
714.503 .0271921
715.236 .0271752
715.969 .0271579
716.702 .0271406
717.434 .0271225
718.166 .0271037
718.898 .0270841
719.629 .0270640
720.361 .0270435
721.092 .0270230
721.823 .0270027
722.554 .0269829
723.284 .0269634
724.014 .0269436
724.744 .0269230
725.474 .0269016
726.204 .0268791
726.933 .0268559
727.662 .0268321
728.391 .0268081
729.120 .0267845
729.849 .0267615
730.577 .0267393
731.305 .0267178
732.033 .0266971
732.760 .0266767
733.488 .0266567
734.215 .0266365
734.942 .0266165
735.669 .0265964
736.395 .0265770
737.122 .0265583
737.848 .0265399
738.573 .0265225
739.299 .0265055
740.024 .0264894
740.750 .0264738
741.474 .0264583
742.199 .0264429
742.924 .0264275
743.648 .0264119
744.372 .0263957
745.096 .0263794
745.819 .0263630
746.543 .0263466
747.266 .0263306
747.989 .0263152
748.711 .0263003
749.434 .0262862
750.156 .0262735
750.878 .0262614
751.599 .0262507
752.321 .0262409
753.042 .0262322
753.763 .0262246
754.484 .0262180
755.205 .0262124
755.925 .0262079
756.645 .0262039
757.365 .0262003
758.085 .0261964
758.804 .0261920
759.523 .0261866
760.242 .0261799
760.961 .0261718
761.679 .0261624
762.397 .0261515
763.115 .0261393
763.833 .0261257
764.551 .0261113
765.268 .0260952
765.985 .0260779
766.702 .0260592
767.418 .0260394
768.134 .0260187
768.850 .0259978
769.566 .0259769
770.282 .0259568
770.997 .0259379
771.712 .0259206
772.427 .0259047
773.142 .0258907
773.856 .0258782
774.570 .0258666
775.284 .0258557
775.998 .0258449
776.711 .0258339
777.424 .0258233
778.137 .0258123
778.849 .0258012
779.562 .0257903
780.274 .0257795
780.986 .0257687
781.697 .0257580
782.409 .0257472
783.120 .0257365
783.831 .0257256
784.541 .0257150
785.252 .0257046
785.962 .0256947
786.671 .0256858
787.381 .0256778
788.090 .0256707
788.799 .0256641
789.508 .0256575
790.217 .0256509
790.925 .0256436
791.633 .0256358
792.341 .0256271
793.048 .0256179
793.755 .0256087
794.462 .0255993
795.169 .0255898
795.875 .0255808
796.581 .0255718
797.287 .0255627
797.993 .0255531
798.698 .0255430
799.403 .0255319
800.108 .0255204
800.812 .0255087
801.517 .0254967
802.221 .0254852
802.924 .0254743
803.628 .0254639
804.331 .0254545
805.034 .0254458
805.736 .0254375
806.439 .0254296
807.141 .0254221
807.843 .0254149
808.544 .0254076
809.245 .0254003
809.946 .0253933
810.647 .0253862
811.347 .0253793
812.047 .0253721
812.747 .0253646
813.447 .0253571
814.146 .0253491
814.845 .0253410
815.543 .0253324
816.242 .0253236
816.940 .0253144
817.638 .0253046
818.335 .0252946
819.032 .0252839
819.729 .0252726
820.426 .0252607
821.122 .0252480
821.818 .0252343
822.514 .0252195
823.209 .0252043
823.905 .0251885
824.599 .0251721
825.294 .0251556
825.988 .0251391
826.682 .0251225
827.376 .0251060
828.069 .0250897
828.762 .0250730
829.455 .0250562
830.147 .0250385
830.840 .0250201
831.531 .0250015
832.223 .0249829
832.914 .0249643
833.605 .0249461
834.296 .0249291
834.986 .0249128
835.676 .0248973
836.366 .0248829
837.055 .0248688
837.744 .0248552
838.433 .0248418
839.121 .0248289
839.809 .0248168
840.497 .0248054
841.185 .0247950
841.872 .0247857
842.559 .0247782
843.245 .0247715
843.932 .0247656
844.617 .0247601
845.303 .0247547
845.988 .0247489
846.673 .0247423
847.358 .0247352
848.042 .0247276
848.726 .0247193
849.410 .0247105
850.093 .0247012
850.776 .0246919
851.459 .0246822
852.141 .0246724
852.823 .0246621
853.505 .0246516
854.186 .0246403
854.867 .0246282
855.548 .0246153
856.228 .0246015
856.908 .0245871
857.588 .0245720
858.267 .0245573
858.946 .0245430
859.625 .0245293
860.303 .0245168
860.981 .0245051
861.659 .0244940
862.336 .0244823
863.013 .0244702
863.690 .0244571
864.366 .0244430
865.042 .0244285
865.718 .0244132
866.393 .0243983
867.068 .0243841
867.743 .0243710
868.417 .0243590
869.091 .0243483
869.765 .0243378
870.438 .0243273
871.111 .0243167
871.783 .0243056
872.456 .0242940
873.127 .0242825
873.799 .0242714
874.470 .0242606
875.141 .0242502
875.811 .0242403
876.481 .0242306
877.151 .0242212
877.820 .0242112
878.489 .0242003
879.158 .0241883
879.826 .0241753
880.494 .0241616
881.162 .0241475
881.829 .0241336
882.496 .0241198
883.163 .0241063
883.829 .0240929
884.495 .0240797
885.160 .0240669
885.825 .0240542
886.490 .0240422
887.154 .0240311
887.818 .0240208
888.482 .0240115
889.145 .0240037
889.808 .0239972
890.471 .0239920
891.133 .0239882
891.795 .0239849
892.456 .0239821
893.117 .0239798
893.778 .0239773
894.439 .0239745
895.099 .0239715
895.758 .0239679
896.417 .0239633
897.076 .0239584
897.735 .0239528
898.393 .0239467
899.051 .0239407
899.708 .0239344
900.365 .0239281
901.022 .0239216
901.678 .0239153
902.334 .0239089
902.990 .0239029
903.645 .0238968
904.300 .0238907
904.954 .0238845
905.608 .0238782
906.262 .0238722
906.915 .0238666
907.568 .0238615
908.221 .0238567
908.873 .0238523
909.525 .0238479
910.176 .0238429
910.828 .0238376
911.478 .0238312
912.129 .0238237
912.778 .0238148
913.428 .0238047
914.077 .0237937
914.726 .0237825
915.375 .0237711
916.023 .0237600
916.670 .0237495
917.318 .0237394
917.964 .0237292
918.611 .0237195
919.257 .0237100
919.903 .0237006
920.548 .0236912
921.193 .0236826
921.838 .0236749
922.482 .0236688
923.126 .0236645
923.770 .0236622
924.413 .0236618
925.056 .0236624
925.698 .0236633
926.340 .0236646
926.982 .0236656
927.623 .0236667
928.264 .0236674
928.904 .0236680
929.544 .0236684
930.184 .0236684
930.823 .0236673
931.462 .0236653
932.101 .0236612
932.739 .0236550
933.377 .0236463
934.014 .0236352
934.651 .0236219
935.288 .0236074
935.924 .0235929
936.560 .0235786
937.196 .0235649
937.831 .0235521
938.466 .0235393
939.100 .0235271
939.734 .0235147
940.368 .0235016
941.001 .0234880
941.634 .0234743
942.266 .0234607
942.899 .0234478
943.530 .0234361
944.162 .0234256
944.793 .0234164
945.423 .0234077
946.053 .0233986
946.683 .0233887
947.313 .0233781
947.942 .0233658
948.571 .0233516
949.199 .0233362
949.827 .0233193
950.455 .0233018
951.082 .0232843
951.709 .0232669
952.335 .0232501
952.961 .0232339
953.587 .0232186
954.212 .0232037
954.837 .0231894
955.462 .0231751
956.086 .0231606
956.710 .0231464
957.334 .0231323
957.957 .0231181
958.579 .0231047
959.202 .0230924
959.824 .0230811
960.445 .0230704
961.067 .0230604
961.688 .0230511
962.308 .0230424
962.928 .0230336
963.548 .0230248
964.168 .0230156
964.787 .0230057
965.406 .0229951
966.024 .0229845
966.642 .0229742
967.260 .0229643
967.877 .0229551
968.494 .0229463
969.110 .0229381
969.727 .0229305
970.342 .0229230
970.958 .0229163
971.573 .0229101
972.188 .0229040
972.802 .0228983
973.416 .0228931
974.030 .0228885
974.643 .0228843
975.256 .0228802
975.869 .0228762
976.481 .0228718
977.093 .0228675
977.705 .0228630
978.316 .0228589
978.927 .0228552
979.538 .0228519
980.148 .0228492
980.758 .0228465
981.367 .0228436
981.977 .0228407
982.586 .0228375
983.194 .0228343
983.802 .0228309
984.410 .0228272
985.018 .0228235
985.625 .0228203
986.232 .0228176
986.838 .0228150
987.445 .0228128
988.050 .0228103
988.656 .0228073
989.261 .0228039
989.866 .0227996
990.471 .0227947
991.075 .0227898
991.679 .0227850
992.282 .0227799
992.886 .0227747
993.489 .0227699
994.091 .0227654
994.694 .0227615
995.296 .0227574
995.897 .0227528
996.499 .0227484
997.100 .0227438
997.701 .0227386
998.301 .0227335
998.901 .0227288
999.501 .0227242
1000.101 .0227196
1000.700 .0227150
1001.299 .0227100
1001.898 .0227043
1002.496 .0226991
1003.094 .0226930
1003.692 .0226864
1004.289 .0226797
1004.887 .0226729
1005.484 .0226665
1006.080 .0226611
1006.677 .0226558
1007.273 .0226508
1007.868 .0226464
1008.464 .0226424
1009.059 .0226375
1009.654 .0226332
1010.249 .0226297
1010.843 .0226267
1011.437 .0226246
1012.031 .0226235
1012.625 .0226227
1013.218 .0226227
1013.811 .0226230
1014.404 .0226230
1014.997 .0226230
1015.589 .0226230
1016.181 .0226231
1016.773 .0226231
1017.365 .0226242
1017.956 .0226257
1018.547 .0226272
1019.138 .0226289
1019.728 .0226294
1020.319 .0226280
1020.909 .0226252
1021.499 .0226209
1022.088 .0226149
1022.678 .0226081
1023.267 .0226010
1023.856 .0225935
1024.445 .0225862
1025.033 .0225793
1025.621 .0225724
1026.209 .0225651
1026.797 .0225575
1027.385 .0225486
1027.972 .0225386
1028.560 .0225287
1029.147 .0225183
1029.734 .0225090
1030.320 .0225008
1030.907 .0224939
1031.493 .0224885
1032.079 .0224855
1032.665 .0224847
1033.250 .0224854
1033.836 .0224872
1034.421 .0224899
1035.006 .0224924
1035.591 .0224943
1036.176 .0224958
1036.761 .0224973
1037.345 .0224985
1037.929 .0224996
1038.514 .0225002
1039.097 .0225014
1039.681 .0225028
1040.265 .0225048
1040.848 .0225068
1041.432 .0225087
1042.015 .0225109
1042.598 .0225121
1043.181 .0225129
1043.764 .0225140
1044.346 .0225149
1044.929 .0225158
1045.511 .0225172
1046.094 .0225187
1046.676 .0225199
1047.258 .0225215
1047.840 .0225237
1048.422 .0225259
1049.003 .0225286
1049.585 .0225305
1050.166 .0225311
1050.748 .0225302
1051.329 .0225265
1051.910 .0225189
1052.491 .0225091
1053.072 .0224977
1053.653 .0224846
1054.234 .0224714
1054.815 .0224599
1055.396 .0224492
1055.976 .0224404
1056.557 .0224330
1057.138 .0224266
1057.718 .0224199
1058.298 .0224123
1058.879 .0224031
1059.459 .0223937
1060.039 .0223852
1060.620 .0223776
1061.200 .0223719
1061.780 .0223696
1062.360 .0223691
1062.940 .0223701
1063.520 .0223729
1064.101 .0223763
1064.681 .0223788
1065.261 .0223799
1065.841 .0223794
1066.421 .0223781
1067.001 .0223750
1067.581 .0223706
1068.161 .0223653
1068.741 .0223601
1069.321 .0223544
1069.901 .0223477
1070.482 .0223414
1071.062 .0223352
1071.642 .0223281
1072.222 .0223207
1072.803 .0223133
1073.383 .0223052
1073.963 .0222962
1074.544 .0222861
1075.124 .0222765
1075.705 .0222671
1076.286 .0222585
1076.866 .0222526
1077.447 .0222501
1078.028 .0222511
1078.609 .0222535
1079.190 .0222558
1079.771 .0222591
1080.352 .0222614
1080.934 .0222623
1081.515 .0222615
1082.097 .0222608
1082.679 .0222598
1083.260 .0222587
1083.842 .0222582
1084.424 .0222567
1085.007 .0222544
1085.589 .0222504
1086.172 .0222422
1086.754 .0222294
1087.337 .0222125
1087.920 .0221942
1088.503 .0221756
1089.087 .0221600
1089.670 .0221454
1090.254 .0221331
1090.838 .0221241
1091.422 .0221179
1092.006 .0221120
1092.590 .0221060
1093.175 .0221007
1093.760 .0220955
1094.345 .0220921
1094.930 .0220898
1095.516 .0220893
1096.102 .0220933
1096.688 .0221007
1097.274 .0221099
1097.860 .0221171
1098.447 .0221231
1099.034 .0221269
1099.622 .0221275
1100.209 .0221267
1100.797 .0221230
1101.385 .0221194
1101.973 .0221187
1102.562 .0221203
1103.151 .0221232
1103.740 .0221285
1104.330 .0221353
1104.920 .0221416
1105.510 .0221463
1106.101 .0221489
1106.691 .0221495
1107.283 .0221506
1107.874 .0221519
1108.466 .0221532
1109.058 .0221552
1109.651 .0221594
1110.244 .0221624
1110.837 .0221639
1111.431 .0221624
1112.025 .0221547
1112.620 .0221434
1113.215 .0221288
1113.810 .0221116
1114.406 .0220950
1115.002 .0220796
1115.599 .0220674
1116.196 .0220560
1116.793 .0220466
1117.391 .0220372
1117.989 .0220302
1118.588 .0220264
1119.187 .0220231
1119.787 .0220241
1120.387 .0220300
1120.988 .0220424
1121.589 .0220604
1122.190 .0220823
1122.793 .0221062
1123.395 .0221297
1123.998 .0221530
1124.602 .0221723
1125.206 .0221907
1125.811 .0222087
1126.416 .0222258
1127.022 .0222437
1127.628 .0222614
1128.235 .0222801
1128.843 .0223005
1129.451 .0223234
1130.059 .0223470
1130.669 .0223717
1131.278 .0223969
1131.889 .0224216
1132.500 .0224473
1133.112 .0224733
1133.724 .0225002
1134.337 .0225269
1134.950 .0225544
1135.564 .0225849
1136.179 .0226164
1136.795 .0226541
1137.411 .0226963
1138.028 .0227458
1138.645 .0228017
1139.263 .0228615
1139.882 .0229258
1140.502 .0229946
1141.122 .0230684
1141.743 .0231448
1142.365 .0232400
1142.987 .0232671
1143.611 .0233977
1144.235 .0234888
1144.859 .0235623
1145.485 .0241306
