Measurement Sequence started on: 10-20-44-796
Integration time: 35
Scans to Average: 2 
>>>>>Begin Spectral Data<<<<<
432.953 .0165490
433.882 .0317932
434.810 .0332035
435.737 .0320199
436.662 .0317652
437.586 .0318081
438.509 .0324159
439.431 .0324951
440.351 .0325380
441.269 .0326295
442.187 .0327128
443.103 .0327658
444.018 .0328099
444.932 .0328365
445.844 .0328317
446.756 .0327779
447.666 .0327278
448.575 .0326436
449.482 .0325360
450.388 .0324376
451.294 .0323278
452.198 .0322218
453.100 .0321163
454.002 .0320268
454.902 .0319322
455.801 .0318424
456.699 .0317522
457.596 .0316635
458.492 .0315798
459.387 .0315017
460.280 .0314276
461.172 .0313600
462.064 .0313094
462.954 .0312632
463.843 .0312253
464.730 .0312043
465.617 .0311867
466.503 .0311734
467.387 .0311582
468.271 .0311435
469.153 .0311186
470.035 .0310915
470.915 .0310625
471.794 .0310324
472.673 .0310114
473.550 .0309991
474.426 .0309990
475.301 .0310156
476.175 .0310457
477.048 .0310795
477.920 .0311109
478.791 .0311421
479.661 .0311628
480.530 .0311768
481.398 .0311851
482.266 .0311922
483.132 .0311993
483.997 .0312074
484.861 .0312143
485.724 .0312201
486.587 .0312241
487.448 .0312182
488.308 .0312010
489.168 .0311770
490.026 .0311444
490.884 .0311027
491.741 .0310555
492.597 .0310094
493.452 .0309591
494.306 .0309078
495.159 .0308531
496.011 .0307957
496.862 .0307405
497.713 .0306852
498.562 .0306311
499.411 .0305810
500.259 .0305347
501.106 .0304895
501.952 .0304455
502.798 .0304062
503.642 .0303634
504.486 .0303195
505.329 .0302797
506.171 .0302455
507.012 .0302124
507.852 .0301842
508.692 .0301562
509.531 .0301282
510.369 .0300985
511.206 .0300579
512.043 .0300055
512.878 .0299407
513.713 .0298588
514.547 .0297623
515.381 .0296521
516.213 .0295338
517.045 .0293996
517.876 .0292557
518.706 .0290954
519.536 .0289160
520.365 .0287222
521.193 .0285170
522.020 .0283055
522.847 .0280970
523.673 .0278881
524.498 .0276794
525.323 .0274773
526.146 .0272848
526.969 .0270989
527.792 .0269205
528.614 .0267475
529.435 .0265755
530.255 .0264102
531.075 .0262452
531.894 .0260843
532.712 .0259354
533.530 .0258013
534.347 .0256736
535.163 .0255564
535.979 .0254540
536.794 .0253656
537.608 .0252921
538.422 .0252304
539.235 .0251642
540.048 .0251045
540.860 .0250503
541.671 .0250030
542.481 .0249753
543.292 .0249715
544.101 .0249919
544.910 .0250352
545.718 .0250966
546.526 .0251684
547.333 .0252467
548.139 .0253240
548.945 .0253884
549.750 .0254346
550.555 .0254733
551.359 .0255008
552.162 .0255281
552.965 .0255601
553.768 .0255951
554.569 .0256332
555.371 .0256703
556.171 .0257046
556.972 .0257373
557.771 .0257638
558.570 .0257937
559.369 .0258282
560.167 .0258736
560.964 .0259314
561.761 .0260053
562.558 .0260999
563.354 .0262127
564.149 .0263310
564.944 .0264518
565.738 .0265722
566.532 .0266903
567.325 .0268024
568.118 .0269111
568.910 .0270193
569.702 .0271267
570.494 .0272330
571.285 .0273380
572.075 .0274400
572.865 .0275391
573.654 .0276301
574.443 .0277108
575.232 .0277815
576.020 .0278417
576.807 .0278951
577.594 .0279460
578.381 .0279993
579.167 .0280546
579.952 .0281145
580.738 .0281810
581.522 .0282515
582.307 .0283242
583.091 .0283968
583.874 .0284668
584.657 .0285326
585.440 .0285931
586.222 .0286464
587.004 .0286925
587.785 .0287349
588.566 .0287722
589.346 .0288049
590.126 .0288345
590.906 .0288602
591.685 .0288812
592.464 .0288968
593.242 .0289050
594.020 .0289067
594.797 .0289019
595.575 .0288922
596.351 .0288790
597.128 .0288659
597.904 .0288535
598.679 .0288441
599.454 .0288373
600.229 .0288333
601.004 .0288299
601.778 .0288276
602.551 .0288232
603.325 .0288189
604.097 .0288130
604.870 .0288058
605.642 .0287986
606.414 .0287929
607.185 .0287864
607.956 .0287810
608.727 .0287750
609.497 .0287675
610.267 .0287568
611.037 .0287437
611.806 .0287269
612.575 .0287087
613.344 .0286901
614.112 .0286718
614.880 .0286550
615.647 .0286400
616.414 .0286255
617.181 .0286116
617.948 .0285978
618.714 .0285831
619.480 .0285663
620.245 .0285481
621.011 .0285283
621.775 .0285090
622.540 .0284910
623.304 .0284753
624.068 .0284626
624.832 .0284515
625.595 .0284412
626.358 .0284312
627.120 .0284205
627.883 .0284076
628.645 .0283942
629.406 .0283791
630.168 .0283625
630.929 .0283451
631.689 .0283280
632.450 .0283120
633.210 .0282984
633.970 .0282862
634.729 .0282739
635.489 .0282611
636.248 .0282477
637.006 .0282316
637.765 .0282136
638.523 .0281943
639.280 .0281736
640.038 .0281527
640.795 .0281333
641.552 .0281148
642.309 .0280989
643.065 .0280865
643.821 .0280766
644.577 .0280681
645.332 .0280605
646.088 .0280527
646.843 .0280435
647.597 .0280339
648.352 .0280229
649.106 .0280108
649.860 .0279979
650.613 .0279847
651.367 .0279704
652.120 .0279558
652.872 .0279406
653.625 .0279243
654.377 .0279068
655.129 .0278877
655.881 .0278664
656.632 .0278439
657.384 .0278208
658.135 .0277987
658.885 .0277771
659.636 .0277581
660.386 .0277405
661.136 .0277242
661.885 .0277086
662.635 .0276937
663.384 .0276786
664.133 .0276637
664.881 .0276486
665.630 .0276332
666.378 .0276187
667.126 .0276052
667.874 .0275919
668.621 .0275798
669.368 .0275680
670.115 .0275559
670.862 .0275421
671.608 .0275273
672.354 .0275112
673.100 .0274942
673.846 .0274770
674.591 .0274600
675.337 .0274441
676.082 .0274299
676.826 .0274162
677.571 .0274033
678.315 .0273905
679.059 .0273773
679.803 .0273639
680.547 .0273509
681.290 .0273378
682.033 .0273252
682.776 .0273127
683.518 .0273011
684.261 .0272898
685.003 .0272794
685.745 .0272692
686.487 .0272593
687.228 .0272502
687.969 .0272411
688.710 .0272320
689.451 .0272237
690.192 .0272154
690.932 .0272063
691.672 .0271960
692.412 .0271844
693.152 .0271711
693.891 .0271569
694.630 .0271415
695.369 .0271256
696.108 .0271094
696.846 .0270929
697.585 .0270753
698.323 .0270572
699.061 .0270387
699.798 .0270196
700.536 .0270002
701.273 .0269809
702.010 .0269629
702.746 .0269468
703.483 .0269331
704.219 .0269218
704.955 .0269125
705.691 .0269046
706.427 .0268969
707.162 .0268888
707.897 .0268797
708.632 .0268701
709.367 .0268602
710.101 .0268499
710.835 .0268406
711.569 .0268317
712.303 .0268234
713.037 .0268152
713.770 .0268069
714.503 .0267975
715.236 .0267870
715.969 .0267754
716.702 .0267628
717.434 .0267503
718.166 .0267378
718.898 .0267261
719.629 .0267155
720.361 .0267067
721.092 .0266983
721.823 .0266897
722.554 .0266810
723.284 .0266707
724.014 .0266588
724.744 .0266448
725.474 .0266288
726.204 .0266112
726.933 .0265923
727.662 .0265721
728.391 .0265508
729.120 .0265291
729.849 .0265074
730.577 .0264853
731.305 .0264636
732.033 .0264424
732.760 .0264219
733.488 .0264020
734.215 .0263838
734.942 .0263666
735.669 .0263507
736.395 .0263352
737.122 .0263206
737.848 .0263060
738.573 .0262919
739.299 .0262775
740.024 .0262632
740.750 .0262492
741.474 .0262360
742.199 .0262224
742.924 .0262096
743.648 .0261974
744.372 .0261854
745.096 .0261730
745.819 .0261604
746.543 .0261469
747.266 .0261329
747.989 .0261184
748.711 .0261044
749.434 .0260908
750.156 .0260788
750.878 .0260680
751.599 .0260589
752.321 .0260512
753.042 .0260451
753.763 .0260397
754.484 .0260349
755.205 .0260300
755.925 .0260248
756.645 .0260190
757.365 .0260127
758.085 .0260061
758.804 .0259989
759.523 .0259912
760.242 .0259832
760.961 .0259740
761.679 .0259648
762.397 .0259549
763.115 .0259444
763.833 .0259325
764.551 .0259191
765.268 .0259049
765.985 .0258891
766.702 .0258717
767.418 .0258532
768.134 .0258329
768.850 .0258114
769.566 .0257890
770.282 .0257660
770.997 .0257435
771.712 .0257220
772.427 .0257014
773.142 .0256819
773.856 .0256632
774.570 .0256453
775.284 .0256277
775.998 .0256105
776.711 .0255936
777.424 .0255753
778.137 .0255571
778.849 .0255390
779.562 .0255213
780.274 .0255046
780.986 .0254897
781.697 .0254770
782.409 .0254660
783.120 .0254565
783.831 .0254482
784.541 .0254399
785.252 .0254319
785.962 .0254228
786.671 .0254120
787.381 .0254002
788.090 .0253876
788.799 .0253741
789.508 .0253605
790.217 .0253464
790.925 .0253325
791.633 .0253184
792.341 .0253041
793.048 .0252888
793.755 .0252724
794.462 .0252550
795.169 .0252365
795.875 .0252172
796.581 .0251980
797.287 .0251791
797.993 .0251614
798.698 .0251447
799.403 .0251289
800.108 .0251138
800.812 .0250992
801.517 .0250845
802.221 .0250695
802.924 .0250540
803.628 .0250379
804.331 .0250217
805.034 .0250060
805.736 .0249904
806.439 .0249753
807.141 .0249612
807.843 .0249473
808.544 .0249336
809.245 .0249199
809.946 .0249060
810.647 .0248923
811.347 .0248790
812.047 .0248663
812.747 .0248543
813.447 .0248434
814.146 .0248332
814.845 .0248237
815.543 .0248148
816.242 .0248057
816.940 .0247964
817.638 .0247864
818.335 .0247754
819.032 .0247637
819.729 .0247517
820.426 .0247395
821.122 .0247275
821.818 .0247160
822.514 .0247049
823.209 .0246948
823.905 .0246854
824.599 .0246765
825.294 .0246686
825.988 .0246611
826.682 .0246532
827.376 .0246452
828.069 .0246367
828.762 .0246273
829.455 .0246175
830.147 .0246082
830.840 .0245986
831.531 .0245895
832.223 .0245809
832.914 .0245725
833.605 .0245636
834.296 .0245545
834.986 .0245440
835.676 .0245328
836.366 .0245210
837.055 .0245078
837.744 .0244940
838.433 .0244810
839.121 .0244685
839.809 .0244570
840.497 .0244468
841.185 .0244384
841.872 .0244306
842.559 .0244242
843.245 .0244185
843.932 .0244134
844.617 .0244085
845.303 .0244032
845.988 .0243969
846.673 .0243900
847.358 .0243818
848.042 .0243733
848.726 .0243653
849.410 .0243577
850.093 .0243507
850.776 .0243448
851.459 .0243398
852.141 .0243355
852.823 .0243309
853.505 .0243263
854.186 .0243210
854.867 .0243153
855.548 .0243085
856.228 .0243017
856.908 .0242965
857.588 .0242923
858.267 .0242897
858.946 .0242882
859.625 .0242878
860.303 .0242880
860.981 .0242884
861.659 .0242884
862.336 .0242877
863.013 .0242866
863.690 .0242846
864.366 .0242820
865.042 .0242789
865.718 .0242750
866.393 .0242703
867.068 .0242647
867.743 .0242581
868.417 .0242499
869.091 .0242413
869.765 .0242325
870.438 .0242243
871.111 .0242167
871.783 .0242093
872.456 .0242026
873.127 .0241963
873.799 .0241898
874.470 .0241830
875.141 .0241757
875.811 .0241685
876.481 .0241607
877.151 .0241536
877.820 .0241475
878.489 .0241429
879.158 .0241397
879.826 .0241382
880.494 .0241376
881.162 .0241373
881.829 .0241366
882.496 .0241351
883.163 .0241327
883.829 .0241295
884.495 .0241248
885.160 .0241199
885.825 .0241154
886.490 .0241124
887.154 .0241097
887.818 .0241077
888.482 .0241055
889.145 .0241024
889.808 .0240982
890.471 .0240928
891.133 .0240860
891.795 .0240784
892.456 .0240699
893.117 .0240612
893.778 .0240523
894.439 .0240440
895.099 .0240357
895.758 .0240277
896.417 .0240195
897.076 .0240103
897.735 .0239999
898.393 .0239890
899.051 .0239780
899.708 .0239674
900.365 .0239580
901.022 .0239496
901.678 .0239425
902.334 .0239374
902.990 .0239333
903.645 .0239299
904.300 .0239271
904.954 .0239240
905.608 .0239195
906.262 .0239144
906.915 .0239087
907.568 .0239022
908.221 .0238955
908.873 .0238886
909.525 .0238814
910.176 .0238746
910.828 .0238676
911.478 .0238602
912.129 .0238527
912.778 .0238448
913.428 .0238352
914.077 .0238248
914.726 .0238142
915.375 .0238030
916.023 .0237919
916.670 .0237818
917.318 .0237721
917.964 .0237636
918.611 .0237566
919.257 .0237505
919.903 .0237453
920.548 .0237409
921.193 .0237369
921.838 .0237333
922.482 .0237302
923.126 .0237268
923.770 .0237227
924.413 .0237186
925.056 .0237140
925.698 .0237084
926.340 .0237025
926.982 .0236963
927.623 .0236894
928.264 .0236818
928.904 .0236723
929.544 .0236604
930.184 .0236466
930.823 .0236307
931.462 .0236129
932.101 .0235934
932.739 .0235729
933.377 .0235514
934.014 .0235298
934.651 .0235083
935.288 .0234868
935.924 .0234655
936.560 .0234448
937.196 .0234245
937.831 .0234048
938.466 .0233861
939.100 .0233691
939.734 .0233536
940.368 .0233399
941.001 .0233270
941.634 .0233148
942.266 .0233027
942.899 .0232903
943.530 .0232768
944.162 .0232619
944.793 .0232455
945.423 .0232278
946.053 .0232085
946.683 .0231884
947.313 .0231665
947.942 .0231433
948.571 .0231185
949.199 .0230920
949.827 .0230637
950.455 .0230346
951.082 .0230058
951.709 .0229775
952.335 .0229501
952.961 .0229247
953.587 .0229007
954.212 .0228781
954.837 .0228555
955.462 .0228332
956.086 .0228109
956.710 .0227887
957.334 .0227663
957.957 .0227448
958.579 .0227254
959.202 .0227077
959.824 .0226916
960.445 .0226768
961.067 .0226628
961.688 .0226487
962.308 .0226338
962.928 .0226183
963.548 .0226014
964.168 .0225842
964.787 .0225670
965.406 .0225508
966.024 .0225364
966.642 .0225236
967.260 .0225128
967.877 .0225033
968.494 .0224945
969.110 .0224848
969.727 .0224743
970.342 .0224632
970.958 .0224513
971.573 .0224391
972.188 .0224272
972.802 .0224167
973.416 .0224084
974.030 .0224014
974.643 .0223960
975.256 .0223914
975.869 .0223873
976.481 .0223828
977.093 .0223782
977.705 .0223733
978.316 .0223686
978.927 .0223646
979.538 .0223608
980.148 .0223571
980.758 .0223535
981.367 .0223493
981.977 .0223441
982.586 .0223378
983.194 .0223300
983.802 .0223204
984.410 .0223099
985.018 .0222979
985.625 .0222860
986.232 .0222741
986.838 .0222628
987.445 .0222518
988.050 .0222412
988.656 .0222310
989.261 .0222208
989.866 .0222102
990.471 .0221998
991.075 .0221885
991.679 .0221769
992.282 .0221654
992.886 .0221549
993.489 .0221455
994.091 .0221377
994.694 .0221314
995.296 .0221269
995.897 .0221227
996.499 .0221192
997.100 .0221146
997.701 .0221097
998.301 .0221038
998.901 .0220966
999.501 .0220892
1000.101 .0220825
1000.700 .0220768
1001.299 .0220729
1001.898 .0220710
1002.496 .0220708
1003.094 .0220715
1003.692 .0220727
1004.289 .0220737
1004.887 .0220741
1005.484 .0220732
1006.080 .0220715
1006.677 .0220687
1007.273 .0220657
1007.868 .0220619
1008.464 .0220582
1009.059 .0220556
1009.654 .0220530
1010.249 .0220512
1010.843 .0220493
1011.437 .0220480
1012.031 .0220474
1012.625 .0220477
1013.218 .0220487
1013.811 .0220509
1014.404 .0220547
1014.997 .0220598
1015.589 .0220663
1016.181 .0220747
1016.773 .0220838
1017.365 .0220944
1017.956 .0221060
1018.547 .0221177
1019.138 .0221290
1019.728 .0221400
1020.319 .0221502
1020.909 .0221603
1021.499 .0221695
1022.088 .0221780
1022.678 .0221852
1023.267 .0221918
1023.856 .0221971
1024.445 .0222007
1025.033 .0222035
1025.621 .0222046
1026.209 .0222038
1026.797 .0222010
1027.385 .0221968
1027.972 .0221919
1028.560 .0221871
1029.147 .0221826
1029.734 .0221797
1030.320 .0221773
1030.907 .0221763
1031.493 .0221767
1032.079 .0221779
1032.665 .0221807
1033.250 .0221838
1033.836 .0221872
1034.421 .0221914
1035.006 .0221962
1035.591 .0222021
1036.176 .0222082
1036.761 .0222158
1037.345 .0222232
1037.929 .0222293
1038.514 .0222343
1039.097 .0222373
1039.681 .0222384
1040.265 .0222381
1040.848 .0222371
1041.432 .0222356
1042.015 .0222347
1042.598 .0222335
1043.181 .0222329
1043.764 .0222320
1044.346 .0222305
1044.929 .0222274
1045.511 .0222232
1046.094 .0222181
1046.676 .0222131
1047.258 .0222083
1047.840 .0222057
1048.422 .0222048
1049.003 .0222065
1049.585 .0222099
1050.166 .0222148
1050.748 .0222197
1051.329 .0222243
1051.910 .0222264
1052.491 .0222261
1053.072 .0222251
1053.653 .0222242
1054.234 .0222239
1054.815 .0222259
1055.396 .0222307
1055.976 .0222379
1056.557 .0222470
1057.138 .0222577
1057.718 .0222692
1058.298 .0222816
1058.879 .0222938
1059.459 .0223054
1060.039 .0223184
1060.620 .0223314
1061.200 .0223452
1061.780 .0223604
1062.360 .0223782
1062.940 .0223947
1063.520 .0224085
1064.101 .0224191
1064.681 .0224262
1065.261 .0224292
1065.841 .0224277
1066.421 .0224229
1067.001 .0224170
1067.581 .0224098
1068.161 .0224006
1068.741 .0223910
1069.321 .0223821
1069.901 .0223725
1070.482 .0223615
1071.062 .0223488
1071.642 .0223351
1072.222 .0223215
1072.803 .0223096
1073.383 .0223001
1073.963 .0222951
1074.544 .0222928
1075.124 .0222915
1075.705 .0222925
1076.286 .0222944
1076.866 .0222972
1077.447 .0222995
1078.028 .0223026
1078.609 .0223062
1079.190 .0223092
1079.771 .0223132
1080.352 .0223175
1080.934 .0223247
1081.515 .0223333
1082.097 .0223415
1082.679 .0223483
1083.260 .0223550
1083.842 .0223610
1084.424 .0223673
1085.007 .0223724
1085.589 .0223799
1086.172 .0223873
1086.754 .0223953
1087.337 .0224047
1087.920 .0224166
1088.503 .0224306
1089.087 .0224473
1089.670 .0224626
1090.254 .0224790
1090.838 .0224926
1091.422 .0225074
1092.006 .0225199
1092.590 .0225325
1093.175 .0225440
1093.760 .0225542
1094.345 .0225621
1094.930 .0225699
1095.516 .0225750
1096.102 .0225812
1096.688 .0225829
1097.274 .0225826
1097.860 .0225776
1098.447 .0225685
1099.034 .0225559
1099.622 .0225405
1100.209 .0225216
1100.797 .0225018
1101.385 .0224786
1101.973 .0224550
1102.562 .0224286
1103.151 .0224056
1103.740 .0223853
1104.330 .0223697
1104.920 .0223604
1105.510 .0223567
1106.101 .0223604
1106.691 .0223716
1107.283 .0223887
1107.874 .0224120
1108.466 .0224364
1109.058 .0224617
1109.651 .0224869
1110.244 .0225093
1110.837 .0225283
1111.431 .0225454
1112.025 .0225596
1112.620 .0225724
1113.215 .0225823
1113.810 .0225892
1114.406 .0225927
1115.002 .0225953
1115.599 .0225948
1116.196 .0225856
1116.793 .0225727
1117.391 .0225543
1117.989 .0225300
1118.588 .0225074
1119.187 .0224851
1119.787 .0224663
1120.387 .0224528
1120.988 .0224451
1121.589 .0224391
1122.190 .0224350
1122.793 .0224329
1123.395 .0224266
1123.998 .0224165
1124.602 .0224033
1125.206 .0223851
1125.811 .0223697
1126.416 .0223602
1127.022 .0223548
1127.628 .0223545
1128.235 .0223594
1128.843 .0223668
1129.451 .0223774
1130.059 .0223900
1130.669 .0224074
1131.278 .0224282
1131.889 .0224514
1132.500 .0224771
1133.112 .0225057
1133.724 .0225380
1134.337 .0225718
1134.950 .0226058
1135.564 .0226389
1136.179 .0226669
1136.795 .0226933
1137.411 .0227226
1138.028 .0227565
1138.645 .0227999
1139.263 .0228520
1139.882 .0229073
1140.502 .0229769
1141.122 .0230578
1141.743 .0231467
1142.365 .0232630
1142.987 .0231499
1143.611 .0234987
1144.235 .0236485
1144.859 .0236722
1145.485 .0243239
