Measurement Sequence started on: 10-20-44-796
Integration time: 35
Scans to Average: 2 
>>>>>Begin Spectral Data<<<<<
432.953 .0240104
433.882 .0298813
434.810 .0284043
435.737 .0290824
436.662 .0312993
437.586 .0310376
438.509 .0316441
439.431 .0319862
440.351 .0322844
441.269 .0324807
442.187 .0325576
443.103 .0325759
444.018 .0325946
444.932 .0325744
445.844 .0325487
446.756 .0325241
447.666 .0325174
448.575 .0325270
449.482 .0325486
450.388 .0325797
451.294 .0326158
452.198 .0326591
453.100 .0326946
454.002 .0327277
454.902 .0327553
455.801 .0327810
456.699 .0328026
457.596 .0328236
458.492 .0328526
459.387 .0328805
460.280 .0329039
461.172 .0329142
462.064 .0329163
462.954 .0329085
463.843 .0328866
464.730 .0328559
465.617 .0328168
466.503 .0327791
467.387 .0327388
468.271 .0326983
469.153 .0326622
470.035 .0326262
470.915 .0325922
471.794 .0325576
472.673 .0325249
473.550 .0324914
474.426 .0324618
475.301 .0324356
476.175 .0324162
477.048 .0323985
477.920 .0323839
478.791 .0323728
479.661 .0323650
480.530 .0323618
481.398 .0323569
482.266 .0323565
483.132 .0323627
483.997 .0323707
484.861 .0323845
485.724 .0324027
486.587 .0324236
487.448 .0324444
488.308 .0324602
489.168 .0324707
490.026 .0324747
490.884 .0324697
491.741 .0324562
492.597 .0324373
493.452 .0324104
494.306 .0323779
495.159 .0323373
496.011 .0322921
496.862 .0322387
497.713 .0321743
498.562 .0321004
499.411 .0320145
500.259 .0319222
501.106 .0318272
501.952 .0317294
502.798 .0316367
503.642 .0315464
504.486 .0314590
505.329 .0313750
506.171 .0312911
507.012 .0312036
507.852 .0311137
508.692 .0310195
509.531 .0309249
510.369 .0308298
511.206 .0307383
512.043 .0306504
512.878 .0305618
513.713 .0304718
514.547 .0303733
515.381 .0302599
516.213 .0301347
517.045 .0299932
517.876 .0298379
518.706 .0296759
519.536 .0295080
520.365 .0293383
521.193 .0291669
522.020 .0289943
522.847 .0288157
523.673 .0286213
524.498 .0284108
525.323 .0281762
526.146 .0279273
526.969 .0276744
527.792 .0274205
528.614 .0271703
529.435 .0269421
530.255 .0267360
531.075 .0265512
531.894 .0263879
532.712 .0262411
533.530 .0261063
534.347 .0259798
535.163 .0258568
535.979 .0257438
536.794 .0256418
537.608 .0255651
538.422 .0255088
539.235 .0254746
540.048 .0254677
540.860 .0254861
541.671 .0255302
542.481 .0255991
543.292 .0256823
544.101 .0257738
544.910 .0258704
545.718 .0259698
546.526 .0260642
547.333 .0261479
548.139 .0262279
548.945 .0263010
549.750 .0263654
550.555 .0264261
551.359 .0264808
552.162 .0265341
552.965 .0265877
553.768 .0266346
554.569 .0266730
555.371 .0267043
556.171 .0267303
556.972 .0267502
557.771 .0267678
558.570 .0267901
559.369 .0268202
560.167 .0268582
560.964 .0269142
561.761 .0269843
562.558 .0270712
563.354 .0271777
564.149 .0272963
564.944 .0274233
565.738 .0275582
566.532 .0276957
567.325 .0278326
568.118 .0279667
568.910 .0280996
569.702 .0282250
570.494 .0283442
571.285 .0284590
572.075 .0285660
572.865 .0286644
573.654 .0287565
574.443 .0288372
575.232 .0289096
576.020 .0289745
576.807 .0290319
577.594 .0290848
578.381 .0291362
579.167 .0291873
579.952 .0292377
580.738 .0292907
581.522 .0293468
582.307 .0294020
583.091 .0294575
583.874 .0295116
584.657 .0295638
585.440 .0296128
586.222 .0296575
587.004 .0296975
587.785 .0297326
588.566 .0297623
589.346 .0297858
590.126 .0298050
590.906 .0298196
591.685 .0298304
592.464 .0298366
593.242 .0298398
594.020 .0298406
594.797 .0298395
595.575 .0298372
596.351 .0298359
597.128 .0298351
597.904 .0298344
598.679 .0298348
599.454 .0298354
600.229 .0298357
601.004 .0298368
601.778 .0298371
602.551 .0298371
603.325 .0298361
604.097 .0298347
604.870 .0298326
605.642 .0298311
606.414 .0298293
607.185 .0298261
607.956 .0298223
608.727 .0298171
609.497 .0298091
610.267 .0297993
611.037 .0297874
611.806 .0297735
612.575 .0297581
613.344 .0297418
614.112 .0297250
614.880 .0297083
615.647 .0296921
616.414 .0296766
617.181 .0296620
617.948 .0296483
618.714 .0296342
619.480 .0296209
620.245 .0296082
621.011 .0295949
621.775 .0295809
622.540 .0295667
623.304 .0295522
624.068 .0295378
624.832 .0295232
625.595 .0295091
626.358 .0294960
627.120 .0294834
627.883 .0294708
628.645 .0294580
629.406 .0294449
630.168 .0294308
630.929 .0294157
631.689 .0294001
632.450 .0293833
633.210 .0293668
633.970 .0293510
634.729 .0293365
635.489 .0293235
636.248 .0293109
637.006 .0292992
637.765 .0292873
638.523 .0292747
639.280 .0292602
640.038 .0292441
640.795 .0292273
641.552 .0292091
642.309 .0291910
643.065 .0291731
643.821 .0291561
644.577 .0291402
645.332 .0291248
646.088 .0291092
646.843 .0290933
647.597 .0290764
648.352 .0290587
649.106 .0290409
649.860 .0290220
650.613 .0290033
651.367 .0289854
652.120 .0289687
652.872 .0289528
653.625 .0289378
654.377 .0289241
655.129 .0289109
655.881 .0288976
656.632 .0288838
657.384 .0288696
658.135 .0288559
658.885 .0288415
659.636 .0288267
660.386 .0288115
661.136 .0287962
661.885 .0287801
662.635 .0287642
663.384 .0287484
664.133 .0287333
664.881 .0287186
665.630 .0287049
666.378 .0286925
667.126 .0286812
667.874 .0286706
668.621 .0286610
669.368 .0286520
670.115 .0286432
670.862 .0286339
671.608 .0286248
672.354 .0286160
673.100 .0286077
673.846 .0285999
674.591 .0285926
675.337 .0285859
676.082 .0285795
676.826 .0285723
677.571 .0285642
678.315 .0285552
679.059 .0285444
679.803 .0285316
680.547 .0285168
681.290 .0284998
682.033 .0284810
682.776 .0284609
683.518 .0284400
684.261 .0284189
685.003 .0283985
685.745 .0283789
686.487 .0283607
687.228 .0283442
687.969 .0283291
688.710 .0283152
689.451 .0283024
690.192 .0282898
690.932 .0282768
691.672 .0282633
692.412 .0282493
693.152 .0282347
693.891 .0282202
694.630 .0282054
695.369 .0281909
696.108 .0281765
696.846 .0281620
697.585 .0281468
698.323 .0281311
699.061 .0281147
699.798 .0280969
700.536 .0280780
701.273 .0280585
702.010 .0280387
702.746 .0280194
703.483 .0280009
704.219 .0279838
704.955 .0279683
705.691 .0279545
706.427 .0279419
707.162 .0279307
707.897 .0279204
708.632 .0279108
709.367 .0279014
710.101 .0278920
710.835 .0278822
711.569 .0278713
712.303 .0278594
713.037 .0278464
713.770 .0278322
714.503 .0278172
715.236 .0278015
715.969 .0277855
716.702 .0277698
717.434 .0277540
718.166 .0277383
718.898 .0277227
719.629 .0277071
720.361 .0276907
721.092 .0276734
721.823 .0276554
722.554 .0276363
723.284 .0276166
724.014 .0275959
724.744 .0275746
725.474 .0275530
726.204 .0275315
726.933 .0275098
727.662 .0274880
728.391 .0274664
729.120 .0274444
729.849 .0274224
730.577 .0274007
731.305 .0273788
732.033 .0273574
732.760 .0273362
733.488 .0273160
734.215 .0272968
734.942 .0272790
735.669 .0272623
736.395 .0272471
737.122 .0272330
737.848 .0272194
738.573 .0272060
739.299 .0271924
740.024 .0271787
740.750 .0271649
741.474 .0271508
742.199 .0271368
742.924 .0271231
743.648 .0271101
744.372 .0270974
745.096 .0270858
745.819 .0270742
746.543 .0270626
747.266 .0270509
747.989 .0270387
748.711 .0270261
749.434 .0270133
750.156 .0270005
750.878 .0269882
751.599 .0269770
752.321 .0269669
753.042 .0269580
753.763 .0269509
754.484 .0269448
755.205 .0269392
755.925 .0269338
756.645 .0269277
757.365 .0269199
758.085 .0269105
758.804 .0268994
759.523 .0268863
760.242 .0268718
760.961 .0268565
761.679 .0268409
762.397 .0268251
763.115 .0268089
763.833 .0267917
764.551 .0267739
765.268 .0267547
765.985 .0267335
766.702 .0267108
767.418 .0266872
768.134 .0266632
768.850 .0266393
769.566 .0266162
770.282 .0265942
770.997 .0265737
771.712 .0265541
772.427 .0265357
773.142 .0265179
773.856 .0265000
774.570 .0264820
775.284 .0264639
775.998 .0264453
776.711 .0264261
777.424 .0264069
778.137 .0263877
778.849 .0263681
779.562 .0263486
780.274 .0263288
780.986 .0263093
781.697 .0262908
782.409 .0262730
783.120 .0262563
783.831 .0262412
784.541 .0262271
785.252 .0262142
785.962 .0262024
786.671 .0261916
787.381 .0261814
788.090 .0261721
788.799 .0261638
789.508 .0261559
790.217 .0261491
790.925 .0261431
791.633 .0261377
792.341 .0261323
793.048 .0261261
793.755 .0261187
794.462 .0261100
795.169 .0261001
795.875 .0260891
796.581 .0260774
797.287 .0260654
797.993 .0260529
798.698 .0260407
799.403 .0260286
800.108 .0260166
800.812 .0260045
801.517 .0259922
802.221 .0259792
802.924 .0259653
803.628 .0259505
804.331 .0259356
805.034 .0259210
805.736 .0259067
806.439 .0258931
807.141 .0258803
807.843 .0258688
808.544 .0258581
809.245 .0258482
809.946 .0258389
810.647 .0258302
811.347 .0258221
812.047 .0258142
812.747 .0258067
813.447 .0257994
814.146 .0257921
814.845 .0257853
815.543 .0257788
816.242 .0257727
816.940 .0257668
817.638 .0257609
818.335 .0257550
819.032 .0257489
819.729 .0257415
820.426 .0257335
821.122 .0257240
821.818 .0257136
822.514 .0257014
823.209 .0256885
823.905 .0256755
824.599 .0256622
825.294 .0256492
825.988 .0256362
826.682 .0256233
827.376 .0256110
828.069 .0255986
828.762 .0255865
829.455 .0255745
830.147 .0255627
830.840 .0255505
831.531 .0255383
832.223 .0255260
832.914 .0255139
833.605 .0255018
834.296 .0254901
834.986 .0254781
835.676 .0254660
836.366 .0254538
837.055 .0254410
837.744 .0254283
838.433 .0254148
839.121 .0254008
839.809 .0253864
840.497 .0253719
841.185 .0253575
841.872 .0253429
842.559 .0253293
843.245 .0253167
843.932 .0253051
844.617 .0252942
845.303 .0252838
845.988 .0252742
846.673 .0252649
847.358 .0252557
848.042 .0252465
848.726 .0252377
849.410 .0252293
850.093 .0252216
850.776 .0252143
851.459 .0252078
852.141 .0252015
852.823 .0251954
853.505 .0251896
854.186 .0251833
854.867 .0251762
855.548 .0251683
856.228 .0251601
856.908 .0251511
857.588 .0251413
858.267 .0251309
858.946 .0251199
859.625 .0251087
860.303 .0250968
860.981 .0250839
861.659 .0250708
862.336 .0250574
863.013 .0250431
863.690 .0250281
864.366 .0250126
865.042 .0249968
865.718 .0249805
866.393 .0249642
867.068 .0249475
867.743 .0249308
868.417 .0249144
869.091 .0248981
869.765 .0248820
870.438 .0248664
871.111 .0248515
871.783 .0248372
872.456 .0248237
873.127 .0248107
873.799 .0247979
874.470 .0247853
875.141 .0247724
875.811 .0247587
876.481 .0247446
877.151 .0247305
877.820 .0247168
878.489 .0247033
879.158 .0246905
879.826 .0246784
880.494 .0246669
881.162 .0246555
881.829 .0246439
882.496 .0246309
883.163 .0246169
883.829 .0246017
884.495 .0245854
885.160 .0245687
885.825 .0245526
886.490 .0245381
887.154 .0245257
887.818 .0245151
888.482 .0245066
889.145 .0244995
889.808 .0244936
890.471 .0244878
891.133 .0244815
891.795 .0244749
892.456 .0244681
893.117 .0244611
893.778 .0244548
894.439 .0244488
895.099 .0244437
895.758 .0244389
896.417 .0244344
897.076 .0244294
897.735 .0244233
898.393 .0244156
899.051 .0244067
899.708 .0243956
900.365 .0243827
901.022 .0243683
901.678 .0243530
902.334 .0243370
902.990 .0243206
903.645 .0243043
904.300 .0242886
904.954 .0242736
905.608 .0242596
906.262 .0242458
906.915 .0242330
907.568 .0242201
908.221 .0242073
908.873 .0241949
909.525 .0241827
910.176 .0241710
910.828 .0241602
911.478 .0241508
912.129 .0241423
912.778 .0241352
913.428 .0241292
914.077 .0241239
914.726 .0241192
915.375 .0241144
916.023 .0241095
916.670 .0241046
917.318 .0240998
917.964 .0240948
918.611 .0240900
919.257 .0240854
919.903 .0240804
920.548 .0240753
921.193 .0240699
921.838 .0240641
922.482 .0240579
923.126 .0240514
923.770 .0240444
924.413 .0240372
925.056 .0240294
925.698 .0240210
926.340 .0240115
926.982 .0240013
927.623 .0239900
928.264 .0239781
928.904 .0239658
929.544 .0239539
930.184 .0239421
930.823 .0239315
931.462 .0239213
932.101 .0239113
932.739 .0239013
933.377 .0238910
934.014 .0238797
934.651 .0238678
935.288 .0238557
935.924 .0238436
936.560 .0238319
937.196 .0238216
937.831 .0238120
938.466 .0238034
939.100 .0237959
939.734 .0237880
940.368 .0237795
941.001 .0237700
941.634 .0237589
942.266 .0237467
942.899 .0237329
943.530 .0237181
944.162 .0237027
944.793 .0236872
945.423 .0236714
946.053 .0236549
946.683 .0236381
947.313 .0236209
947.942 .0236027
948.571 .0235835
949.199 .0235636
949.827 .0235435
950.455 .0235237
951.082 .0235046
951.709 .0234874
952.335 .0234720
952.961 .0234589
953.587 .0234478
954.212 .0234377
954.837 .0234282
955.462 .0234189
956.086 .0234093
956.710 .0233995
957.334 .0233895
957.957 .0233795
958.579 .0233696
959.202 .0233605
959.824 .0233517
960.445 .0233430
961.067 .0233344
961.688 .0233255
962.308 .0233156
962.928 .0233050
963.548 .0232929
964.168 .0232807
964.787 .0232682
965.406 .0232557
966.024 .0232435
966.642 .0232319
967.260 .0232213
967.877 .0232118
968.494 .0232030
969.110 .0231953
969.727 .0231883
970.342 .0231819
970.958 .0231753
971.573 .0231692
972.188 .0231633
972.802 .0231578
973.416 .0231528
974.030 .0231486
974.643 .0231449
975.256 .0231431
975.869 .0231429
976.481 .0231448
977.093 .0231486
977.705 .0231540
978.316 .0231603
978.927 .0231677
979.538 .0231752
980.148 .0231823
980.758 .0231882
981.367 .0231937
981.977 .0231982
982.586 .0232019
983.194 .0232054
983.802 .0232089
984.410 .0232118
985.018 .0232143
985.625 .0232154
986.232 .0232151
986.838 .0232133
987.445 .0232102
988.050 .0232059
988.656 .0232015
989.261 .0231968
989.866 .0231925
990.471 .0231887
991.075 .0231865
991.679 .0231849
992.282 .0231833
992.886 .0231818
993.489 .0231807
994.091 .0231788
994.694 .0231771
995.296 .0231752
995.897 .0231734
996.499 .0231715
997.100 .0231696
997.701 .0231673
998.301 .0231652
998.901 .0231630
999.501 .0231600
1000.101 .0231562
1000.700 .0231520
1001.299 .0231465
1001.898 .0231409
1002.496 .0231364
1003.094 .0231325
1003.692 .0231295
1004.289 .0231278
1004.887 .0231272
1005.484 .0231278
1006.080 .0231290
1006.677 .0231298
1007.273 .0231298
1007.868 .0231293
1008.464 .0231282
1009.059 .0231262
1009.654 .0231246
1010.249 .0231242
1010.843 .0231247
1011.437 .0231265
1012.031 .0231291
1012.625 .0231324
1013.218 .0231358
1013.811 .0231393
1014.404 .0231424
1014.997 .0231454
1015.589 .0231484
1016.181 .0231520
1016.773 .0231566
1017.365 .0231627
1017.956 .0231698
1018.547 .0231770
1019.138 .0231836
1019.728 .0231892
1020.319 .0231927
1020.909 .0231944
1021.499 .0231939
1022.088 .0231921
1022.678 .0231888
1023.267 .0231847
1023.856 .0231800
1024.445 .0231752
1025.033 .0231703
1025.621 .0231651
1026.209 .0231592
1026.797 .0231531
1027.385 .0231467
1027.972 .0231406
1028.560 .0231355
1029.147 .0231315
1029.734 .0231292
1030.320 .0231289
1030.907 .0231302
1031.493 .0231331
1032.079 .0231369
1032.665 .0231406
1033.250 .0231436
1033.836 .0231456
1034.421 .0231465
1035.006 .0231460
1035.591 .0231449
1036.176 .0231429
1036.761 .0231402
1037.345 .0231369
1037.929 .0231328
1038.514 .0231277
1039.097 .0231221
1039.681 .0231158
1040.265 .0231094
1040.848 .0231034
1041.432 .0230984
1042.015 .0230949
1042.598 .0230931
1043.181 .0230931
1043.764 .0230946
1044.346 .0230965
1044.929 .0230985
1045.511 .0231003
1046.094 .0231021
1046.676 .0231039
1047.258 .0231059
1047.840 .0231085
1048.422 .0231118
1049.003 .0231163
1049.585 .0231208
1050.166 .0231241
1050.748 .0231260
1051.329 .0231259
1051.910 .0231227
1052.491 .0231171
1053.072 .0231098
1053.653 .0231006
1054.234 .0230912
1054.815 .0230825
1055.396 .0230737
1055.976 .0230660
1056.557 .0230586
1057.138 .0230509
1057.718 .0230412
1058.298 .0230312
1058.879 .0230195
1059.459 .0230078
1060.039 .0229970
1060.620 .0229859
1061.200 .0229742
1061.780 .0229642
1062.360 .0229541
1062.940 .0229441
1063.520 .0229346
1064.101 .0229259
1064.681 .0229167
1065.261 .0229088
1065.841 .0229010
1066.421 .0228937
1067.001 .0228871
1067.581 .0228816
1068.161 .0228745
1068.741 .0228668
1069.321 .0228589
1069.901 .0228507
1070.482 .0228429
1071.062 .0228370
1071.642 .0228321
1072.222 .0228282
1072.803 .0228245
1073.383 .0228204
1073.963 .0228136
1074.544 .0228054
1075.124 .0227945
1075.705 .0227804
1076.286 .0227637
1076.866 .0227456
1077.447 .0227269
1078.028 .0227089
1078.609 .0226934
1079.190 .0226799
1079.771 .0226677
1080.352 .0226572
1080.934 .0226480
1081.515 .0226393
1082.097 .0226309
1082.679 .0226222
1083.260 .0226140
1083.842 .0226065
1084.424 .0225990
1085.007 .0225914
1085.589 .0225851
1086.172 .0225807
1086.754 .0225769
1087.337 .0225733
1087.920 .0225707
1088.503 .0225675
1089.087 .0225626
1089.670 .0225557
1090.254 .0225463
1090.838 .0225334
1091.422 .0225184
1092.006 .0225012
1092.590 .0224843
1093.175 .0224667
1093.760 .0224492
1094.345 .0224330
1094.930 .0224181
1095.516 .0224038
1096.102 .0223916
1096.688 .0223826
1097.274 .0223775
1097.860 .0223756
1098.447 .0223790
1099.034 .0223867
1099.622 .0223990
1100.209 .0224138
1100.797 .0224299
1101.385 .0224453
1101.973 .0224599
1102.562 .0224696
1103.151 .0224770
1103.740 .0224826
1104.330 .0224851
1104.920 .0224858
1105.510 .0224854
1106.101 .0224844
1106.691 .0224802
1107.283 .0224733
1107.874 .0224640
1108.466 .0224510
1109.058 .0224364
1109.651 .0224194
1110.244 .0224036
1110.837 .0223900
1111.431 .0223808
1112.025 .0223778
1112.620 .0223830
1113.215 .0223949
1113.810 .0224102
1114.406 .0224274
1115.002 .0224453
1115.599 .0224591
1116.196 .0224672
1116.793 .0224717
1117.391 .0224715
1117.989 .0224670
1118.588 .0224600
1119.187 .0224519
1119.787 .0224436
1120.387 .0224347
1120.988 .0224262
1121.589 .0224169
1122.190 .0224095
1122.793 .0224025
1123.395 .0223943
1123.998 .0223928
1124.602 .0223988
1125.206 .0224096
1125.811 .0224276
1126.416 .0224519
1127.022 .0224782
1127.628 .0225068
1128.235 .0225351
1128.843 .0225625
1129.451 .0225900
1130.059 .0226196
1130.669 .0226503
1131.278 .0226826
1131.889 .0227167
1132.500 .0227501
1133.112 .0227828
1133.724 .0228153
1134.337 .0228403
1134.950 .0228577
1135.564 .0228700
1136.179 .0228784
1136.795 .0228860
1137.411 .0228949
1138.028 .0229078
1138.645 .0229276
1139.263 .0229504
1139.882 .0229739
1140.502 .0229971
1141.122 .0230218
1141.743 .0230567
1142.365 .0231060
1142.987 .0230374
1143.611 .0230775
1144.235 .0231221
1144.859 .0234393
1145.485 .0237819
