Measurement Sequence started on: 10-20-44-796
Integration time: 35
Scans to Average: 2 
>>>>>Begin Spectral Data<<<<<
432.953 .0460513
433.882 .0474320
434.810 .0429189
435.737 .0406690
436.662 .0389305
437.586 .0398736
438.509 .0391579
439.431 .0385938
440.351 .0382911
441.269 .0381220
442.187 .0380223
443.103 .0379580
444.018 .0379024
444.932 .0378682
445.844 .0378557
446.756 .0378530
447.666 .0378452
448.575 .0378259
449.482 .0377937
450.388 .0377417
451.294 .0376643
452.198 .0375857
453.100 .0374953
454.002 .0374105
454.902 .0373347
455.801 .0372662
456.699 .0372075
457.596 .0371613
458.492 .0371233
459.387 .0370939
460.280 .0370679
461.172 .0370454
462.064 .0370201
462.954 .0369963
463.843 .0369620
464.730 .0369241
465.617 .0368828
466.503 .0368398
467.387 .0367898
468.271 .0367400
469.153 .0366876
470.035 .0366350
470.915 .0365871
471.794 .0365435
472.673 .0365024
473.550 .0364674
474.426 .0364377
475.301 .0364169
476.175 .0364063
477.048 .0364010
477.920 .0363993
478.791 .0364020
479.661 .0364052
480.530 .0364075
481.398 .0364085
482.266 .0364112
483.132 .0364182
483.997 .0364275
484.861 .0364393
485.724 .0364538
486.587 .0364679
487.448 .0364774
488.308 .0364782
489.168 .0364670
490.026 .0364403
490.884 .0363984
491.741 .0363460
492.597 .0362847
493.452 .0362223
494.306 .0361620
495.159 .0361024
496.011 .0360468
496.862 .0359916
497.713 .0359288
498.562 .0358558
499.411 .0357704
500.259 .0356701
501.106 .0355577
501.952 .0354367
502.798 .0353129
503.642 .0351934
504.486 .0350816
505.329 .0349792
506.171 .0348876
507.012 .0348048
507.852 .0347235
508.692 .0346402
509.531 .0345519
510.369 .0344553
511.206 .0343534
512.043 .0342459
512.878 .0341332
513.713 .0340211
514.547 .0339092
515.381 .0337963
516.213 .0336837
517.045 .0335657
517.876 .0334358
518.706 .0332939
519.536 .0331376
520.365 .0329624
521.193 .0327770
522.020 .0325895
522.847 .0323999
523.673 .0322193
524.498 .0320516
525.323 .0318882
526.146 .0317358
526.969 .0315893
527.792 .0314422
528.614 .0312890
529.435 .0311342
530.255 .0309772
531.075 .0308239
531.894 .0306864
532.712 .0305629
533.530 .0304558
534.347 .0303722
535.163 .0302976
535.979 .0302346
536.794 .0301787
537.608 .0301305
538.422 .0300885
539.235 .0300561
540.048 .0300325
540.860 .0300269
541.671 .0300377
542.481 .0300696
543.292 .0301128
544.101 .0301670
544.910 .0302217
545.718 .0302732
546.526 .0303225
547.333 .0303701
548.139 .0304133
548.945 .0304570
549.750 .0304924
550.555 .0305273
551.359 .0305561
552.162 .0305811
552.965 .0305981
553.768 .0306106
554.569 .0306129
555.371 .0306089
556.171 .0305972
556.972 .0305872
557.771 .0305741
558.570 .0305650
559.369 .0305547
560.167 .0305459
560.964 .0305375
561.761 .0305337
562.558 .0305320
563.354 .0305412
564.149 .0305525
564.944 .0305733
565.738 .0305997
566.532 .0306365
567.325 .0306782
568.118 .0307300
568.910 .0307851
569.702 .0308437
570.494 .0309018
571.285 .0309608
572.075 .0310149
572.865 .0310658
573.654 .0311123
574.443 .0311564
575.232 .0311989
576.020 .0312429
576.807 .0312870
577.594 .0313362
578.381 .0313885
579.167 .0314422
579.952 .0314972
580.738 .0315550
581.522 .0316123
582.307 .0316672
583.091 .0317216
583.874 .0317735
584.657 .0318219
585.440 .0318687
586.222 .0319132
587.004 .0319558
587.785 .0319973
588.566 .0320367
589.346 .0320733
590.126 .0321076
590.906 .0321387
591.685 .0321647
592.464 .0321868
593.242 .0322048
594.020 .0322169
594.797 .0322252
595.575 .0322311
596.351 .0322332
597.128 .0322333
597.904 .0322315
598.679 .0322278
599.454 .0322217
600.229 .0322136
601.004 .0322031
601.778 .0321907
602.551 .0321771
603.325 .0321613
604.097 .0321428
604.870 .0321223
605.642 .0321003
606.414 .0320774
607.185 .0320542
607.956 .0320322
608.727 .0320114
609.497 .0319923
610.267 .0319741
611.037 .0319564
611.806 .0319389
612.575 .0319208
613.344 .0319018
614.112 .0318810
614.880 .0318580
615.647 .0318335
616.414 .0318077
617.181 .0317815
617.948 .0317550
618.714 .0317281
619.480 .0317008
620.245 .0316737
621.011 .0316463
621.775 .0316185
622.540 .0315907
623.304 .0315634
624.068 .0315367
624.832 .0315103
625.595 .0314844
626.358 .0314586
627.120 .0314334
627.883 .0314086
628.645 .0313840
629.406 .0313599
630.168 .0313363
630.929 .0313140
631.689 .0312923
632.450 .0312711
633.210 .0312495
633.970 .0312273
634.729 .0312038
635.489 .0311775
636.248 .0311491
637.006 .0311183
637.765 .0310860
638.523 .0310523
639.280 .0310180
640.038 .0309837
640.795 .0309498
641.552 .0309168
642.309 .0308844
643.065 .0308528
643.821 .0308217
644.577 .0307907
645.332 .0307601
646.088 .0307301
646.843 .0307008
647.597 .0306719
648.352 .0306452
649.106 .0306204
649.860 .0305975
650.613 .0305764
651.367 .0305577
652.120 .0305407
652.872 .0305250
653.625 .0305104
654.377 .0304961
655.129 .0304824
655.881 .0304689
656.632 .0304552
657.384 .0304419
658.135 .0304293
658.885 .0304169
659.636 .0304047
660.386 .0303928
661.136 .0303805
661.885 .0303677
662.635 .0303550
663.384 .0303420
664.133 .0303291
664.881 .0303157
665.630 .0303023
666.378 .0302888
667.126 .0302749
667.874 .0302601
668.621 .0302446
669.368 .0302283
670.115 .0302112
670.862 .0301934
671.608 .0301755
672.354 .0301578
673.100 .0301408
673.846 .0301252
674.591 .0301100
675.337 .0300960
676.082 .0300830
676.826 .0300707
677.571 .0300594
678.315 .0300485
679.059 .0300381
679.803 .0300282
680.547 .0300192
681.290 .0300103
682.033 .0300014
682.776 .0299925
683.518 .0299829
684.261 .0299726
685.003 .0299616
685.745 .0299499
686.487 .0299378
687.228 .0299250
687.969 .0299113
688.710 .0298971
689.451 .0298819
690.192 .0298657
690.932 .0298483
691.672 .0298295
692.412 .0298093
693.152 .0297879
693.891 .0297661
694.630 .0297443
695.369 .0297230
696.108 .0297018
696.846 .0296804
697.585 .0296592
698.323 .0296377
699.061 .0296155
699.798 .0295926
700.536 .0295691
701.273 .0295446
702.010 .0295199
702.746 .0294951
703.483 .0294709
704.219 .0294480
704.955 .0294268
705.691 .0294068
706.427 .0293878
707.162 .0293698
707.897 .0293520
708.632 .0293348
709.367 .0293178
710.101 .0293005
710.835 .0292830
711.569 .0292654
712.303 .0292484
713.037 .0292316
713.770 .0292154
714.503 .0291992
715.236 .0291827
715.969 .0291658
716.702 .0291477
717.434 .0291286
718.166 .0291078
718.898 .0290857
719.629 .0290622
720.361 .0290374
721.092 .0290116
721.823 .0289848
722.554 .0289571
723.284 .0289288
724.014 .0288993
724.744 .0288687
725.474 .0288376
726.204 .0288064
726.933 .0287755
727.662 .0287451
728.391 .0287152
729.120 .0286865
729.849 .0286585
730.577 .0286320
731.305 .0286062
732.033 .0285812
732.760 .0285570
733.488 .0285340
734.215 .0285118
734.942 .0284909
735.669 .0284707
736.395 .0284519
737.122 .0284337
737.848 .0284156
738.573 .0283972
739.299 .0283784
740.024 .0283594
740.750 .0283403
741.474 .0283209
742.199 .0283014
742.924 .0282822
743.648 .0282631
744.372 .0282443
745.096 .0282259
745.819 .0282073
746.543 .0281885
747.266 .0281699
747.989 .0281518
748.711 .0281336
749.434 .0281167
750.156 .0281011
750.878 .0280864
751.599 .0280736
752.321 .0280621
753.042 .0280516
753.763 .0280421
754.484 .0280334
755.205 .0280249
755.925 .0280168
756.645 .0280089
757.365 .0280008
758.085 .0279929
758.804 .0279854
759.523 .0279774
760.242 .0279691
760.961 .0279603
761.679 .0279509
762.397 .0279402
763.115 .0279282
763.833 .0279146
764.551 .0278994
765.268 .0278830
765.985 .0278656
766.702 .0278474
767.418 .0278288
768.134 .0278104
768.850 .0277926
769.566 .0277756
770.282 .0277594
770.997 .0277440
771.712 .0277294
772.427 .0277155
773.142 .0277018
773.856 .0276883
774.570 .0276752
775.284 .0276627
775.998 .0276504
776.711 .0276392
777.424 .0276286
778.137 .0276187
778.849 .0276092
779.562 .0275998
780.274 .0275905
780.986 .0275813
781.697 .0275722
782.409 .0275630
783.120 .0275535
783.831 .0275446
784.541 .0275362
785.252 .0275290
785.962 .0275227
786.671 .0275172
787.381 .0275128
788.090 .0275090
788.799 .0275055
789.508 .0275022
790.217 .0274989
790.925 .0274955
791.633 .0274915
792.341 .0274863
793.048 .0274799
793.755 .0274726
794.462 .0274641
795.169 .0274547
795.875 .0274444
796.581 .0274335
797.287 .0274226
797.993 .0274121
798.698 .0274023
799.403 .0273930
800.108 .0273846
800.812 .0273766
801.517 .0273686
802.221 .0273607
802.924 .0273526
803.628 .0273447
804.331 .0273378
805.034 .0273313
805.736 .0273250
806.439 .0273190
807.141 .0273141
807.843 .0273098
808.544 .0273059
809.245 .0273019
809.946 .0272974
810.647 .0272924
811.347 .0272867
812.047 .0272799
812.747 .0272725
813.447 .0272647
814.146 .0272568
814.845 .0272486
815.543 .0272408
816.242 .0272335
816.940 .0272267
817.638 .0272201
818.335 .0272135
819.032 .0272058
819.729 .0271973
820.426 .0271875
821.122 .0271766
821.818 .0271645
822.514 .0271515
823.209 .0271375
823.905 .0271231
824.599 .0271080
825.294 .0270921
825.988 .0270750
826.682 .0270575
827.376 .0270388
828.069 .0270195
828.762 .0269999
829.455 .0269806
830.147 .0269620
830.840 .0269447
831.531 .0269284
832.223 .0269131
832.914 .0268983
833.605 .0268834
834.296 .0268681
834.986 .0268524
835.676 .0268360
836.366 .0268193
837.055 .0268025
837.744 .0267859
838.433 .0267693
839.121 .0267532
839.809 .0267374
840.497 .0267219
841.185 .0267067
841.872 .0266918
842.559 .0266774
843.245 .0266632
843.932 .0266494
844.617 .0266364
845.303 .0266238
845.988 .0266117
846.673 .0266001
847.358 .0265891
848.042 .0265788
848.726 .0265696
849.410 .0265611
850.093 .0265531
850.776 .0265456
851.459 .0265379
852.141 .0265294
852.823 .0265198
853.505 .0265092
854.186 .0264971
854.867 .0264839
855.548 .0264700
856.228 .0264548
856.908 .0264395
857.588 .0264236
858.267 .0264073
858.946 .0263906
859.625 .0263731
860.303 .0263544
860.981 .0263344
861.659 .0263133
862.336 .0262911
863.013 .0262679
863.690 .0262446
864.366 .0262211
865.042 .0261981
865.718 .0261758
866.393 .0261542
867.068 .0261335
867.743 .0261137
868.417 .0260944
869.091 .0260755
869.765 .0260568
870.438 .0260382
871.111 .0260200
871.783 .0260024
872.456 .0259854
873.127 .0259692
873.799 .0259535
874.470 .0259385
875.141 .0259236
875.811 .0259089
876.481 .0258936
877.151 .0258777
877.820 .0258613
878.489 .0258441
879.158 .0258261
879.826 .0258078
880.494 .0257892
881.162 .0257713
881.829 .0257534
882.496 .0257360
883.163 .0257190
883.829 .0257027
884.495 .0256868
885.160 .0256717
885.825 .0256576
886.490 .0256449
887.154 .0256331
887.818 .0256229
888.482 .0256134
889.145 .0256045
889.808 .0255960
890.471 .0255876
891.133 .0255792
891.795 .0255706
892.456 .0255613
893.117 .0255522
893.778 .0255429
894.439 .0255335
895.099 .0255239
895.758 .0255139
896.417 .0255039
897.076 .0254931
897.735 .0254814
898.393 .0254695
899.051 .0254568
899.708 .0254440
900.365 .0254310
901.022 .0254182
901.678 .0254059
902.334 .0253944
902.990 .0253843
903.645 .0253754
904.300 .0253679
904.954 .0253615
905.608 .0253555
906.262 .0253501
906.915 .0253447
907.568 .0253384
908.221 .0253318
908.873 .0253247
909.525 .0253169
910.176 .0253090
910.828 .0253014
911.478 .0252943
912.129 .0252877
912.778 .0252815
913.428 .0252754
914.077 .0252693
914.726 .0252632
915.375 .0252565
916.023 .0252500
916.670 .0252442
917.318 .0252393
917.964 .0252357
918.611 .0252340
919.257 .0252338
919.903 .0252348
920.548 .0252365
921.193 .0252384
921.838 .0252408
922.482 .0252430
923.126 .0252451
923.770 .0252473
924.413 .0252497
925.056 .0252521
925.698 .0252541
926.340 .0252556
926.982 .0252563
927.623 .0252560
928.264 .0252545
928.904 .0252517
929.544 .0252482
930.184 .0252440
930.823 .0252394
931.462 .0252348
932.101 .0252301
932.739 .0252248
933.377 .0252190
934.014 .0252124
934.651 .0252052
935.288 .0251975
935.924 .0251894
936.560 .0251817
937.196 .0251741
937.831 .0251669
938.466 .0251598
939.100 .0251528
939.734 .0251460
940.368 .0251389
941.001 .0251314
941.634 .0251237
942.266 .0251154
942.899 .0251071
943.530 .0250983
944.162 .0250892
944.793 .0250798
945.423 .0250699
946.053 .0250590
946.683 .0250469
947.313 .0250339
947.942 .0250203
948.571 .0250059
949.199 .0249911
949.827 .0249762
950.455 .0249609
951.082 .0249459
951.709 .0249312
952.335 .0249168
952.961 .0249031
953.587 .0248900
954.212 .0248774
954.837 .0248657
955.462 .0248546
956.086 .0248445
956.710 .0248350
957.334 .0248268
957.957 .0248191
958.579 .0248118
959.202 .0248051
959.824 .0247985
960.445 .0247923
961.067 .0247869
961.688 .0247821
962.308 .0247782
962.928 .0247750
963.548 .0247726
964.168 .0247703
964.787 .0247679
965.406 .0247652
966.024 .0247626
966.642 .0247595
967.260 .0247562
967.877 .0247529
968.494 .0247502
969.110 .0247480
969.727 .0247466
970.342 .0247456
970.958 .0247448
971.573 .0247438
972.188 .0247423
972.802 .0247399
973.416 .0247373
974.030 .0247338
974.643 .0247297
975.256 .0247258
975.869 .0247218
976.481 .0247175
977.093 .0247138
977.705 .0247108
978.316 .0247078
978.927 .0247048
979.538 .0247014
980.148 .0246973
980.758 .0246929
981.367 .0246879
981.977 .0246821
982.586 .0246762
983.194 .0246704
983.802 .0246646
984.410 .0246586
985.018 .0246530
985.625 .0246473
986.232 .0246422
986.838 .0246378
987.445 .0246334
988.050 .0246298
988.656 .0246273
989.261 .0246252
989.866 .0246232
990.471 .0246216
991.075 .0246205
991.679 .0246196
992.282 .0246187
992.886 .0246176
993.489 .0246164
994.091 .0246151
994.694 .0246134
995.296 .0246110
995.897 .0246079
996.499 .0246037
997.100 .0245979
997.701 .0245915
998.301 .0245845
998.901 .0245776
999.501 .0245710
1000.101 .0245655
1000.700 .0245605
1001.299 .0245555
1001.898 .0245506
1002.496 .0245462
1003.094 .0245412
1003.692 .0245363
1004.289 .0245308
1004.887 .0245257
1005.484 .0245211
1006.080 .0245168
1006.677 .0245125
1007.273 .0245090
1007.868 .0245048
1008.464 .0245003
1009.059 .0244953
1009.654 .0244906
1010.249 .0244860
1010.843 .0244821
1011.437 .0244786
1012.031 .0244754
1012.625 .0244722
1013.218 .0244690
1013.811 .0244655
1014.404 .0244625
1014.997 .0244593
1015.589 .0244561
1016.181 .0244533
1016.773 .0244509
1017.365 .0244481
1017.956 .0244452
1018.547 .0244411
1019.138 .0244355
1019.728 .0244286
1020.319 .0244199
1020.909 .0244103
1021.499 .0244001
1022.088 .0243899
1022.678 .0243799
1023.267 .0243704
1023.856 .0243613
1024.445 .0243521
1025.033 .0243438
1025.621 .0243359
1026.209 .0243281
1026.797 .0243205
1027.385 .0243136
1027.972 .0243070
1028.560 .0243009
1029.147 .0242947
1029.734 .0242890
1030.320 .0242839
1030.907 .0242791
1031.493 .0242745
1032.079 .0242708
1032.665 .0242682
1033.250 .0242663
1033.836 .0242645
1034.421 .0242626
1035.006 .0242593
1035.591 .0242550
1036.176 .0242483
1036.761 .0242401
1037.345 .0242306
1037.929 .0242203
1038.514 .0242094
1039.097 .0241989
1039.681 .0241891
1040.265 .0241797
1040.848 .0241706
1041.432 .0241618
1042.015 .0241524
1042.598 .0241422
1043.181 .0241308
1043.764 .0241184
1044.346 .0241053
1044.929 .0240928
1045.511 .0240810
1046.094 .0240715
1046.676 .0240649
1047.258 .0240601
1047.840 .0240577
1048.422 .0240568
1049.003 .0240567
1049.585 .0240554
1050.166 .0240532
1050.748 .0240494
1051.329 .0240434
1051.910 .0240358
1052.491 .0240271
1053.072 .0240170
1053.653 .0240065
1054.234 .0239957
1054.815 .0239838
1055.396 .0239709
1055.976 .0239569
1056.557 .0239412
1057.138 .0239253
1057.718 .0239092
1058.298 .0238934
1058.879 .0238784
1059.459 .0238646
1060.039 .0238513
1060.620 .0238381
1061.200 .0238253
1061.780 .0238125
1062.360 .0237986
1062.940 .0237850
1063.520 .0237710
1064.101 .0237577
1064.681 .0237458
1065.261 .0237360
1065.841 .0237275
1066.421 .0237189
1067.001 .0237094
1067.581 .0236973
1068.161 .0236836
1068.741 .0236683
1069.321 .0236504
1069.901 .0236324
1070.482 .0236140
1071.062 .0235965
1071.642 .0235799
1072.222 .0235661
1072.803 .0235542
1073.383 .0235441
1073.963 .0235352
1074.544 .0235252
1075.124 .0235149
1075.705 .0235054
1076.286 .0234961
1076.866 .0234885
1077.447 .0234833
1078.028 .0234784
1078.609 .0234746
1079.190 .0234725
1079.771 .0234704
1080.352 .0234696
1080.934 .0234681
1081.515 .0234660
1082.097 .0234620
1082.679 .0234580
1083.260 .0234539
1083.842 .0234502
1084.424 .0234482
1085.007 .0234467
1085.589 .0234440
1086.172 .0234426
1086.754 .0234404
1087.337 .0234391
1087.920 .0234381
1088.503 .0234371
1089.087 .0234344
1089.670 .0234311
1090.254 .0234256
1090.838 .0234190
1091.422 .0234102
1092.006 .0234022
1092.590 .0233926
1093.175 .0233835
1093.760 .0233750
1094.345 .0233678
1094.930 .0233607
1095.516 .0233555
1096.102 .0233498
1096.688 .0233447
1097.274 .0233378
1097.860 .0233301
1098.447 .0233189
1099.034 .0233075
1099.622 .0232934
1100.209 .0232790
1100.797 .0232644
1101.385 .0232507
1101.973 .0232358
1102.562 .0232230
1103.151 .0232117
1103.740 .0232025
1104.330 .0231957
1104.920 .0231925
1105.510 .0231905
1106.101 .0231930
1106.691 .0231955
1107.283 .0231998
1107.874 .0232056
1108.466 .0232137
1109.058 .0232225
1109.651 .0232348
1110.244 .0232505
1110.837 .0232694
1111.431 .0232941
1112.025 .0233239
1112.620 .0233537
1113.215 .0233860
1113.810 .0234145
1114.406 .0234398
1115.002 .0234612
1115.599 .0234784
1116.196 .0234897
1116.793 .0234985
1117.391 .0235041
1117.989 .0235074
1118.588 .0235127
1119.187 .0235218
1119.787 .0235314
1120.387 .0235434
1120.988 .0235558
1121.589 .0235662
1122.190 .0235739
1122.793 .0235807
1123.395 .0235811
1123.998 .0235823
1124.602 .0235819
1125.206 .0235816
1125.811 .0235849
1126.416 .0235923
1127.022 .0236063
1127.628 .0236264
1128.235 .0236527
1128.843 .0236839
1129.451 .0237172
1130.059 .0237546
1130.669 .0237908
1131.278 .0238309
1131.889 .0238712
1132.500 .0239109
1133.112 .0239520
1133.724 .0239950
1134.337 .0240384
1134.950 .0240819
1135.564 .0241258
1136.179 .0241703
1136.795 .0242172
1137.411 .0242659
1138.028 .0243141
1138.645 .0243656
1139.263 .0244176
1139.882 .0244623
1140.502 .0245074
1141.122 .0245477
1141.743 .0245994
1142.365 .0246728
1142.987 .0244931
1143.611 .0247804
1144.235 .0247519
1144.859 .0251661
1145.485 .0256181
