Measurement Sequence started on: 10-20-44-796
Integration time: 35
Scans to Average: 2 
>>>>>Begin Spectral Data<<<<<
432.953 .0346831
433.882 .0351791
434.810 .0364594
435.737 .0381781
436.662 .0389878
437.586 .0390643
438.509 .0396799
439.431 .0402061
440.351 .0406223
441.269 .0409374
442.187 .0411932
443.103 .0413946
444.018 .0415375
444.932 .0416429
445.844 .0417133
446.756 .0417461
447.666 .0417745
448.575 .0417917
449.482 .0418130
450.388 .0418446
451.294 .0418786
452.198 .0418987
453.100 .0419067
454.002 .0419042
454.902 .0418797
455.801 .0418406
456.699 .0417974
457.596 .0417523
458.492 .0417071
459.387 .0416615
460.280 .0416196
461.172 .0415716
462.064 .0415171
462.954 .0414494
463.843 .0413696
464.730 .0412791
465.617 .0411744
466.503 .0410611
467.387 .0409407
468.271 .0408161
469.153 .0406887
470.035 .0405596
470.915 .0404338
471.794 .0403112
472.673 .0401892
473.550 .0400749
474.426 .0399710
475.301 .0398713
476.175 .0397804
477.048 .0396960
477.920 .0396179
478.791 .0395471
479.661 .0394838
480.530 .0394301
481.398 .0393859
482.266 .0393541
483.132 .0393304
483.997 .0393117
484.861 .0393021
485.724 .0392945
486.587 .0392881
487.448 .0392827
488.308 .0392701
489.168 .0392510
490.026 .0392262
490.884 .0391930
491.741 .0391518
492.597 .0391029
493.452 .0390483
494.306 .0389882
495.159 .0389257
496.011 .0388639
496.862 .0388023
497.713 .0387418
498.562 .0386818
499.411 .0386156
500.259 .0385442
501.106 .0384659
501.952 .0383805
502.798 .0382935
503.642 .0382037
504.486 .0381114
505.329 .0380190
506.171 .0379253
507.012 .0378350
507.852 .0377407
508.692 .0376452
509.531 .0375464
510.369 .0374384
511.206 .0373259
512.043 .0372072
512.878 .0370809
513.713 .0369498
514.547 .0368133
515.381 .0366707
516.213 .0365190
517.045 .0363626
517.876 .0361984
518.706 .0360363
519.536 .0358799
520.365 .0357337
521.193 .0355898
522.020 .0354583
522.847 .0353306
523.673 .0351958
524.498 .0350617
525.323 .0349139
526.146 .0347615
526.969 .0346106
527.792 .0344576
528.614 .0343059
529.435 .0341585
530.255 .0340230
531.075 .0338790
531.894 .0337331
532.712 .0335758
533.530 .0333975
534.347 .0332063
535.163 .0330018
535.979 .0327943
536.794 .0325918
537.608 .0324106
538.422 .0322486
539.235 .0321114
540.048 .0320020
540.860 .0319082
541.671 .0318366
542.481 .0317849
543.292 .0317508
544.101 .0317304
544.910 .0317367
545.718 .0317691
546.526 .0318282
547.333 .0319200
548.139 .0320401
548.945 .0321783
549.750 .0323213
550.555 .0324601
551.359 .0325823
552.162 .0326840
552.965 .0327638
553.768 .0328134
554.569 .0328485
555.371 .0328705
556.171 .0328850
556.972 .0329026
557.771 .0329274
558.570 .0329597
559.369 .0329965
560.167 .0330331
560.964 .0330642
561.761 .0330864
562.558 .0331035
563.354 .0331148
564.149 .0331231
564.944 .0331375
565.738 .0331617
566.532 .0332019
567.325 .0332584
568.118 .0333253
568.910 .0334016
569.702 .0334804
570.494 .0335540
571.285 .0336195
572.075 .0336747
572.865 .0337196
573.654 .0337562
574.443 .0337858
575.232 .0338126
576.020 .0338382
576.807 .0338666
577.594 .0338967
578.381 .0339252
579.167 .0339504
579.952 .0339701
580.738 .0339855
581.522 .0339985
582.307 .0340067
583.091 .0340163
583.874 .0340274
584.657 .0340402
585.440 .0340556
586.222 .0340726
587.004 .0340917
587.785 .0341101
588.566 .0341257
589.346 .0341376
590.126 .0341448
590.906 .0341493
591.685 .0341507
592.464 .0341502
593.242 .0341498
594.020 .0341484
594.797 .0341469
595.575 .0341447
596.351 .0341407
597.128 .0341338
597.904 .0341249
598.679 .0341126
599.454 .0340979
600.229 .0340814
601.004 .0340649
601.778 .0340487
602.551 .0340331
603.325 .0340187
604.097 .0340043
604.870 .0339888
605.642 .0339728
606.414 .0339546
607.185 .0339354
607.956 .0339146
608.727 .0338939
609.497 .0338734
610.267 .0338533
611.037 .0338332
611.806 .0338126
612.575 .0337907
613.344 .0337667
614.112 .0337398
614.880 .0337104
615.647 .0336787
616.414 .0336463
617.181 .0336145
617.948 .0335851
618.714 .0335585
619.480 .0335351
620.245 .0335139
621.011 .0334941
621.775 .0334739
622.540 .0334532
623.304 .0334317
624.068 .0334091
624.832 .0333860
625.595 .0333634
626.358 .0333420
627.120 .0333219
627.883 .0333027
628.645 .0332846
629.406 .0332663
630.168 .0332471
630.929 .0332256
631.689 .0332020
632.450 .0331756
633.210 .0331472
633.970 .0331167
634.729 .0330856
635.489 .0330536
636.248 .0330213
637.006 .0329888
637.765 .0329559
638.523 .0329220
639.280 .0328871
640.038 .0328508
640.795 .0328147
641.552 .0327782
642.309 .0327423
643.065 .0327073
643.821 .0326741
644.577 .0326419
645.332 .0326107
646.088 .0325801
646.843 .0325492
647.597 .0325170
648.352 .0324833
649.106 .0324478
649.860 .0324110
650.613 .0323737
651.367 .0323371
652.120 .0323013
652.872 .0322678
653.625 .0322356
654.377 .0322050
655.129 .0321750
655.881 .0321448
656.632 .0321131
657.384 .0320800
658.135 .0320452
658.885 .0320092
659.636 .0319738
660.386 .0319398
661.136 .0319079
661.885 .0318796
662.635 .0318545
663.384 .0318326
664.133 .0318122
664.881 .0317928
665.630 .0317728
666.378 .0317519
667.126 .0317298
667.874 .0317054
668.621 .0316801
669.368 .0316548
670.115 .0316296
670.862 .0316051
671.608 .0315819
672.354 .0315600
673.100 .0315390
673.846 .0315186
674.591 .0314984
675.337 .0314782
676.082 .0314580
676.826 .0314381
677.571 .0314183
678.315 .0313994
679.059 .0313815
679.803 .0313648
680.547 .0313505
681.290 .0313378
682.033 .0313263
682.776 .0313154
683.518 .0313051
684.261 .0312949
685.003 .0312842
685.745 .0312727
686.487 .0312609
687.228 .0312486
687.969 .0312362
688.710 .0312236
689.451 .0312108
690.192 .0311979
690.932 .0311849
691.672 .0311708
692.412 .0311559
693.152 .0311398
693.891 .0311226
694.630 .0311047
695.369 .0310864
696.108 .0310673
696.846 .0310478
697.585 .0310285
698.323 .0310092
699.061 .0309904
699.798 .0309722
700.536 .0309541
701.273 .0309364
702.010 .0309198
702.746 .0309037
703.483 .0308885
704.219 .0308741
704.955 .0308603
705.691 .0308468
706.427 .0308336
707.162 .0308200
707.897 .0308065
708.632 .0307936
709.367 .0307811
710.101 .0307684
710.835 .0307560
711.569 .0307437
712.303 .0307305
713.037 .0307172
713.770 .0307027
714.503 .0306868
715.236 .0306700
715.969 .0306517
716.702 .0306320
717.434 .0306112
718.166 .0305898
718.898 .0305671
719.629 .0305441
720.361 .0305209
721.092 .0304966
721.823 .0304719
722.554 .0304463
723.284 .0304197
724.014 .0303911
724.744 .0303606
725.474 .0303276
726.204 .0302929
726.933 .0302571
727.662 .0302201
728.391 .0301829
729.120 .0301464
729.849 .0301109
730.577 .0300765
731.305 .0300433
732.033 .0300114
732.760 .0299802
733.488 .0299498
734.215 .0299196
734.942 .0298898
735.669 .0298603
736.395 .0298315
737.122 .0298032
737.848 .0297751
738.573 .0297477
739.299 .0297202
740.024 .0296935
740.750 .0296670
741.474 .0296406
742.199 .0296145
742.924 .0295883
743.648 .0295624
744.372 .0295367
745.096 .0295115
745.819 .0294867
746.543 .0294621
747.266 .0294385
747.989 .0294160
748.711 .0293951
749.434 .0293764
750.156 .0293601
750.878 .0293459
751.599 .0293336
752.321 .0293224
753.042 .0293124
753.763 .0293030
754.484 .0292942
755.205 .0292854
755.925 .0292765
756.645 .0292672
757.365 .0292570
758.085 .0292462
758.804 .0292345
759.523 .0292211
760.242 .0292062
760.961 .0291897
761.679 .0291720
762.397 .0291525
763.115 .0291323
763.833 .0291114
764.551 .0290898
765.268 .0290675
765.985 .0290446
766.702 .0290208
767.418 .0289968
768.134 .0289729
768.850 .0289488
769.566 .0289250
770.282 .0289019
770.997 .0288794
771.712 .0288578
772.427 .0288375
773.142 .0288184
773.856 .0288005
774.570 .0287848
775.284 .0287702
775.998 .0287566
776.711 .0287448
777.424 .0287344
778.137 .0287257
778.849 .0287181
779.562 .0287114
780.274 .0287054
780.986 .0287000
781.697 .0286955
782.409 .0286914
783.120 .0286883
783.831 .0286858
784.541 .0286835
785.252 .0286812
785.962 .0286783
786.671 .0286748
787.381 .0286708
788.090 .0286661
788.799 .0286606
789.508 .0286539
790.217 .0286462
790.925 .0286377
791.633 .0286284
792.341 .0286179
793.048 .0286064
793.755 .0285937
794.462 .0285806
795.169 .0285673
795.875 .0285545
796.581 .0285431
797.287 .0285333
797.993 .0285253
798.698 .0285197
799.403 .0285156
800.108 .0285132
800.812 .0285119
801.517 .0285116
802.221 .0285116
802.924 .0285116
803.628 .0285121
804.331 .0285133
805.034 .0285153
805.736 .0285178
806.439 .0285200
807.141 .0285223
807.843 .0285239
808.544 .0285240
809.245 .0285223
809.946 .0285182
810.647 .0285117
811.347 .0285030
812.047 .0284924
812.747 .0284804
813.447 .0284673
814.146 .0284541
814.845 .0284413
815.543 .0284290
816.242 .0284175
816.940 .0284073
817.638 .0283984
818.335 .0283910
819.032 .0283840
819.729 .0283772
820.426 .0283702
821.122 .0283624
821.818 .0283537
822.514 .0283436
823.209 .0283332
823.905 .0283226
824.599 .0283119
825.294 .0283018
825.988 .0282921
826.682 .0282835
827.376 .0282745
828.069 .0282653
828.762 .0282549
829.455 .0282426
830.147 .0282284
830.840 .0282126
831.531 .0281963
832.223 .0281802
832.914 .0281655
833.605 .0281526
834.296 .0281416
834.986 .0281330
835.676 .0281254
836.366 .0281186
837.055 .0281118
837.744 .0281041
838.433 .0280944
839.121 .0280836
839.809 .0280718
840.497 .0280593
841.185 .0280470
841.872 .0280355
842.559 .0280246
843.245 .0280143
843.932 .0280043
844.617 .0279942
845.303 .0279837
845.988 .0279725
846.673 .0279595
847.358 .0279458
848.042 .0279313
848.726 .0279161
849.410 .0279007
850.093 .0278858
850.776 .0278715
851.459 .0278575
852.141 .0278436
852.823 .0278299
853.505 .0278160
854.186 .0278014
854.867 .0277860
855.548 .0277699
856.228 .0277530
856.908 .0277353
857.588 .0277171
858.267 .0276988
858.946 .0276803
859.625 .0276619
860.303 .0276440
860.981 .0276264
861.659 .0276091
862.336 .0275919
863.013 .0275743
863.690 .0275563
864.366 .0275379
865.042 .0275187
865.718 .0274995
866.393 .0274802
867.068 .0274611
867.743 .0274423
868.417 .0274240
869.091 .0274056
869.765 .0273869
870.438 .0273679
871.111 .0273483
871.783 .0273275
872.456 .0273059
873.127 .0272834
873.799 .0272604
874.470 .0272374
875.141 .0272146
875.811 .0271923
876.481 .0271709
877.151 .0271507
877.820 .0271309
878.489 .0271120
879.158 .0270932
879.826 .0270746
880.494 .0270562
881.162 .0270378
881.829 .0270192
882.496 .0270011
883.163 .0269839
883.829 .0269675
884.495 .0269518
885.160 .0269371
885.825 .0269232
886.490 .0269106
887.154 .0268983
887.818 .0268863
888.482 .0268740
889.145 .0268614
889.808 .0268481
890.471 .0268343
891.133 .0268199
891.795 .0268052
892.456 .0267906
893.117 .0267757
893.778 .0267606
894.439 .0267454
895.099 .0267294
895.758 .0267131
896.417 .0266961
897.076 .0266782
897.735 .0266598
898.393 .0266417
899.051 .0266240
899.708 .0266070
900.365 .0265912
901.022 .0265766
901.678 .0265635
902.334 .0265517
902.990 .0265410
903.645 .0265307
904.300 .0265216
904.954 .0265122
905.608 .0265022
906.262 .0264920
906.915 .0264811
907.568 .0264695
908.221 .0264578
908.873 .0264452
909.525 .0264321
910.176 .0264186
910.828 .0264046
911.478 .0263899
912.129 .0263748
912.778 .0263588
913.428 .0263418
914.077 .0263241
914.726 .0263061
915.375 .0262870
916.023 .0262688
916.670 .0262516
917.318 .0262353
917.964 .0262206
918.611 .0262077
919.257 .0261963
919.903 .0261865
920.548 .0261772
921.193 .0261684
921.838 .0261597
922.482 .0261518
923.126 .0261439
923.770 .0261369
924.413 .0261306
925.056 .0261249
925.698 .0261198
926.340 .0261151
926.982 .0261102
927.623 .0261050
928.264 .0260992
928.904 .0260925
929.544 .0260850
930.184 .0260768
930.823 .0260681
931.462 .0260596
932.101 .0260512
932.739 .0260427
933.377 .0260334
934.014 .0260232
934.651 .0260120
935.288 .0259995
935.924 .0259862
936.560 .0259720
937.196 .0259580
937.831 .0259446
938.466 .0259317
939.100 .0259196
939.734 .0259082
940.368 .0258971
941.001 .0258863
941.634 .0258751
942.266 .0258635
942.899 .0258511
943.530 .0258384
944.162 .0258257
944.793 .0258128
945.423 .0258003
946.053 .0257879
946.683 .0257759
947.313 .0257651
947.942 .0257547
948.571 .0257441
949.199 .0257337
949.827 .0257232
950.455 .0257120
951.082 .0257002
951.709 .0256884
952.335 .0256763
952.961 .0256645
953.587 .0256535
954.212 .0256431
954.837 .0256340
955.462 .0256268
956.086 .0256211
956.710 .0256173
957.334 .0256152
957.957 .0256143
958.579 .0256141
959.202 .0256148
959.824 .0256153
960.445 .0256157
961.067 .0256162
961.688 .0256169
962.308 .0256175
962.928 .0256192
963.548 .0256211
964.168 .0256234
964.787 .0256253
965.406 .0256264
966.024 .0256260
966.642 .0256235
967.260 .0256189
967.877 .0256122
968.494 .0256036
969.110 .0255938
969.727 .0255829
970.342 .0255719
970.958 .0255616
971.573 .0255520
972.188 .0255431
972.802 .0255346
973.416 .0255264
974.030 .0255179
974.643 .0255093
975.256 .0255015
975.869 .0254943
976.481 .0254884
977.093 .0254846
977.705 .0254831
978.316 .0254841
978.927 .0254875
979.538 .0254931
980.148 .0255004
980.758 .0255087
981.367 .0255175
981.977 .0255267
982.586 .0255360
983.194 .0255460
983.802 .0255562
984.410 .0255669
985.018 .0255776
985.625 .0255881
986.232 .0255977
986.838 .0256065
987.445 .0256141
988.050 .0256199
988.656 .0256237
989.261 .0256259
989.866 .0256258
990.471 .0256241
991.075 .0256211
991.679 .0256168
992.282 .0256111
992.886 .0256046
993.489 .0255975
994.091 .0255903
994.694 .0255837
995.296 .0255782
995.897 .0255734
996.499 .0255704
997.100 .0255684
997.701 .0255668
998.301 .0255666
998.901 .0255669
999.501 .0255679
1000.101 .0255690
1000.700 .0255705
1001.299 .0255721
1001.898 .0255737
1002.496 .0255758
1003.094 .0255772
1003.692 .0255779
1004.289 .0255784
1004.887 .0255779
1005.484 .0255758
1006.080 .0255725
1006.677 .0255676
1007.273 .0255618
1007.868 .0255552
1008.464 .0255477
1009.059 .0255403
1009.654 .0255335
1010.249 .0255283
1010.843 .0255241
1011.437 .0255213
1012.031 .0255202
1012.625 .0255195
1013.218 .0255201
1013.811 .0255209
1014.404 .0255217
1014.997 .0255231
1015.589 .0255248
1016.181 .0255274
1016.773 .0255303
1017.365 .0255333
1017.956 .0255369
1018.547 .0255407
1019.138 .0255444
1019.728 .0255471
1020.319 .0255490
1020.909 .0255504
1021.499 .0255511
1022.088 .0255506
1022.678 .0255497
1023.267 .0255482
1023.856 .0255462
1024.445 .0255428
1025.033 .0255386
1025.621 .0255336
1026.209 .0255282
1026.797 .0255230
1027.385 .0255182
1027.972 .0255140
1028.560 .0255110
1029.147 .0255082
1029.734 .0255065
1030.320 .0255049
1030.907 .0255026
1031.493 .0254994
1032.079 .0254959
1032.665 .0254917
1033.250 .0254873
1033.836 .0254835
1034.421 .0254805
1035.006 .0254782
1035.591 .0254765
1036.176 .0254740
1036.761 .0254706
1037.345 .0254666
1037.929 .0254603
1038.514 .0254517
1039.097 .0254422
1039.681 .0254309
1040.265 .0254191
1040.848 .0254072
1041.432 .0253957
1042.015 .0253843
1042.598 .0253739
1043.181 .0253635
1043.764 .0253532
1044.346 .0253439
1044.929 .0253348
1045.511 .0253264
1046.094 .0253194
1046.676 .0253132
1047.258 .0253082
1047.840 .0253044
1048.422 .0253017
1049.003 .0252983
1049.585 .0252957
1050.166 .0252920
1050.748 .0252877
1051.329 .0252826
1051.910 .0252763
1052.491 .0252695
1053.072 .0252626
1053.653 .0252555
1054.234 .0252484
1054.815 .0252409
1055.396 .0252327
1055.976 .0252232
1056.557 .0252131
1057.138 .0252016
1057.718 .0251893
1058.298 .0251766
1058.879 .0251648
1059.459 .0251539
1060.039 .0251451
1060.620 .0251372
1061.200 .0251301
1061.780 .0251242
1062.360 .0251163
1062.940 .0251064
1063.520 .0250938
1064.101 .0250781
1064.681 .0250590
1065.261 .0250372
1065.841 .0250128
1066.421 .0249877
1067.001 .0249619
1067.581 .0249357
1068.161 .0249091
1068.741 .0248828
1069.321 .0248562
1069.901 .0248296
1070.482 .0248029
1071.062 .0247760
1071.642 .0247475
1072.222 .0247201
1072.803 .0246931
1073.383 .0246678
1073.963 .0246449
1074.544 .0246257
1075.124 .0246111
1075.705 .0246018
1076.286 .0245959
1076.866 .0245936
1077.447 .0245932
1078.028 .0245924
1078.609 .0245882
1079.190 .0245797
1079.771 .0245674
1080.352 .0245520
1080.934 .0245350
1081.515 .0245190
1082.097 .0245042
1082.679 .0244918
1083.260 .0244811
1083.842 .0244715
1084.424 .0244617
1085.007 .0244480
1085.589 .0244299
1086.172 .0244076
1086.754 .0243817
1087.337 .0243540
1087.920 .0243273
1088.503 .0243049
1089.087 .0242866
1089.670 .0242729
1090.254 .0242615
1090.838 .0242534
1091.422 .0242478
1092.006 .0242442
1092.590 .0242407
1093.175 .0242364
1093.760 .0242330
1094.345 .0242298
1094.930 .0242270
1095.516 .0242259
1096.102 .0242238
1096.688 .0242217
1097.274 .0242189
1097.860 .0242168
1098.447 .0242139
1099.034 .0242136
1099.622 .0242144
1100.209 .0242172
1100.797 .0242213
1101.385 .0242261
1101.973 .0242310
1102.562 .0242364
1103.151 .0242423
1103.740 .0242462
1104.330 .0242477
1104.920 .0242495
1105.510 .0242492
1106.101 .0242490
1106.691 .0242460
1107.283 .0242402
1107.874 .0242321
1108.466 .0242225
1109.058 .0242111
1109.651 .0241995
1110.244 .0241886
1110.837 .0241795
1111.431 .0241713
1112.025 .0241648
1112.620 .0241598
1113.215 .0241537
1113.810 .0241465
1114.406 .0241374
1115.002 .0241251
1115.599 .0241100
1116.196 .0240921
1116.793 .0240746
1117.391 .0240608
1117.989 .0240485
1118.588 .0240390
1119.187 .0240331
1119.787 .0240301
1120.387 .0240293
1120.988 .0240294
1121.589 .0240304
1122.190 .0240301
1122.793 .0240301
1123.395 .0240334
1123.998 .0240408
1124.602 .0240592
1125.206 .0240888
1125.811 .0241311
1126.416 .0241877
1127.022 .0242530
1127.628 .0243222
1128.235 .0243958
1128.843 .0244697
1129.451 .0245400
1130.059 .0246079
1130.669 .0246758
1131.278 .0247458
1131.889 .0248194
1132.500 .0248999
1133.112 .0249857
1133.724 .0250755
1134.337 .0251676
1134.950 .0252532
1135.564 .0253318
1136.179 .0254010
1136.795 .0254632
1137.411 .0255235
1138.028 .0255834
1138.645 .0256482
1139.263 .0257188
1139.882 .0257938
1140.502 .0258725
1141.122 .0259570
1141.743 .0260454
1142.365 .0261698
1142.987 .0261439
1143.611 .0261797
1144.235 .0264364
1144.859 .0265515
1145.485 .0276027
