Measurement Sequence started on: 10-20-44-796
Integration time: 35
Scans to Average: 2 
>>>>>Begin Spectral Data<<<<<
432.953 .0512992
433.882 .0278951
434.810 .0320743
435.737 .0344281
436.662 .0354265
437.586 .0365704
438.509 .0368258
439.431 .0377549
440.351 .0384384
441.269 .0389783
442.187 .0394259
443.103 .0397941
444.018 .0400831
444.932 .0403324
445.844 .0405324
446.756 .0407064
447.666 .0408169
448.575 .0408732
449.482 .0408823
450.388 .0408492
451.294 .0407787
452.198 .0406925
453.100 .0405972
454.002 .0405019
454.902 .0404082
455.801 .0403300
456.699 .0402630
457.596 .0402063
458.492 .0401347
459.387 .0400529
460.280 .0399620
461.172 .0398539
462.064 .0397388
462.954 .0396277
463.843 .0395189
464.730 .0394223
465.617 .0393351
466.503 .0392609
467.387 .0391954
468.271 .0391434
469.153 .0391073
470.035 .0390713
470.915 .0390403
471.794 .0390055
472.673 .0389664
473.550 .0389253
474.426 .0388838
475.301 .0388407
476.175 .0387995
477.048 .0387582
477.920 .0387188
478.791 .0386775
479.661 .0386349
480.530 .0385965
481.398 .0385563
482.266 .0385170
483.132 .0384736
483.997 .0384242
484.861 .0383782
485.724 .0383363
486.587 .0383004
487.448 .0382698
488.308 .0382478
489.168 .0382310
490.026 .0382144
490.884 .0382003
491.741 .0381843
492.597 .0381643
493.452 .0381411
494.306 .0381117
495.159 .0380677
496.011 .0380148
496.862 .0379509
497.713 .0378777
498.562 .0377884
499.411 .0376850
500.259 .0375693
501.106 .0374443
501.952 .0373118
502.798 .0371741
503.642 .0370360
504.486 .0369015
505.329 .0367678
506.171 .0366397
507.012 .0365160
507.852 .0364002
508.692 .0362899
509.531 .0361842
510.369 .0360853
511.206 .0359944
512.043 .0359113
512.878 .0358410
513.713 .0357807
514.547 .0357244
515.381 .0356678
516.213 .0356111
517.045 .0355454
517.876 .0354579
518.706 .0353552
519.536 .0352331
520.365 .0350925
521.193 .0349377
522.020 .0347755
522.847 .0346061
523.673 .0344419
524.498 .0342679
525.323 .0340770
526.146 .0338714
526.969 .0336618
527.792 .0334253
528.614 .0331711
529.435 .0329149
530.255 .0326544
531.075 .0324002
531.894 .0321746
532.712 .0319652
533.530 .0317891
534.347 .0316434
535.163 .0315167
535.979 .0314086
536.794 .0313453
537.608 .0313045
538.422 .0312915
539.235 .0313170
540.048 .0313664
540.860 .0314281
541.671 .0315116
542.481 .0316051
543.292 .0316953
544.101 .0317854
544.910 .0318665
545.718 .0319380
546.526 .0320181
547.333 .0320913
548.139 .0321536
548.945 .0322181
549.750 .0322707
550.555 .0322996
551.359 .0323166
552.162 .0323224
552.965 .0323179
553.768 .0323114
554.569 .0323033
555.371 .0322962
556.171 .0322960
556.972 .0323029
557.771 .0323072
558.570 .0323160
559.369 .0323288
560.167 .0323363
560.964 .0323488
561.761 .0323671
562.558 .0323908
563.354 .0324268
564.149 .0324691
564.944 .0325140
565.738 .0325611
566.532 .0326011
567.325 .0326380
568.118 .0326705
568.910 .0327042
569.702 .0327416
570.494 .0327834
571.285 .0328350
572.075 .0328922
572.865 .0329519
573.654 .0330101
574.443 .0330601
575.232 .0331065
576.020 .0331390
576.807 .0331663
577.594 .0331916
578.381 .0332171
579.167 .0332470
579.952 .0332816
580.738 .0333209
581.522 .0333645
582.307 .0334089
583.091 .0334522
583.874 .0334935
584.657 .0335340
585.440 .0335690
586.222 .0335994
587.004 .0336267
587.785 .0336527
588.566 .0336741
589.346 .0336925
590.126 .0337054
590.906 .0337127
591.685 .0337156
592.464 .0337123
593.242 .0337044
594.020 .0336934
594.797 .0336810
595.575 .0336677
596.351 .0336552
597.128 .0336444
597.904 .0336345
598.679 .0336264
599.454 .0336176
600.229 .0336092
601.004 .0335989
601.778 .0335882
602.551 .0335765
603.325 .0335636
604.097 .0335508
604.870 .0335388
605.642 .0335288
606.414 .0335213
607.185 .0335142
607.956 .0335082
608.727 .0335015
609.497 .0334929
610.267 .0334806
611.037 .0334644
611.806 .0334439
612.575 .0334209
613.344 .0333939
614.112 .0333662
614.880 .0333377
615.647 .0333098
616.414 .0332818
617.181 .0332543
617.948 .0332273
618.714 .0331998
619.480 .0331715
620.245 .0331428
621.011 .0331128
621.775 .0330832
622.540 .0330530
623.304 .0330241
624.068 .0329969
624.832 .0329721
625.595 .0329492
626.358 .0329283
627.120 .0329075
627.883 .0328858
628.645 .0328629
629.406 .0328394
630.168 .0328145
630.929 .0327876
631.689 .0327597
632.450 .0327309
633.210 .0327017
633.970 .0326715
634.729 .0326396
635.489 .0326072
636.248 .0325719
637.006 .0325348
637.765 .0324950
638.523 .0324542
639.280 .0324141
640.038 .0323742
640.795 .0323359
641.552 .0322983
642.309 .0322611
643.065 .0322235
643.821 .0321850
644.577 .0321454
645.332 .0321032
646.088 .0320591
646.843 .0320134
647.597 .0319669
648.352 .0319203
649.106 .0318754
649.860 .0318324
650.613 .0317919
651.367 .0317531
652.120 .0317155
652.872 .0316805
653.625 .0316472
654.377 .0316164
655.129 .0315887
655.881 .0315634
656.632 .0315407
657.384 .0315193
658.135 .0315000
658.885 .0314818
659.636 .0314638
660.386 .0314458
661.136 .0314269
661.885 .0314077
662.635 .0313880
663.384 .0313690
664.133 .0313508
664.881 .0313326
665.630 .0313142
666.378 .0312951
667.126 .0312752
667.874 .0312536
668.621 .0312308
669.368 .0312079
670.115 .0311854
670.862 .0311637
671.608 .0311442
672.354 .0311278
673.100 .0311148
673.846 .0311052
674.591 .0310972
675.337 .0310899
676.082 .0310825
676.826 .0310743
677.571 .0310649
678.315 .0310546
679.059 .0310440
679.803 .0310334
680.547 .0310245
681.290 .0310170
682.033 .0310097
682.776 .0310032
683.518 .0309971
684.261 .0309898
685.003 .0309810
685.745 .0309713
686.487 .0309613
687.228 .0309524
687.969 .0309444
688.710 .0309364
689.451 .0309295
690.192 .0309236
690.932 .0309175
691.672 .0309102
692.412 .0309022
693.152 .0308928
693.891 .0308822
694.630 .0308710
695.369 .0308599
696.108 .0308487
696.846 .0308373
697.585 .0308253
698.323 .0308115
699.061 .0307952
699.798 .0307763
700.536 .0307548
701.273 .0307320
702.010 .0307076
702.746 .0306825
703.483 .0306568
704.219 .0306327
704.955 .0306094
705.691 .0305863
706.427 .0305637
707.162 .0305412
707.897 .0305181
708.632 .0304948
709.367 .0304715
710.101 .0304486
710.835 .0304263
711.569 .0304049
712.303 .0303830
713.037 .0303618
713.770 .0303398
714.503 .0303173
715.236 .0302939
715.969 .0302695
716.702 .0302436
717.434 .0302167
718.166 .0301889
718.898 .0301607
719.629 .0301321
720.361 .0301037
721.092 .0300752
721.823 .0300470
722.554 .0300187
723.284 .0299904
724.014 .0299619
724.744 .0299334
725.474 .0299047
726.204 .0298767
726.933 .0298494
727.662 .0298229
728.391 .0297978
729.120 .0297732
729.849 .0297494
730.577 .0297263
731.305 .0297031
732.033 .0296794
732.760 .0296545
733.488 .0296285
734.215 .0296011
734.942 .0295727
735.669 .0295430
736.395 .0295122
737.122 .0294810
737.848 .0294491
738.573 .0294163
739.299 .0293827
740.024 .0293487
740.750 .0293147
741.474 .0292811
742.199 .0292479
742.924 .0292153
743.648 .0291836
744.372 .0291535
745.096 .0291250
745.819 .0290975
746.543 .0290717
747.266 .0290478
747.989 .0290260
748.711 .0290063
749.434 .0289885
750.156 .0289737
750.878 .0289616
751.599 .0289523
752.321 .0289445
753.042 .0289380
753.763 .0289332
754.484 .0289289
755.205 .0289244
755.925 .0289194
756.645 .0289137
757.365 .0289068
758.085 .0288991
758.804 .0288904
759.523 .0288804
760.242 .0288694
760.961 .0288572
761.679 .0288439
762.397 .0288295
763.115 .0288139
763.833 .0287973
764.551 .0287798
765.268 .0287613
765.985 .0287411
766.702 .0287201
767.418 .0286987
768.134 .0286771
768.850 .0286562
769.566 .0286364
770.282 .0286177
770.997 .0286013
771.712 .0285867
772.427 .0285732
773.142 .0285617
773.856 .0285508
774.570 .0285395
775.284 .0285280
775.998 .0285159
776.711 .0285030
777.424 .0284905
778.137 .0284788
778.849 .0284673
779.562 .0284574
780.274 .0284492
780.986 .0284417
781.697 .0284358
782.409 .0284308
783.120 .0284260
783.831 .0284219
784.541 .0284183
785.252 .0284147
785.962 .0284118
786.671 .0284099
787.381 .0284085
788.090 .0284079
788.799 .0284084
789.508 .0284092
790.217 .0284107
790.925 .0284133
791.633 .0284157
792.341 .0284181
793.048 .0284196
793.755 .0284190
794.462 .0284163
795.169 .0284109
795.875 .0284031
796.581 .0283940
797.287 .0283844
797.993 .0283752
798.698 .0283670
799.403 .0283607
800.108 .0283559
800.812 .0283521
801.517 .0283486
802.221 .0283444
802.924 .0283388
803.628 .0283319
804.331 .0283236
805.034 .0283150
805.736 .0283063
806.439 .0282988
807.141 .0282927
807.843 .0282878
808.544 .0282838
809.245 .0282797
809.946 .0282750
810.647 .0282693
811.347 .0282624
812.047 .0282543
812.747 .0282459
813.447 .0282378
814.146 .0282296
814.845 .0282228
815.543 .0282172
816.242 .0282128
816.940 .0282095
817.638 .0282071
818.335 .0282048
819.032 .0282024
819.729 .0281998
820.426 .0281958
821.122 .0281907
821.818 .0281841
822.514 .0281751
823.209 .0281648
823.905 .0281535
824.599 .0281414
825.294 .0281285
825.988 .0281155
826.682 .0281017
827.376 .0280869
828.069 .0280709
828.762 .0280528
829.455 .0280326
830.147 .0280110
830.840 .0279879
831.531 .0279637
832.223 .0279399
832.914 .0279169
833.605 .0278954
834.296 .0278759
834.986 .0278576
835.676 .0278399
836.366 .0278228
837.055 .0278061
837.744 .0277892
838.433 .0277716
839.121 .0277541
839.809 .0277366
840.497 .0277197
841.185 .0277030
841.872 .0276863
842.559 .0276701
843.245 .0276541
843.932 .0276379
844.617 .0276214
845.303 .0276050
845.988 .0275892
846.673 .0275735
847.358 .0275585
848.042 .0275435
848.726 .0275287
849.410 .0275141
850.093 .0275004
850.776 .0274864
851.459 .0274721
852.141 .0274576
852.823 .0274432
853.505 .0274290
854.186 .0274146
854.867 .0273999
855.548 .0273854
856.228 .0273708
856.908 .0273557
857.588 .0273396
858.267 .0273233
858.946 .0273062
859.625 .0272884
860.303 .0272697
860.981 .0272507
861.659 .0272312
862.336 .0272121
863.013 .0271932
863.690 .0271744
864.366 .0271558
865.042 .0271369
865.718 .0271180
866.393 .0270987
867.068 .0270787
867.743 .0270584
868.417 .0270376
869.091 .0270166
869.765 .0269952
870.438 .0269741
871.111 .0269531
871.783 .0269315
872.456 .0269090
873.127 .0268859
873.799 .0268620
874.470 .0268376
875.141 .0268135
875.811 .0267901
876.481 .0267679
877.151 .0267469
877.820 .0267274
878.489 .0267094
879.158 .0266923
879.826 .0266753
880.494 .0266582
881.162 .0266409
881.829 .0266225
882.496 .0266035
883.163 .0265843
883.829 .0265648
884.495 .0265447
885.160 .0265247
885.825 .0265049
886.490 .0264857
887.154 .0264672
887.818 .0264497
888.482 .0264332
889.145 .0264184
889.808 .0264045
890.471 .0263921
891.133 .0263812
891.795 .0263711
892.456 .0263609
893.117 .0263513
893.778 .0263423
894.439 .0263341
895.099 .0263272
895.758 .0263221
896.417 .0263190
897.076 .0263172
897.735 .0263163
898.393 .0263157
899.051 .0263146
899.708 .0263123
900.365 .0263076
901.022 .0263011
901.678 .0262925
902.334 .0262825
902.990 .0262724
903.645 .0262618
904.300 .0262515
904.954 .0262408
905.608 .0262294
906.262 .0262170
906.915 .0262032
907.568 .0261871
908.221 .0261695
908.873 .0261508
909.525 .0261315
910.176 .0261122
910.828 .0260949
911.478 .0260801
912.129 .0260675
912.778 .0260571
913.428 .0260481
914.077 .0260390
914.726 .0260298
915.375 .0260193
916.023 .0260083
916.670 .0259975
917.318 .0259868
917.964 .0259768
918.611 .0259682
919.257 .0259613
919.903 .0259555
920.548 .0259505
921.193 .0259460
921.838 .0259411
922.482 .0259353
923.126 .0259290
923.770 .0259222
924.413 .0259157
925.056 .0259103
925.698 .0259063
926.340 .0259045
926.982 .0259047
927.623 .0259064
928.264 .0259092
928.904 .0259121
929.544 .0259137
930.184 .0259134
930.823 .0259109
931.462 .0259061
932.101 .0258990
932.739 .0258904
933.377 .0258807
934.014 .0258704
934.651 .0258596
935.288 .0258481
935.924 .0258361
936.560 .0258237
937.196 .0258104
937.831 .0257962
938.466 .0257817
939.100 .0257676
939.734 .0257543
940.368 .0257427
941.001 .0257333
941.634 .0257260
942.266 .0257208
942.899 .0257168
943.530 .0257131
944.162 .0257087
944.793 .0257027
945.423 .0256948
946.053 .0256850
946.683 .0256739
947.313 .0256624
947.942 .0256511
948.571 .0256403
949.199 .0256299
949.827 .0256191
950.455 .0256081
951.082 .0255963
951.709 .0255833
952.335 .0255696
952.961 .0255552
953.587 .0255415
954.212 .0255282
954.837 .0255166
955.462 .0255067
956.086 .0254993
956.710 .0254946
957.334 .0254912
957.957 .0254893
958.579 .0254886
959.202 .0254883
959.824 .0254883
960.445 .0254878
961.067 .0254866
961.688 .0254850
962.308 .0254826
962.928 .0254785
963.548 .0254737
964.168 .0254680
964.787 .0254622
965.406 .0254561
966.024 .0254508
966.642 .0254455
967.260 .0254407
967.877 .0254367
968.494 .0254321
969.110 .0254266
969.727 .0254200
970.342 .0254124
970.958 .0254039
971.573 .0253948
972.188 .0253854
972.802 .0253773
973.416 .0253715
974.030 .0253681
974.643 .0253675
975.256 .0253694
975.869 .0253739
976.481 .0253796
977.093 .0253860
977.705 .0253924
978.316 .0253983
978.927 .0254041
979.538 .0254089
980.148 .0254139
980.758 .0254190
981.367 .0254252
981.977 .0254335
982.586 .0254435
983.194 .0254544
983.802 .0254654
984.410 .0254757
985.018 .0254841
985.625 .0254901
986.232 .0254933
986.838 .0254945
987.445 .0254941
988.050 .0254916
988.656 .0254877
989.261 .0254823
989.866 .0254763
990.471 .0254680
991.075 .0254585
991.679 .0254474
992.282 .0254348
992.886 .0254223
993.489 .0254097
994.091 .0253982
994.694 .0253888
995.296 .0253806
995.897 .0253727
996.499 .0253645
997.100 .0253560
997.701 .0253468
998.301 .0253384
998.901 .0253317
999.501 .0253268
1000.101 .0253248
1000.700 .0253263
1001.299 .0253301
1001.898 .0253359
1002.496 .0253429
1003.094 .0253486
1003.692 .0253535
1004.289 .0253566
1004.887 .0253576
1005.484 .0253574
1006.080 .0253574
1006.677 .0253584
1007.273 .0253589
1007.868 .0253594
1008.464 .0253598
1009.059 .0253590
1009.654 .0253570
1010.249 .0253530
1010.843 .0253484
1011.437 .0253435
1012.031 .0253388
1012.625 .0253341
1013.218 .0253301
1013.811 .0253274
1014.404 .0253256
1014.997 .0253237
1015.589 .0253222
1016.181 .0253204
1016.773 .0253178
1017.365 .0253155
1017.956 .0253137
1018.547 .0253115
1019.138 .0253092
1019.728 .0253067
1020.319 .0253040
1020.909 .0253004
1021.499 .0252958
1022.088 .0252898
1022.678 .0252829
1023.267 .0252745
1023.856 .0252640
1024.445 .0252519
1025.033 .0252395
1025.621 .0252266
1026.209 .0252133
1026.797 .0252003
1027.385 .0251878
1027.972 .0251765
1028.560 .0251660
1029.147 .0251563
1029.734 .0251488
1030.320 .0251433
1030.907 .0251388
1031.493 .0251358
1032.079 .0251341
1032.665 .0251328
1033.250 .0251326
1033.836 .0251324
1034.421 .0251317
1035.006 .0251301
1035.591 .0251274
1036.176 .0251222
1036.761 .0251150
1037.345 .0251064
1037.929 .0250956
1038.514 .0250834
1039.097 .0250705
1039.681 .0250558
1040.265 .0250417
1040.848 .0250277
1041.432 .0250131
1042.015 .0249980
1042.598 .0249823
1043.181 .0249659
1043.764 .0249488
1044.346 .0249320
1044.929 .0249157
1045.511 .0249003
1046.094 .0248861
1046.676 .0248725
1047.258 .0248602
1047.840 .0248486
1048.422 .0248372
1049.003 .0248259
1049.585 .0248142
1050.166 .0248008
1050.748 .0247869
1051.329 .0247718
1051.910 .0247556
1052.491 .0247384
1053.072 .0247204
1053.653 .0247016
1054.234 .0246823
1054.815 .0246617
1055.396 .0246401
1055.976 .0246186
1056.557 .0245967
1057.138 .0245738
1057.718 .0245510
1058.298 .0245286
1058.879 .0245075
1059.459 .0244880
1060.039 .0244705
1060.620 .0244544
1061.200 .0244404
1061.780 .0244269
1062.360 .0244139
1062.940 .0244018
1063.520 .0243904
1064.101 .0243793
1064.681 .0243688
1065.261 .0243587
1065.841 .0243483
1066.421 .0243389
1067.001 .0243304
1067.581 .0243216
1068.161 .0243133
1068.741 .0243038
1069.321 .0242934
1069.901 .0242822
1070.482 .0242708
1071.062 .0242612
1071.642 .0242532
1072.222 .0242476
1072.803 .0242436
1073.383 .0242418
1073.963 .0242425
1074.544 .0242445
1075.124 .0242467
1075.705 .0242491
1076.286 .0242496
1076.866 .0242493
1077.447 .0242472
1078.028 .0242442
1078.609 .0242426
1079.190 .0242418
1079.771 .0242403
1080.352 .0242390
1080.934 .0242365
1081.515 .0242339
1082.097 .0242308
1082.679 .0242295
1083.260 .0242270
1083.842 .0242248
1084.424 .0242234
1085.007 .0242235
1085.589 .0242253
1086.172 .0242287
1086.754 .0242302
1087.337 .0242324
1087.920 .0242340
1088.503 .0242337
1089.087 .0242285
1089.670 .0242222
1090.254 .0242123
1090.838 .0241982
1091.422 .0241794
1092.006 .0241557
1092.590 .0241289
1093.175 .0241016
1093.760 .0240728
1094.345 .0240433
1094.930 .0240131
1095.516 .0239843
1096.102 .0239559
1096.688 .0239296
1097.274 .0239058
1097.860 .0238823
1098.447 .0238600
1099.034 .0238406
1099.622 .0238236
1100.209 .0238087
1100.797 .0237978
1101.385 .0237909
1101.973 .0237895
1102.562 .0237897
1103.151 .0237929
1103.740 .0237964
1104.330 .0238032
1104.920 .0238115
1105.510 .0238195
1106.101 .0238301
1106.691 .0238431
1107.283 .0238556
1107.874 .0238688
1108.466 .0238797
1109.058 .0238904
1109.651 .0238965
1110.244 .0239007
1110.837 .0239010
1111.431 .0239003
1112.025 .0239011
1112.620 .0239040
1113.215 .0239091
1113.810 .0239186
1114.406 .0239323
1115.002 .0239477
1115.599 .0239652
1116.196 .0239845
1116.793 .0240006
1117.391 .0240157
1117.989 .0240263
1118.588 .0240313
1119.187 .0240277
1119.787 .0240204
1120.387 .0240106
1120.988 .0240003
1121.589 .0239944
1122.190 .0239923
1122.793 .0239966
1123.395 .0240102
1123.998 .0240279
1124.602 .0240471
1125.206 .0240680
1125.811 .0240907
1126.416 .0241077
1127.022 .0241277
1127.628 .0241502
1128.235 .0241838
1128.843 .0242325
1129.451 .0242975
1130.059 .0243755
1130.669 .0244612
1131.278 .0245524
1131.889 .0246389
1132.500 .0247154
1133.112 .0247768
1133.724 .0248191
1134.337 .0248555
1134.950 .0248844
1135.564 .0249157
1136.179 .0249506
1136.795 .0249987
1137.411 .0250558
1138.028 .0251173
1138.645 .0251775
1139.263 .0252363
1139.882 .0252944
1140.502 .0253563
1141.122 .0254303
1141.743 .0255155
1142.365 .0256039
1142.987 .0255645
1143.611 .0258867
1144.235 .0262404
1144.859 .0261727
1145.485 .0259423
