Measurement Sequence started on: 10-20-44-796
Integration time: 35
Scans to Average: 2 
>>>>>Begin Spectral Data<<<<<
432.953 .0310207
433.882 .0300302
434.810 .0279652
435.737 .0310315
436.662 .0311475
437.586 .0328168
438.509 .0335261
439.431 .0342057
440.351 .0348242
441.269 .0352542
442.187 .0355898
443.103 .0358023
444.018 .0359552
444.932 .0360526
445.844 .0361055
446.756 .0361050
447.666 .0360647
448.575 .0359864
449.482 .0358850
450.388 .0357784
451.294 .0356756
452.198 .0355879
453.100 .0355074
454.002 .0354479
454.902 .0354051
455.801 .0353756
456.699 .0353500
457.596 .0353287
458.492 .0353167
459.387 .0353066
460.280 .0352955
461.172 .0352828
462.064 .0352684
462.954 .0352498
463.843 .0352202
464.730 .0351812
465.617 .0351361
466.503 .0350838
467.387 .0350249
468.271 .0349570
469.153 .0348836
470.035 .0348063
470.915 .0347271
471.794 .0346488
472.673 .0345684
473.550 .0344897
474.426 .0344173
475.301 .0343543
476.175 .0343018
477.048 .0342579
477.920 .0342251
478.791 .0342021
479.661 .0341875
480.530 .0341800
481.398 .0341789
482.266 .0341845
483.132 .0341993
483.997 .0342179
484.861 .0342419
485.724 .0342721
486.587 .0343051
487.448 .0343396
488.308 .0343739
489.168 .0344041
490.026 .0344270
490.884 .0344418
491.741 .0344488
492.597 .0344456
493.452 .0344355
494.306 .0344174
495.159 .0343941
496.011 .0343654
496.862 .0343341
497.713 .0342980
498.562 .0342603
499.411 .0342179
500.259 .0341711
501.106 .0341172
501.952 .0340581
502.798 .0339917
503.642 .0339175
504.486 .0338350
505.329 .0337476
506.171 .0336499
507.012 .0335464
507.852 .0334332
508.692 .0333156
509.531 .0331862
510.369 .0330527
511.206 .0329109
512.043 .0327623
512.878 .0326071
513.713 .0324452
514.547 .0322752
515.381 .0321058
516.213 .0319310
517.045 .0317571
517.876 .0315807
518.706 .0314095
519.536 .0312412
520.365 .0310869
521.193 .0309383
522.020 .0307992
522.847 .0306667
523.673 .0305424
524.498 .0304155
525.323 .0302871
526.146 .0301600
526.969 .0300354
527.792 .0299085
528.614 .0297751
529.435 .0296303
530.255 .0294840
531.075 .0293169
531.894 .0291371
532.712 .0289447
533.530 .0287443
534.347 .0285446
535.163 .0283501
535.979 .0281794
536.794 .0280346
537.608 .0279167
538.422 .0278259
539.235 .0277544
540.048 .0276949
540.860 .0276330
541.671 .0275764
542.481 .0275250
543.292 .0274848
544.101 .0274548
544.910 .0274470
545.718 .0274689
546.526 .0275202
547.333 .0275960
548.139 .0276881
548.945 .0277954
549.750 .0279041
550.555 .0280044
551.359 .0281021
552.162 .0281915
552.965 .0282805
553.768 .0283651
554.569 .0284513
555.371 .0285328
556.171 .0286100
556.972 .0286808
557.771 .0287481
558.570 .0288122
559.369 .0288727
560.167 .0289306
560.964 .0289895
561.761 .0290510
562.558 .0291127
563.354 .0291736
564.149 .0292323
564.944 .0292860
565.738 .0293396
566.532 .0293867
567.325 .0294352
568.118 .0294874
568.910 .0295468
569.702 .0296151
570.494 .0296900
571.285 .0297675
572.075 .0298450
572.865 .0299208
573.654 .0299902
574.443 .0300495
575.232 .0301034
576.020 .0301509
576.807 .0301981
577.594 .0302464
578.381 .0302969
579.167 .0303487
579.952 .0304047
580.738 .0304616
581.522 .0305166
582.307 .0305692
583.091 .0306216
583.874 .0306713
584.657 .0307210
585.440 .0307701
586.222 .0308180
587.004 .0308648
587.785 .0309105
588.566 .0309508
589.346 .0309857
590.126 .0310151
590.906 .0310392
591.685 .0310592
592.464 .0310772
593.242 .0310932
594.020 .0311069
594.797 .0311208
595.575 .0311326
596.351 .0311411
597.128 .0311472
597.904 .0311482
598.679 .0311446
599.454 .0311363
600.229 .0311239
601.004 .0311086
601.778 .0310913
602.551 .0310742
603.325 .0310568
604.097 .0310409
604.870 .0310254
605.642 .0310099
606.414 .0309938
607.185 .0309774
607.956 .0309600
608.727 .0309419
609.497 .0309236
610.267 .0309052
611.037 .0308869
611.806 .0308693
612.575 .0308533
613.344 .0308387
614.112 .0308247
614.880 .0308120
615.647 .0307996
616.414 .0307873
617.181 .0307744
617.948 .0307605
618.714 .0307455
619.480 .0307300
620.245 .0307137
621.011 .0306963
621.775 .0306790
622.540 .0306616
623.304 .0306449
624.068 .0306292
624.832 .0306137
625.595 .0305984
626.358 .0305824
627.120 .0305659
627.883 .0305476
628.645 .0305274
629.406 .0305057
630.168 .0304824
630.929 .0304585
631.689 .0304344
632.450 .0304107
633.210 .0303880
633.970 .0303657
634.729 .0303440
635.489 .0303217
636.248 .0302980
637.006 .0302727
637.765 .0302458
638.523 .0302166
639.280 .0301865
640.038 .0301562
640.795 .0301264
641.552 .0300984
642.309 .0300723
643.065 .0300482
643.821 .0300256
644.577 .0300039
645.332 .0299817
646.088 .0299583
646.843 .0299340
647.597 .0299080
648.352 .0298815
649.106 .0298555
649.860 .0298300
650.613 .0298057
651.367 .0297829
652.120 .0297612
652.872 .0297400
653.625 .0297188
654.377 .0296971
655.129 .0296748
655.881 .0296519
656.632 .0296288
657.384 .0296056
658.135 .0295827
658.885 .0295597
659.636 .0295364
660.386 .0295128
661.136 .0294888
661.885 .0294649
662.635 .0294418
663.384 .0294201
664.133 .0294008
664.881 .0293835
665.630 .0293683
666.378 .0293548
667.126 .0293422
667.874 .0293293
668.621 .0293161
669.368 .0293020
670.115 .0292873
670.862 .0292717
671.608 .0292568
672.354 .0292428
673.100 .0292298
673.846 .0292178
674.591 .0292058
675.337 .0291932
676.082 .0291799
676.826 .0291650
677.571 .0291489
678.315 .0291318
679.059 .0291146
679.803 .0290972
680.547 .0290808
681.290 .0290652
682.033 .0290500
682.776 .0290353
683.518 .0290208
684.261 .0290058
685.003 .0289904
685.745 .0289746
686.487 .0289587
687.228 .0289429
687.969 .0289273
688.710 .0289113
689.451 .0288948
690.192 .0288781
690.932 .0288606
691.672 .0288424
692.412 .0288237
693.152 .0288044
693.891 .0287851
694.630 .0287659
695.369 .0287470
696.108 .0287283
696.846 .0287097
697.585 .0286915
698.323 .0286733
699.061 .0286555
699.798 .0286379
700.536 .0286217
701.273 .0286062
702.010 .0285919
702.746 .0285781
703.483 .0285650
704.219 .0285516
704.955 .0285379
705.691 .0285233
706.427 .0285074
707.162 .0284907
707.897 .0284733
708.632 .0284556
709.367 .0284384
710.101 .0284209
710.835 .0284034
711.569 .0283858
712.303 .0283679
713.037 .0283494
713.770 .0283311
714.503 .0283131
715.236 .0282961
715.969 .0282799
716.702 .0282651
717.434 .0282515
718.166 .0282391
718.898 .0282269
719.629 .0282141
720.361 .0282011
721.092 .0281871
721.823 .0281722
722.554 .0281570
723.284 .0281417
724.014 .0281262
724.744 .0281103
725.474 .0280936
726.204 .0280761
726.933 .0280577
727.662 .0280376
728.391 .0280161
729.120 .0279933
729.849 .0279695
730.577 .0279455
731.305 .0279217
732.033 .0278991
732.760 .0278773
733.488 .0278571
734.215 .0278386
734.942 .0278214
735.669 .0278056
736.395 .0277904
737.122 .0277762
737.848 .0277624
738.573 .0277480
739.299 .0277331
740.024 .0277181
740.750 .0277030
741.474 .0276880
742.199 .0276733
742.924 .0276591
743.648 .0276456
744.372 .0276325
745.096 .0276194
745.819 .0276060
746.543 .0275910
747.266 .0275751
747.989 .0275582
748.711 .0275413
749.434 .0275239
750.156 .0275075
750.878 .0274930
751.599 .0274805
752.321 .0274692
753.042 .0274589
753.763 .0274493
754.484 .0274402
755.205 .0274304
755.925 .0274205
756.645 .0274107
757.365 .0274011
758.085 .0273918
758.804 .0273823
759.523 .0273722
760.242 .0273610
760.961 .0273477
761.679 .0273328
762.397 .0273149
763.115 .0272944
763.833 .0272714
764.551 .0272472
765.268 .0272223
765.985 .0271969
766.702 .0271717
767.418 .0271469
768.134 .0271226
768.850 .0270989
769.566 .0270752
770.282 .0270524
770.997 .0270302
771.712 .0270091
772.427 .0269891
773.142 .0269705
773.856 .0269529
774.570 .0269367
775.284 .0269212
775.998 .0269063
776.711 .0268916
777.424 .0268767
778.137 .0268619
778.849 .0268468
779.562 .0268314
780.274 .0268155
780.986 .0267994
781.697 .0267835
782.409 .0267671
783.120 .0267515
783.831 .0267367
784.541 .0267230
785.252 .0267109
785.962 .0267003
786.671 .0266912
787.381 .0266833
788.090 .0266765
788.799 .0266699
789.508 .0266629
790.217 .0266555
790.925 .0266469
791.633 .0266371
792.341 .0266257
793.048 .0266129
793.755 .0265987
794.462 .0265837
795.169 .0265682
795.875 .0265525
796.581 .0265369
797.287 .0265214
797.993 .0265058
798.698 .0264901
799.403 .0264742
800.108 .0264583
800.812 .0264423
801.517 .0264266
802.221 .0264114
802.924 .0263974
803.628 .0263852
804.331 .0263748
805.034 .0263666
805.736 .0263597
806.439 .0263536
807.141 .0263476
807.843 .0263412
808.544 .0263339
809.245 .0263254
809.946 .0263157
810.647 .0263053
811.347 .0262947
812.047 .0262846
812.747 .0262752
813.447 .0262667
814.146 .0262589
814.845 .0262514
815.543 .0262434
816.242 .0262354
816.940 .0262268
817.638 .0262180
818.335 .0262093
819.032 .0262006
819.729 .0261925
820.426 .0261849
821.122 .0261780
821.818 .0261716
822.514 .0261654
823.209 .0261593
823.905 .0261523
824.599 .0261448
825.294 .0261370
825.988 .0261288
826.682 .0261204
827.376 .0261122
828.069 .0261038
828.762 .0260950
829.455 .0260852
830.147 .0260745
830.840 .0260629
831.531 .0260505
832.223 .0260377
832.914 .0260246
833.605 .0260124
834.296 .0260013
834.986 .0259909
835.676 .0259818
836.366 .0259738
837.055 .0259663
837.744 .0259587
838.433 .0259512
839.121 .0259435
839.809 .0259357
840.497 .0259281
841.185 .0259214
841.872 .0259156
842.559 .0259112
843.245 .0259079
843.932 .0259058
844.617 .0259048
845.303 .0259043
845.988 .0259039
846.673 .0259035
847.358 .0259029
848.042 .0259021
848.726 .0259005
849.410 .0258989
850.093 .0258968
850.776 .0258946
851.459 .0258920
852.141 .0258888
852.823 .0258847
853.505 .0258799
854.186 .0258734
854.867 .0258661
855.548 .0258576
856.228 .0258481
856.908 .0258377
857.588 .0258265
858.267 .0258146
858.946 .0258021
859.625 .0257894
860.303 .0257768
860.981 .0257641
861.659 .0257520
862.336 .0257399
863.013 .0257282
863.690 .0257177
864.366 .0257078
865.042 .0256984
865.718 .0256901
866.393 .0256820
867.068 .0256741
867.743 .0256663
868.417 .0256586
869.091 .0256508
869.765 .0256433
870.438 .0256357
871.111 .0256280
871.783 .0256205
872.456 .0256130
873.127 .0256049
873.799 .0255970
874.470 .0255883
875.141 .0255791
875.811 .0255693
876.481 .0255595
877.151 .0255492
877.820 .0255393
878.489 .0255296
879.158 .0255202
879.826 .0255111
880.494 .0255027
881.162 .0254944
881.829 .0254870
882.496 .0254796
883.163 .0254726
883.829 .0254656
884.495 .0254585
885.160 .0254515
885.825 .0254451
886.490 .0254393
887.154 .0254342
887.818 .0254296
888.482 .0254260
889.145 .0254224
889.808 .0254187
890.471 .0254138
891.133 .0254075
891.795 .0253994
892.456 .0253891
893.117 .0253768
893.778 .0253635
894.439 .0253496
895.099 .0253353
895.758 .0253213
896.417 .0253081
897.076 .0252954
897.735 .0252827
898.393 .0252702
899.051 .0252574
899.708 .0252441
900.365 .0252306
901.022 .0252170
901.678 .0252043
902.334 .0251926
902.990 .0251821
903.645 .0251729
904.300 .0251653
904.954 .0251587
905.608 .0251527
906.262 .0251471
906.915 .0251422
907.568 .0251370
908.221 .0251319
908.873 .0251267
909.525 .0251214
910.176 .0251159
910.828 .0251100
911.478 .0251031
912.129 .0250954
912.778 .0250864
913.428 .0250766
914.077 .0250659
914.726 .0250551
915.375 .0250436
916.023 .0250320
916.670 .0250204
917.318 .0250089
917.964 .0249965
918.611 .0249835
919.257 .0249691
919.903 .0249536
920.548 .0249367
921.193 .0249187
921.838 .0249005
922.482 .0248829
923.126 .0248661
923.770 .0248509
924.413 .0248368
925.056 .0248239
925.698 .0248115
926.340 .0247994
926.982 .0247868
927.623 .0247734
928.264 .0247594
928.904 .0247450
929.544 .0247307
930.184 .0247166
930.823 .0247030
931.462 .0246902
932.101 .0246783
932.739 .0246662
933.377 .0246532
934.014 .0246389
934.651 .0246232
935.288 .0246056
935.924 .0245864
936.560 .0245660
937.196 .0245451
937.831 .0245244
938.466 .0245044
939.100 .0244852
939.734 .0244670
940.368 .0244496
941.001 .0244329
941.634 .0244161
942.266 .0243990
942.899 .0243813
943.530 .0243627
944.162 .0243438
944.793 .0243245
945.423 .0243049
946.053 .0242856
946.683 .0242670
947.313 .0242483
947.942 .0242294
948.571 .0242098
949.199 .0241889
949.827 .0241661
950.455 .0241420
951.082 .0241168
951.709 .0240913
952.335 .0240663
952.961 .0240427
953.587 .0240203
954.212 .0240005
954.837 .0239821
955.462 .0239647
956.086 .0239484
956.710 .0239328
957.334 .0239171
957.957 .0239018
958.579 .0238871
959.202 .0238734
959.824 .0238606
960.445 .0238491
961.067 .0238377
961.688 .0238268
962.308 .0238163
962.928 .0238056
963.548 .0237942
964.168 .0237828
964.787 .0237706
965.406 .0237583
966.024 .0237463
966.642 .0237341
967.260 .0237213
967.877 .0237086
968.494 .0236960
969.110 .0236833
969.727 .0236704
970.342 .0236580
970.958 .0236462
971.573 .0236359
972.188 .0236259
972.802 .0236161
973.416 .0236068
974.030 .0235976
974.643 .0235876
975.256 .0235770
975.869 .0235663
976.481 .0235558
977.093 .0235458
977.705 .0235368
978.316 .0235287
978.927 .0235218
979.538 .0235155
980.148 .0235095
980.758 .0235034
981.367 .0234971
981.977 .0234899
982.586 .0234828
983.194 .0234759
983.802 .0234695
984.410 .0234633
985.018 .0234582
985.625 .0234538
986.232 .0234500
986.838 .0234459
987.445 .0234419
988.050 .0234377
988.656 .0234334
989.261 .0234285
989.866 .0234234
990.471 .0234185
991.075 .0234141
991.679 .0234093
992.282 .0234051
992.886 .0234010
993.489 .0233972
994.091 .0233933
994.694 .0233902
995.296 .0233874
995.897 .0233848
996.499 .0233826
997.100 .0233808
997.701 .0233792
998.301 .0233783
998.901 .0233775
999.501 .0233770
1000.101 .0233762
1000.700 .0233747
1001.299 .0233721
1001.898 .0233688
1002.496 .0233645
1003.094 .0233590
1003.692 .0233530
1004.289 .0233473
1004.887 .0233422
1005.484 .0233384
1006.080 .0233357
1006.677 .0233344
1007.273 .0233340
1007.868 .0233333
1008.464 .0233322
1009.059 .0233308
1009.654 .0233287
1010.249 .0233271
1010.843 .0233267
1011.437 .0233276
1012.031 .0233304
1012.625 .0233359
1013.218 .0233433
1013.811 .0233520
1014.404 .0233618
1014.997 .0233718
1015.589 .0233809
1016.181 .0233897
1016.773 .0233976
1017.365 .0234046
1017.956 .0234115
1018.547 .0234181
1019.138 .0234247
1019.728 .0234313
1020.319 .0234380
1020.909 .0234448
1021.499 .0234516
1022.088 .0234584
1022.678 .0234638
1023.267 .0234685
1023.856 .0234719
1024.445 .0234734
1025.033 .0234730
1025.621 .0234714
1026.209 .0234698
1026.797 .0234679
1027.385 .0234668
1027.972 .0234673
1028.560 .0234700
1029.147 .0234742
1029.734 .0234800
1030.320 .0234873
1030.907 .0234945
1031.493 .0235016
1032.079 .0235080
1032.665 .0235141
1033.250 .0235198
1033.836 .0235256
1034.421 .0235309
1035.006 .0235361
1035.591 .0235420
1036.176 .0235471
1036.761 .0235517
1037.345 .0235566
1037.929 .0235606
1038.514 .0235636
1039.097 .0235658
1039.681 .0235677
1040.265 .0235685
1040.848 .0235697
1041.432 .0235708
1042.015 .0235725
1042.598 .0235755
1043.181 .0235797
1043.764 .0235837
1044.346 .0235890
1044.929 .0235950
1045.511 .0236010
1046.094 .0236062
1046.676 .0236114
1047.258 .0236163
1047.840 .0236218
1048.422 .0236279
1049.003 .0236351
1049.585 .0236437
1050.166 .0236532
1050.748 .0236628
1051.329 .0236729
1051.910 .0236827
1052.491 .0236920
1053.072 .0237006
1053.653 .0237092
1054.234 .0237173
1054.815 .0237247
1055.396 .0237313
1055.976 .0237371
1056.557 .0237423
1057.138 .0237450
1057.718 .0237451
1058.298 .0237431
1058.879 .0237386
1059.459 .0237315
1060.039 .0237222
1060.620 .0237113
1061.200 .0236988
1061.780 .0236852
1062.360 .0236706
1062.940 .0236572
1063.520 .0236453
1064.101 .0236357
1064.681 .0236291
1065.261 .0236255
1065.841 .0236236
1066.421 .0236242
1067.001 .0236262
1067.581 .0236293
1068.161 .0236333
1068.741 .0236388
1069.321 .0236452
1069.901 .0236540
1070.482 .0236646
1071.062 .0236762
1071.642 .0236874
1072.222 .0236977
1072.803 .0237039
1073.383 .0237077
1073.963 .0237079
1074.544 .0237044
1075.124 .0236975
1075.705 .0236896
1076.286 .0236790
1076.866 .0236680
1077.447 .0236570
1078.028 .0236445
1078.609 .0236319
1079.190 .0236191
1079.771 .0236067
1080.352 .0235960
1080.934 .0235874
1081.515 .0235833
1082.097 .0235833
1082.679 .0235882
1083.260 .0235951
1083.842 .0236033
1084.424 .0236128
1085.007 .0236194
1085.589 .0236243
1086.172 .0236262
1086.754 .0236261
1087.337 .0236245
1087.920 .0236237
1088.503 .0236238
1089.087 .0236269
1089.670 .0236306
1090.254 .0236348
1090.838 .0236387
1091.422 .0236412
1092.006 .0236411
1092.590 .0236389
1093.175 .0236342
1093.760 .0236282
1094.345 .0236203
1094.930 .0236148
1095.516 .0236113
1096.102 .0236135
1096.688 .0236203
1097.274 .0236330
1097.860 .0236502
1098.447 .0236691
1099.034 .0236888
1099.622 .0237076
1100.209 .0237236
1100.797 .0237370
1101.385 .0237451
1101.973 .0237504
1102.562 .0237516
1103.151 .0237505
1103.740 .0237474
1104.330 .0237431
1104.920 .0237370
1105.510 .0237312
1106.101 .0237265
1106.691 .0237215
1107.283 .0237174
1107.874 .0237135
1108.466 .0237088
1109.058 .0237020
1109.651 .0236938
1110.244 .0236821
1110.837 .0236671
1111.431 .0236520
1112.025 .0236343
1112.620 .0236191
1113.215 .0236098
1113.810 .0236056
1114.406 .0236113
1115.002 .0236258
1115.599 .0236454
1116.196 .0236655
1116.793 .0236859
1117.391 .0237001
1117.989 .0237061
1118.588 .0237062
1119.187 .0237003
1119.787 .0236902
1120.387 .0236791
1120.988 .0236688
1121.589 .0236617
1122.190 .0236570
1122.793 .0236542
1123.395 .0236496
1123.998 .0236479
1124.602 .0236429
1125.206 .0236378
1125.811 .0236322
1126.416 .0236298
1127.022 .0236307
1127.628 .0236334
1128.235 .0236385
1128.843 .0236483
1129.451 .0236617
1130.059 .0236776
1130.669 .0236956
1131.278 .0237185
1131.889 .0237407
1132.500 .0237657
1133.112 .0237893
1133.724 .0238149
1134.337 .0238404
1134.950 .0238658
1135.564 .0238883
1136.179 .0239112
1136.795 .0239321
1137.411 .0239533
1138.028 .0239778
1138.645 .0240080
1139.263 .0240450
1139.882 .0240887
1140.502 .0241454
1141.122 .0242140
1141.743 .0242950
1142.365 .0243931
1142.987 .0243670
1143.611 .0246723
1144.235 .0247255
1144.859 .0248543
1145.485 .0250712
