Measurement Sequence started on: 10-20-44-796
Integration time: 35
Scans to Average: 2 
>>>>>Begin Spectral Data<<<<<
432.953 .0511540
433.882 .0418215
434.810 .0419453
435.737 .0388794
436.662 .0360095
437.586 .0364733
438.509 .0351201
439.431 .0342630
440.351 .0335775
441.269 .0331257
442.187 .0328442
443.103 .0326440
444.018 .0325285
444.932 .0324874
445.844 .0324593
446.756 .0324716
447.666 .0325130
448.575 .0325744
449.482 .0326391
450.388 .0326982
451.294 .0327391
452.198 .0327522
453.100 .0327435
454.002 .0327183
454.902 .0326750
455.801 .0326282
456.699 .0325739
457.596 .0325141
458.492 .0324410
459.387 .0323669
460.280 .0322817
461.172 .0321792
462.064 .0320697
462.954 .0319503
463.843 .0318320
464.730 .0317272
465.617 .0316377
466.503 .0315665
467.387 .0315207
468.271 .0314885
469.153 .0314629
470.035 .0314450
470.915 .0314244
471.794 .0313973
472.673 .0313683
473.550 .0313404
474.426 .0313171
475.301 .0313037
476.175 .0313024
477.048 .0313075
477.920 .0313203
478.791 .0313294
479.661 .0313339
480.530 .0313316
481.398 .0313209
482.266 .0313009
483.132 .0312776
483.997 .0312562
484.861 .0312387
485.724 .0312315
486.587 .0312352
487.448 .0312488
488.308 .0312664
489.168 .0312837
490.026 .0312982
490.884 .0313094
491.741 .0313125
492.597 .0313067
493.452 .0312970
494.306 .0312800
495.159 .0312566
496.011 .0312285
496.862 .0311946
497.713 .0311585
498.562 .0311153
499.411 .0310664
500.259 .0310071
501.106 .0309399
501.952 .0308632
502.798 .0307755
503.642 .0306792
504.486 .0305755
505.329 .0304659
506.171 .0303552
507.012 .0302474
507.852 .0301437
508.692 .0300499
509.531 .0299576
510.369 .0298683
511.206 .0297794
512.043 .0296857
512.878 .0295810
513.713 .0294669
514.547 .0293455
515.381 .0292196
516.213 .0290856
517.045 .0289550
517.876 .0288247
518.706 .0287038
519.536 .0285834
520.365 .0284671
521.193 .0283484
522.020 .0282341
522.847 .0281111
523.673 .0279895
524.498 .0278636
525.323 .0277382
526.146 .0276061
526.969 .0274711
527.792 .0273177
528.614 .0271482
529.435 .0269610
530.255 .0267713
531.075 .0265736
531.894 .0263879
532.712 .0262163
533.530 .0260688
534.347 .0259413
535.163 .0258371
535.979 .0257461
536.794 .0256663
537.608 .0255882
538.422 .0255122
539.235 .0254384
540.048 .0253735
540.860 .0253195
541.671 .0252819
542.481 .0252676
543.292 .0252702
544.101 .0252827
544.910 .0253060
545.718 .0253359
546.526 .0253626
547.333 .0253820
548.139 .0253964
548.945 .0254150
549.750 .0254321
550.555 .0254599
551.359 .0254993
552.162 .0255543
552.965 .0256210
553.768 .0257029
554.569 .0257965
555.371 .0259000
556.171 .0260043
556.972 .0261093
557.771 .0262095
558.570 .0263106
559.369 .0264042
560.167 .0264912
560.964 .0265793
561.761 .0266650
562.558 .0267434
563.354 .0268172
564.149 .0268830
564.944 .0269489
565.738 .0270080
566.532 .0270616
567.325 .0271057
568.118 .0271489
568.910 .0271959
569.702 .0272457
570.494 .0273031
571.285 .0273685
572.075 .0274402
572.865 .0275173
573.654 .0275938
574.443 .0276678
575.232 .0277435
576.020 .0278215
576.807 .0278973
577.594 .0279753
578.381 .0280552
579.167 .0281375
579.952 .0282220
580.738 .0283074
581.522 .0283915
582.307 .0284701
583.091 .0285443
583.874 .0286088
584.657 .0286676
585.440 .0287213
586.222 .0287676
587.004 .0288100
587.785 .0288528
588.566 .0288934
589.346 .0289311
590.126 .0289646
590.906 .0289946
591.685 .0290193
592.464 .0290394
593.242 .0290549
594.020 .0290683
594.797 .0290794
595.575 .0290899
596.351 .0290977
597.128 .0291053
597.904 .0291101
598.679 .0291121
599.454 .0291106
600.229 .0291066
601.004 .0290989
601.778 .0290890
602.551 .0290784
603.325 .0290694
604.097 .0290609
604.870 .0290523
605.642 .0290433
606.414 .0290331
607.185 .0290208
607.956 .0290062
608.727 .0289885
609.497 .0289703
610.267 .0289522
611.037 .0289347
611.806 .0289186
612.575 .0289041
613.344 .0288917
614.112 .0288800
614.880 .0288686
615.647 .0288550
616.414 .0288393
617.181 .0288219
617.948 .0288031
618.714 .0287830
619.480 .0287637
620.245 .0287445
621.011 .0287266
621.775 .0287107
622.540 .0286952
623.304 .0286799
624.068 .0286649
624.832 .0286496
625.595 .0286333
626.358 .0286158
627.120 .0285984
627.883 .0285806
628.645 .0285647
629.406 .0285504
630.168 .0285376
630.929 .0285265
631.689 .0285167
632.450 .0285066
633.210 .0284963
633.970 .0284850
634.729 .0284720
635.489 .0284571
636.248 .0284413
637.006 .0284238
637.765 .0284052
638.523 .0283874
639.280 .0283705
640.038 .0283535
640.795 .0283376
641.552 .0283223
642.309 .0283082
643.065 .0282951
643.821 .0282833
644.577 .0282719
645.332 .0282616
646.088 .0282514
646.843 .0282412
647.597 .0282309
648.352 .0282210
649.106 .0282095
649.860 .0281970
650.613 .0281832
651.367 .0281679
652.120 .0281513
652.872 .0281340
653.625 .0281154
654.377 .0280959
655.129 .0280745
655.881 .0280519
656.632 .0280279
657.384 .0280038
658.135 .0279794
658.885 .0279556
659.636 .0279329
660.386 .0279118
661.136 .0278926
661.885 .0278761
662.635 .0278617
663.384 .0278493
664.133 .0278384
664.881 .0278283
665.630 .0278185
666.378 .0278095
667.126 .0278008
667.874 .0277926
668.621 .0277849
669.368 .0277782
670.115 .0277718
670.862 .0277657
671.608 .0277600
672.354 .0277529
673.100 .0277445
673.846 .0277341
674.591 .0277214
675.337 .0277078
676.082 .0276936
676.826 .0276795
677.571 .0276658
678.315 .0276531
679.059 .0276418
679.803 .0276313
680.547 .0276214
681.290 .0276107
682.033 .0275985
682.776 .0275847
683.518 .0275690
684.261 .0275514
685.003 .0275332
685.745 .0275146
686.487 .0274967
687.228 .0274792
687.969 .0274621
688.710 .0274456
689.451 .0274285
690.192 .0274109
690.932 .0273916
691.672 .0273702
692.412 .0273477
693.152 .0273248
693.891 .0273028
694.630 .0272822
695.369 .0272637
696.108 .0272475
696.846 .0272329
697.585 .0272197
698.323 .0272074
699.061 .0271957
699.798 .0271845
700.536 .0271743
701.273 .0271638
702.010 .0271542
702.746 .0271455
703.483 .0271385
704.219 .0271320
704.955 .0271259
705.691 .0271192
706.427 .0271113
707.162 .0271023
707.897 .0270920
708.632 .0270803
709.367 .0270688
710.101 .0270568
710.835 .0270449
711.569 .0270331
712.303 .0270221
713.037 .0270111
713.770 .0270009
714.503 .0269906
715.236 .0269798
715.969 .0269682
716.702 .0269565
717.434 .0269446
718.166 .0269324
718.898 .0269193
719.629 .0269052
720.361 .0268900
721.092 .0268741
721.823 .0268569
722.554 .0268396
723.284 .0268220
724.014 .0268040
724.744 .0267855
725.474 .0267657
726.204 .0267448
726.933 .0267228
727.662 .0266990
728.391 .0266740
729.120 .0266476
729.849 .0266211
730.577 .0265943
731.305 .0265692
732.033 .0265455
732.760 .0265230
733.488 .0265019
734.215 .0264817
734.942 .0264614
735.669 .0264410
736.395 .0264198
737.122 .0263974
737.848 .0263741
738.573 .0263506
739.299 .0263267
740.024 .0263035
740.750 .0262813
741.474 .0262600
742.199 .0262391
742.924 .0262193
743.648 .0261989
744.372 .0261789
745.096 .0261597
745.819 .0261409
746.543 .0261225
747.266 .0261057
747.989 .0260902
748.711 .0260768
749.434 .0260654
750.156 .0260562
750.878 .0260486
751.599 .0260434
752.321 .0260396
753.042 .0260371
753.763 .0260361
754.484 .0260358
755.205 .0260350
755.925 .0260344
756.645 .0260326
757.365 .0260293
758.085 .0260244
758.804 .0260179
759.523 .0260092
760.242 .0259988
760.961 .0259863
761.679 .0259720
762.397 .0259568
763.115 .0259401
763.833 .0259219
764.551 .0259028
765.268 .0258827
765.985 .0258613
766.702 .0258390
767.418 .0258162
768.134 .0257932
768.850 .0257703
769.566 .0257471
770.282 .0257243
770.997 .0257020
771.712 .0256799
772.427 .0256586
773.142 .0256375
773.856 .0256172
774.570 .0255971
775.284 .0255776
775.998 .0255586
776.711 .0255408
777.424 .0255240
778.137 .0255080
778.849 .0254929
779.562 .0254788
780.274 .0254647
780.986 .0254514
781.697 .0254385
782.409 .0254261
783.120 .0254142
783.831 .0254032
784.541 .0253926
785.252 .0253833
785.962 .0253749
786.671 .0253679
787.381 .0253610
788.090 .0253544
788.799 .0253468
789.508 .0253383
790.217 .0253285
790.925 .0253175
791.633 .0253051
792.341 .0252920
793.048 .0252785
793.755 .0252650
794.462 .0252514
795.169 .0252388
795.875 .0252266
796.581 .0252150
797.287 .0252030
797.993 .0251912
798.698 .0251786
799.403 .0251664
800.108 .0251542
800.812 .0251428
801.517 .0251322
802.221 .0251227
802.924 .0251142
803.628 .0251075
804.331 .0251024
805.034 .0250986
805.736 .0250955
806.439 .0250935
807.141 .0250914
807.843 .0250891
808.544 .0250865
809.245 .0250839
809.946 .0250807
810.647 .0250770
811.347 .0250720
812.047 .0250668
812.747 .0250614
813.447 .0250554
814.146 .0250487
814.845 .0250419
815.543 .0250344
816.242 .0250264
816.940 .0250180
817.638 .0250097
818.335 .0250012
819.032 .0249924
819.729 .0249839
820.426 .0249757
821.122 .0249678
821.818 .0249599
822.514 .0249520
823.209 .0249445
823.905 .0249364
824.599 .0249272
825.294 .0249177
825.988 .0249074
826.682 .0248965
827.376 .0248846
828.069 .0248723
828.762 .0248592
829.455 .0248453
830.147 .0248304
830.840 .0248143
831.531 .0247977
832.223 .0247812
832.914 .0247644
833.605 .0247485
834.296 .0247335
834.986 .0247193
835.676 .0247059
836.366 .0246940
837.055 .0246827
837.744 .0246725
838.433 .0246632
839.121 .0246550
839.809 .0246479
840.497 .0246426
841.185 .0246391
841.872 .0246372
842.559 .0246368
843.245 .0246371
843.932 .0246369
844.617 .0246361
845.303 .0246341
845.988 .0246313
846.673 .0246275
847.358 .0246234
848.042 .0246186
848.726 .0246142
849.410 .0246105
850.093 .0246066
850.776 .0246028
851.459 .0245986
852.141 .0245928
852.823 .0245851
853.505 .0245766
854.186 .0245675
854.867 .0245581
855.548 .0245494
856.228 .0245415
856.908 .0245346
857.588 .0245288
858.267 .0245232
858.946 .0245173
859.625 .0245114
860.303 .0245041
860.981 .0244952
861.659 .0244861
862.336 .0244763
863.013 .0244664
863.690 .0244565
864.366 .0244471
865.042 .0244376
865.718 .0244278
866.393 .0244175
867.068 .0244064
867.743 .0243950
868.417 .0243828
869.091 .0243702
869.765 .0243583
870.438 .0243475
871.111 .0243375
871.783 .0243284
872.456 .0243196
873.127 .0243109
873.799 .0243020
874.470 .0242927
875.141 .0242834
875.811 .0242746
876.481 .0242661
877.151 .0242585
877.820 .0242513
878.489 .0242447
879.158 .0242381
879.826 .0242315
880.494 .0242242
881.162 .0242159
881.829 .0242069
882.496 .0241974
883.163 .0241876
883.829 .0241781
884.495 .0241680
885.160 .0241583
885.825 .0241485
886.490 .0241389
887.154 .0241290
887.818 .0241191
888.482 .0241091
889.145 .0240989
889.808 .0240892
890.471 .0240793
891.133 .0240693
891.795 .0240593
892.456 .0240489
893.117 .0240376
893.778 .0240259
894.439 .0240143
895.099 .0240024
895.758 .0239908
896.417 .0239795
897.076 .0239681
897.735 .0239569
898.393 .0239458
899.051 .0239350
899.708 .0239239
900.365 .0239133
901.022 .0239025
901.678 .0238930
902.334 .0238846
902.990 .0238778
903.645 .0238719
904.300 .0238675
904.954 .0238635
905.608 .0238592
906.262 .0238548
906.915 .0238508
907.568 .0238463
908.221 .0238417
908.873 .0238369
909.525 .0238319
910.176 .0238260
910.828 .0238201
911.478 .0238135
912.129 .0238062
912.778 .0237976
913.428 .0237877
914.077 .0237763
914.726 .0237645
915.375 .0237522
916.023 .0237391
916.670 .0237259
917.318 .0237125
917.964 .0236986
918.611 .0236838
919.257 .0236687
919.903 .0236523
920.548 .0236348
921.193 .0236170
921.838 .0235985
922.482 .0235802
923.126 .0235629
923.770 .0235468
924.413 .0235317
925.056 .0235177
925.698 .0235042
926.340 .0234906
926.982 .0234780
927.623 .0234655
928.264 .0234529
928.904 .0234406
929.544 .0234289
930.184 .0234172
930.823 .0234060
931.462 .0233950
932.101 .0233836
932.739 .0233725
933.377 .0233607
934.014 .0233478
934.651 .0233345
935.288 .0233207
935.924 .0233069
936.560 .0232926
937.196 .0232782
937.831 .0232625
938.466 .0232461
939.100 .0232295
939.734 .0232121
940.368 .0231946
941.001 .0231782
941.634 .0231628
942.266 .0231487
942.899 .0231358
943.530 .0231231
944.162 .0231104
944.793 .0230967
945.423 .0230805
946.053 .0230618
946.683 .0230407
947.313 .0230183
947.942 .0229946
948.571 .0229711
949.199 .0229481
949.827 .0229252
950.455 .0229025
951.082 .0228795
951.709 .0228553
952.335 .0228301
952.961 .0228037
953.587 .0227767
954.212 .0227497
954.837 .0227237
955.462 .0226993
956.086 .0226776
956.710 .0226587
957.334 .0226419
957.957 .0226265
958.579 .0226124
959.202 .0225992
959.824 .0225863
960.445 .0225733
961.067 .0225608
961.688 .0225488
962.308 .0225381
962.928 .0225276
963.548 .0225180
964.168 .0225087
964.787 .0224992
965.406 .0224890
966.024 .0224784
966.642 .0224674
967.260 .0224565
967.877 .0224459
968.494 .0224363
969.110 .0224266
969.727 .0224173
970.342 .0224082
970.958 .0223997
971.573 .0223908
972.188 .0223814
972.802 .0223717
973.416 .0223631
974.030 .0223548
974.643 .0223474
975.256 .0223415
975.869 .0223371
976.481 .0223331
977.093 .0223298
977.705 .0223256
978.316 .0223211
978.927 .0223157
979.538 .0223087
980.148 .0223003
980.758 .0222911
981.367 .0222814
981.977 .0222721
982.586 .0222640
983.194 .0222573
983.802 .0222513
984.410 .0222468
985.018 .0222434
985.625 .0222397
986.232 .0222361
986.838 .0222325
987.445 .0222286
988.050 .0222250
988.656 .0222221
989.261 .0222202
989.866 .0222199
990.471 .0222214
991.075 .0222250
991.679 .0222297
992.282 .0222355
992.886 .0222418
993.489 .0222475
994.091 .0222524
994.694 .0222563
995.296 .0222589
995.897 .0222611
996.499 .0222627
997.100 .0222644
997.701 .0222663
998.301 .0222692
998.901 .0222728
999.501 .0222767
1000.101 .0222815
1000.700 .0222868
1001.299 .0222910
1001.898 .0222954
1002.496 .0222998
1003.094 .0223039
1003.692 .0223080
1004.289 .0223126
1004.887 .0223173
1005.484 .0223222
1006.080 .0223267
1006.677 .0223303
1007.273 .0223323
1007.868 .0223333
1008.464 .0223315
1009.059 .0223279
1009.654 .0223233
1010.249 .0223183
1010.843 .0223129
1011.437 .0223090
1012.031 .0223051
1012.625 .0223026
1013.218 .0223011
1013.811 .0223003
1014.404 .0223002
1014.997 .0223011
1015.589 .0223020
1016.181 .0223040
1016.773 .0223069
1017.365 .0223114
1017.956 .0223166
1018.547 .0223245
1019.138 .0223326
1019.728 .0223425
1020.319 .0223527
1020.909 .0223628
1021.499 .0223721
1022.088 .0223816
1022.678 .0223892
1023.267 .0223953
1023.856 .0224007
1024.445 .0224052
1025.033 .0224084
1025.621 .0224118
1026.209 .0224146
1026.797 .0224178
1027.385 .0224202
1027.972 .0224227
1028.560 .0224234
1029.147 .0224253
1029.734 .0224269
1030.320 .0224284
1030.907 .0224306
1031.493 .0224341
1032.079 .0224394
1032.665 .0224463
1033.250 .0224550
1033.836 .0224653
1034.421 .0224759
1035.006 .0224870
1035.591 .0224974
1036.176 .0225077
1036.761 .0225179
1037.345 .0225287
1037.929 .0225396
1038.514 .0225518
1039.097 .0225641
1039.681 .0225770
1040.265 .0225912
1040.848 .0226058
1041.432 .0226197
1042.015 .0226309
1042.598 .0226410
1043.181 .0226489
1043.764 .0226547
1044.346 .0226588
1044.929 .0226611
1045.511 .0226638
1046.094 .0226653
1046.676 .0226661
1047.258 .0226672
1047.840 .0226687
1048.422 .0226708
1049.003 .0226719
1049.585 .0226724
1050.166 .0226717
1050.748 .0226702
1051.329 .0226682
1051.910 .0226667
1052.491 .0226649
1053.072 .0226625
1053.653 .0226603
1054.234 .0226590
1054.815 .0226584
1055.396 .0226575
1055.976 .0226571
1056.557 .0226574
1057.138 .0226566
1057.718 .0226554
1058.298 .0226524
1058.879 .0226497
1059.459 .0226447
1060.039 .0226378
1060.620 .0226284
1061.200 .0226172
1061.780 .0226053
1062.360 .0225912
1062.940 .0225773
1063.520 .0225648
1064.101 .0225528
1064.681 .0225433
1065.261 .0225353
1065.841 .0225299
1066.421 .0225249
1067.001 .0225205
1067.581 .0225162
1068.161 .0225112
1068.741 .0225053
1069.321 .0224977
1069.901 .0224902
1070.482 .0224851
1071.062 .0224816
1071.642 .0224791
1072.222 .0224817
1072.803 .0224875
1073.383 .0224950
1073.963 .0225042
1074.544 .0225134
1075.124 .0225219
1075.705 .0225284
1076.286 .0225325
1076.866 .0225344
1077.447 .0225348
1078.028 .0225379
1078.609 .0225408
1079.190 .0225492
1079.771 .0225612
1080.352 .0225754
1080.934 .0225926
1081.515 .0226118
1082.097 .0226292
1082.679 .0226455
1083.260 .0226573
1083.842 .0226666
1084.424 .0226724
1085.007 .0226782
1085.589 .0226837
1086.172 .0226891
1086.754 .0226942
1087.337 .0226983
1087.920 .0226987
1088.503 .0226982
1089.087 .0226922
1089.670 .0226845
1090.254 .0226742
1090.838 .0226597
1091.422 .0226438
1092.006 .0226279
1092.590 .0226133
1093.175 .0226003
1093.760 .0225868
1094.345 .0225734
1094.930 .0225569
1095.516 .0225394
1096.102 .0225207
1096.688 .0225024
1097.274 .0224873
1097.860 .0224731
1098.447 .0224627
1099.034 .0224573
1099.622 .0224545
1100.209 .0224553
1100.797 .0224593
1101.385 .0224635
1101.973 .0224675
1102.562 .0224679
1103.151 .0224659
1103.740 .0224630
1104.330 .0224610
1104.920 .0224604
1105.510 .0224598
1106.101 .0224607
1106.691 .0224636
1107.283 .0224653
1107.874 .0224664
1108.466 .0224635
1109.058 .0224581
1109.651 .0224486
1110.244 .0224323
1110.837 .0224151
1111.431 .0223977
1112.025 .0223829
1112.620 .0223752
1113.215 .0223712
1113.810 .0223745
1114.406 .0223822
1115.002 .0223926
1115.599 .0224030
1116.196 .0224137
1116.793 .0224237
1117.391 .0224298
1117.989 .0224388
1118.588 .0224517
1119.187 .0224649
1119.787 .0224815
1120.387 .0224991
1120.988 .0225160
1121.589 .0225276
1122.190 .0225316
1122.793 .0225277
1123.395 .0225217
1123.998 .0225142
1124.602 .0225082
1125.206 .0225095
1125.811 .0225237
1126.416 .0225451
1127.022 .0225721
1127.628 .0226035
1128.235 .0226333
1128.843 .0226607
1129.451 .0226848
1130.059 .0227052
1130.669 .0227262
1131.278 .0227449
1131.889 .0227671
1132.500 .0227938
1133.112 .0228233
1133.724 .0228537
1134.337 .0228833
1134.950 .0229098
1135.564 .0229292
1136.179 .0229396
1136.795 .0229469
1137.411 .0229523
1138.028 .0229608
1138.645 .0229700
1139.263 .0229840
1139.882 .0230143
1140.502 .0230485
1141.122 .0230900
1141.743 .0231381
1142.365 .0231985
1142.987 .0233514
1143.611 .0232579
1144.235 .0233354
1144.859 .0233730
1145.485 .0237011
