Measurement Sequence started on: 10-20-44-796
Integration time: 35
Scans to Average: 2 
>>>>>Begin Spectral Data<<<<<
432.953 .0331326
433.882 .0432556
434.810 .0348780
435.737 .0327373
436.662 .0320093
437.586 .0335220
438.509 .0332105
439.431 .0327939
440.351 .0327135
441.269 .0327318
442.187 .0327849
443.103 .0328344
444.018 .0329256
444.932 .0330297
445.844 .0331539
446.756 .0332597
447.666 .0333329
448.575 .0333649
449.482 .0333488
450.388 .0333093
451.294 .0332300
452.198 .0331419
453.100 .0330638
454.002 .0329972
454.902 .0329554
455.801 .0329350
456.699 .0329266
457.596 .0329332
458.492 .0329429
459.387 .0329476
460.280 .0329480
461.172 .0329421
462.064 .0329341
462.954 .0329232
463.843 .0329079
464.730 .0328955
465.617 .0328895
466.503 .0328945
467.387 .0329052
468.271 .0329119
469.153 .0329142
470.035 .0329100
470.915 .0328970
471.794 .0328717
472.673 .0328322
473.550 .0327867
474.426 .0327379
475.301 .0326894
476.175 .0326463
477.048 .0326098
477.920 .0325817
478.791 .0325632
479.661 .0325412
480.530 .0325168
481.398 .0324897
482.266 .0324603
483.132 .0324290
483.997 .0323981
484.861 .0323660
485.724 .0323350
486.587 .0323081
487.448 .0322818
488.308 .0322516
489.168 .0322202
490.026 .0321864
490.884 .0321478
491.741 .0321057
492.597 .0320662
493.452 .0320267
494.306 .0319945
495.159 .0319672
496.011 .0319399
496.862 .0319149
497.713 .0318899
498.562 .0318596
499.411 .0318246
500.259 .0317858
501.106 .0317399
501.952 .0316893
502.798 .0316389
503.642 .0315848
504.486 .0315262
505.329 .0314628
506.171 .0313927
507.012 .0313126
507.852 .0312255
508.692 .0311283
509.531 .0310215
510.369 .0309139
511.206 .0308023
512.043 .0306895
512.878 .0305780
513.713 .0304656
514.547 .0303543
515.381 .0302387
516.213 .0301106
517.045 .0299689
517.876 .0298175
518.706 .0296524
519.536 .0294759
520.365 .0292946
521.193 .0291098
522.020 .0289246
522.847 .0287439
523.673 .0285589
524.498 .0283673
525.323 .0281736
526.146 .0279711
526.969 .0277648
527.792 .0275676
528.614 .0273767
529.435 .0272001
530.255 .0270584
531.075 .0269377
531.894 .0268358
532.712 .0267503
533.530 .0266729
534.347 .0265971
535.163 .0265153
535.979 .0264364
536.794 .0263648
537.608 .0263135
538.422 .0262859
539.235 .0262722
540.048 .0262804
540.860 .0262953
541.671 .0263141
542.481 .0263280
543.292 .0263360
544.101 .0263459
544.910 .0263577
545.718 .0263767
546.526 .0264136
547.333 .0264713
548.139 .0265432
548.945 .0266296
549.750 .0267143
550.555 .0267912
551.359 .0268655
552.162 .0269321
552.965 .0269924
553.768 .0270521
554.569 .0271125
555.371 .0271598
556.171 .0272008
556.972 .0272352
557.771 .0272544
558.570 .0272633
559.369 .0272593
560.167 .0272422
560.964 .0272179
561.761 .0271900
562.558 .0271609
563.354 .0271401
564.149 .0271290
564.944 .0271207
565.738 .0271262
566.532 .0271471
567.325 .0271852
568.118 .0272385
568.910 .0273074
569.702 .0273889
570.494 .0274829
571.285 .0275819
572.075 .0276879
572.865 .0277988
573.654 .0279131
574.443 .0280314
575.232 .0281523
576.020 .0282758
576.807 .0283980
577.594 .0285159
578.381 .0286300
579.167 .0287312
579.952 .0288216
580.738 .0288978
581.522 .0289634
582.307 .0290185
583.091 .0290628
583.874 .0290987
584.657 .0291283
585.440 .0291520
586.222 .0291725
587.004 .0291908
587.785 .0292093
588.566 .0292290
589.346 .0292499
590.126 .0292715
590.906 .0292924
591.685 .0293099
592.464 .0293249
593.242 .0293351
594.020 .0293416
594.797 .0293449
595.575 .0293473
596.351 .0293504
597.128 .0293545
597.904 .0293603
598.679 .0293682
599.454 .0293761
600.229 .0293827
601.004 .0293877
601.778 .0293901
602.551 .0293897
603.325 .0293858
604.097 .0293808
604.870 .0293756
605.642 .0293697
606.414 .0293637
607.185 .0293564
607.956 .0293480
608.727 .0293380
609.497 .0293255
610.267 .0293102
611.037 .0292920
611.806 .0292707
612.575 .0292458
613.344 .0292189
614.112 .0291906
614.880 .0291607
615.647 .0291306
616.414 .0291011
617.181 .0290727
617.948 .0290451
618.714 .0290202
619.480 .0289974
620.245 .0289772
621.011 .0289586
621.775 .0289406
622.540 .0289244
623.304 .0289106
624.068 .0288991
624.832 .0288900
625.595 .0288840
626.358 .0288809
627.120 .0288793
627.883 .0288796
628.645 .0288808
629.406 .0288835
630.168 .0288863
630.929 .0288887
631.689 .0288899
632.450 .0288901
633.210 .0288891
633.970 .0288865
634.729 .0288821
635.489 .0288751
636.248 .0288648
637.006 .0288520
637.765 .0288368
638.523 .0288197
639.280 .0288011
640.038 .0287818
640.795 .0287610
641.552 .0287387
642.309 .0287149
643.065 .0286900
643.821 .0286648
644.577 .0286389
645.332 .0286123
646.088 .0285855
646.843 .0285588
647.597 .0285333
648.352 .0285086
649.106 .0284858
649.860 .0284638
650.613 .0284425
651.367 .0284212
652.120 .0284002
652.872 .0283786
653.625 .0283570
654.377 .0283349
655.129 .0283120
655.881 .0282878
656.632 .0282632
657.384 .0282389
658.135 .0282158
658.885 .0281942
659.636 .0281757
660.386 .0281591
661.136 .0281450
661.885 .0281322
662.635 .0281213
663.384 .0281110
664.133 .0281011
664.881 .0280911
665.630 .0280807
666.378 .0280709
667.126 .0280619
667.874 .0280533
668.621 .0280458
669.368 .0280388
670.115 .0280308
670.862 .0280214
671.608 .0280109
672.354 .0279977
673.100 .0279826
673.846 .0279661
674.591 .0279482
675.337 .0279290
676.082 .0279094
676.826 .0278898
677.571 .0278696
678.315 .0278498
679.059 .0278293
679.803 .0278091
680.547 .0277896
681.290 .0277704
682.033 .0277518
682.776 .0277348
683.518 .0277190
684.261 .0277037
685.003 .0276892
685.745 .0276749
686.487 .0276602
687.228 .0276453
687.969 .0276300
688.710 .0276149
689.451 .0276002
690.192 .0275867
690.932 .0275738
691.672 .0275622
692.412 .0275512
693.152 .0275404
693.891 .0275295
694.630 .0275178
695.369 .0275046
696.108 .0274898
696.846 .0274739
697.585 .0274573
698.323 .0274400
699.061 .0274232
699.798 .0274064
700.536 .0273907
701.273 .0273753
702.010 .0273606
702.746 .0273457
703.483 .0273313
704.219 .0273165
704.955 .0273010
705.691 .0272845
706.427 .0272675
707.162 .0272505
707.897 .0272334
708.632 .0272166
709.367 .0272007
710.101 .0271854
710.835 .0271720
711.569 .0271603
712.303 .0271502
713.037 .0271410
713.770 .0271334
714.503 .0271255
715.236 .0271169
715.969 .0271078
716.702 .0270975
717.434 .0270866
718.166 .0270750
718.898 .0270623
719.629 .0270489
720.361 .0270364
721.092 .0270246
721.823 .0270128
722.554 .0270018
723.284 .0269911
724.014 .0269795
724.744 .0269673
725.474 .0269539
726.204 .0269393
726.933 .0269242
727.662 .0269084
728.391 .0268910
729.120 .0268734
729.849 .0268559
730.577 .0268391
731.305 .0268223
732.033 .0268065
732.760 .0267898
733.488 .0267729
734.215 .0267558
734.942 .0267377
735.669 .0267190
736.395 .0267002
737.122 .0266810
737.848 .0266621
738.573 .0266434
739.299 .0266254
740.024 .0266081
740.750 .0265919
741.474 .0265757
742.199 .0265593
742.924 .0265437
743.648 .0265289
744.372 .0265145
745.096 .0265022
745.819 .0264914
746.543 .0264819
747.266 .0264738
747.989 .0264666
748.711 .0264597
749.434 .0264531
750.156 .0264461
750.878 .0264383
751.599 .0264310
752.321 .0264247
753.042 .0264193
753.763 .0264162
754.484 .0264149
755.205 .0264148
755.925 .0264160
756.645 .0264182
757.365 .0264194
758.085 .0264196
758.804 .0264185
759.523 .0264149
760.242 .0264083
760.961 .0263993
761.679 .0263882
762.397 .0263753
763.115 .0263609
763.833 .0263446
764.551 .0263274
765.268 .0263093
765.985 .0262899
766.702 .0262695
767.418 .0262480
768.134 .0262259
768.850 .0262026
769.566 .0261792
770.282 .0261559
770.997 .0261332
771.712 .0261116
772.427 .0260910
773.142 .0260719
773.856 .0260536
774.570 .0260361
775.284 .0260194
775.998 .0260029
776.711 .0259862
777.424 .0259696
778.137 .0259527
778.849 .0259349
779.562 .0259164
780.274 .0258971
780.986 .0258770
781.697 .0258567
782.409 .0258362
783.120 .0258156
783.831 .0257957
784.541 .0257769
785.252 .0257590
785.962 .0257426
786.671 .0257273
787.381 .0257131
788.090 .0256999
788.799 .0256873
789.508 .0256746
790.217 .0256621
790.925 .0256503
791.633 .0256388
792.341 .0256272
793.048 .0256156
793.755 .0256039
794.462 .0255915
795.169 .0255786
795.875 .0255652
796.581 .0255519
797.287 .0255380
797.993 .0255247
798.698 .0255115
799.403 .0254992
800.108 .0254881
800.812 .0254779
801.517 .0254683
802.221 .0254598
802.924 .0254510
803.628 .0254420
804.331 .0254329
805.034 .0254242
805.736 .0254145
806.439 .0254047
807.141 .0253945
807.843 .0253837
808.544 .0253724
809.245 .0253608
809.946 .0253477
810.647 .0253344
811.347 .0253205
812.047 .0253052
812.747 .0252893
813.447 .0252731
814.146 .0252567
814.845 .0252411
815.543 .0252265
816.242 .0252128
816.940 .0251996
817.638 .0251878
818.335 .0251764
819.032 .0251652
819.729 .0251548
820.426 .0251438
821.122 .0251325
821.818 .0251207
822.514 .0251086
823.209 .0250957
823.905 .0250829
824.599 .0250695
825.294 .0250558
825.988 .0250414
826.682 .0250264
827.376 .0250110
828.069 .0249953
828.762 .0249795
829.455 .0249633
830.147 .0249472
830.840 .0249316
831.531 .0249160
832.223 .0249015
832.914 .0248875
833.605 .0248739
834.296 .0248604
834.986 .0248470
835.676 .0248338
836.366 .0248206
837.055 .0248073
837.744 .0247937
838.433 .0247800
839.121 .0247663
839.809 .0247527
840.497 .0247398
841.185 .0247283
841.872 .0247183
842.559 .0247100
843.245 .0247038
843.932 .0246993
844.617 .0246966
845.303 .0246952
845.988 .0246947
846.673 .0246941
847.358 .0246934
848.042 .0246929
848.726 .0246925
849.410 .0246923
850.093 .0246926
850.776 .0246926
851.459 .0246924
852.141 .0246908
852.823 .0246873
853.505 .0246818
854.186 .0246742
854.867 .0246637
855.548 .0246511
856.228 .0246371
856.908 .0246225
857.588 .0246082
858.267 .0245950
858.946 .0245831
859.625 .0245725
860.303 .0245627
860.981 .0245537
861.659 .0245446
862.336 .0245358
863.013 .0245266
863.690 .0245176
864.366 .0245086
865.042 .0244999
865.718 .0244922
866.393 .0244856
867.068 .0244801
867.743 .0244753
868.417 .0244707
869.091 .0244661
869.765 .0244609
870.438 .0244544
871.111 .0244465
871.783 .0244381
872.456 .0244292
873.127 .0244212
873.799 .0244145
874.470 .0244094
875.141 .0244058
875.811 .0244039
876.481 .0244028
877.151 .0244020
877.820 .0244014
878.489 .0244003
879.158 .0243988
879.826 .0243975
880.494 .0243955
881.162 .0243941
881.829 .0243935
882.496 .0243935
883.163 .0243932
883.829 .0243930
884.495 .0243913
885.160 .0243888
885.825 .0243855
886.490 .0243814
887.154 .0243769
887.818 .0243723
888.482 .0243677
889.145 .0243637
889.808 .0243609
890.471 .0243592
891.133 .0243586
891.795 .0243599
892.456 .0243619
893.117 .0243645
893.778 .0243678
894.439 .0243715
895.099 .0243752
895.758 .0243786
896.417 .0243813
897.076 .0243833
897.735 .0243849
898.393 .0243855
899.051 .0243856
899.708 .0243848
900.365 .0243829
901.022 .0243803
901.678 .0243767
902.334 .0243723
902.990 .0243668
903.645 .0243608
904.300 .0243549
904.954 .0243492
905.608 .0243438
906.262 .0243385
906.915 .0243339
907.568 .0243297
908.221 .0243256
908.873 .0243217
909.525 .0243183
910.176 .0243156
910.828 .0243126
911.478 .0243093
912.129 .0243053
912.778 .0243003
913.428 .0242941
914.077 .0242864
914.726 .0242768
915.375 .0242656
916.023 .0242528
916.670 .0242394
917.318 .0242256
917.964 .0242122
918.611 .0241992
919.257 .0241866
919.903 .0241742
920.548 .0241622
921.193 .0241498
921.838 .0241384
922.482 .0241276
923.126 .0241172
923.770 .0241073
924.413 .0240984
925.056 .0240902
925.698 .0240828
926.340 .0240758
926.982 .0240697
927.623 .0240636
928.264 .0240579
928.904 .0240516
929.544 .0240454
930.184 .0240389
930.823 .0240315
931.462 .0240238
932.101 .0240162
932.739 .0240081
933.377 .0240001
934.014 .0239920
934.651 .0239843
935.288 .0239759
935.924 .0239671
936.560 .0239574
937.196 .0239469
937.831 .0239350
938.466 .0239215
939.100 .0239066
939.734 .0238903
940.368 .0238729
941.001 .0238545
941.634 .0238357
942.266 .0238169
942.899 .0237976
943.530 .0237782
944.162 .0237584
944.793 .0237385
945.423 .0237173
946.053 .0236957
946.683 .0236737
947.313 .0236518
947.942 .0236297
948.571 .0236085
949.199 .0235882
949.827 .0235691
950.455 .0235510
951.082 .0235336
951.709 .0235156
952.335 .0234978
952.961 .0234791
953.587 .0234589
954.212 .0234379
954.837 .0234165
955.462 .0233940
956.086 .0233718
956.710 .0233498
957.334 .0233283
957.957 .0233071
958.579 .0232867
959.202 .0232657
959.824 .0232440
960.445 .0232221
961.067 .0231993
961.688 .0231759
962.308 .0231530
962.928 .0231303
963.548 .0231076
964.168 .0230855
964.787 .0230636
965.406 .0230419
966.024 .0230212
966.642 .0230012
967.260 .0229817
967.877 .0229635
968.494 .0229463
969.110 .0229300
969.727 .0229143
970.342 .0229002
970.958 .0228867
971.573 .0228750
972.188 .0228648
972.802 .0228564
973.416 .0228496
974.030 .0228448
974.643 .0228408
975.256 .0228372
975.869 .0228328
976.481 .0228271
977.093 .0228198
977.705 .0228115
978.316 .0228014
978.927 .0227904
979.538 .0227786
980.148 .0227662
980.758 .0227528
981.367 .0227391
981.977 .0227249
982.586 .0227097
983.194 .0226942
983.802 .0226783
984.410 .0226619
985.018 .0226463
985.625 .0226317
986.232 .0226190
986.838 .0226086
987.445 .0225998
988.050 .0225925
988.656 .0225866
989.261 .0225820
989.866 .0225776
990.471 .0225738
991.075 .0225700
991.679 .0225651
992.282 .0225592
992.886 .0225528
993.489 .0225456
994.091 .0225388
994.694 .0225318
995.296 .0225248
995.897 .0225179
996.499 .0225105
997.100 .0225023
997.701 .0224945
998.301 .0224869
998.901 .0224794
999.501 .0224719
1000.101 .0224657
1000.700 .0224602
1001.299 .0224561
1001.898 .0224538
1002.496 .0224525
1003.094 .0224521
1003.692 .0224518
1004.289 .0224510
1004.887 .0224504
1005.484 .0224498
1006.080 .0224487
1006.677 .0224471
1007.273 .0224450
1007.868 .0224427
1008.464 .0224398
1009.059 .0224372
1009.654 .0224348
1010.249 .0224324
1010.843 .0224303
1011.437 .0224284
1012.031 .0224253
1012.625 .0224214
1013.218 .0224166
1013.811 .0224105
1014.404 .0224035
1014.997 .0223960
1015.589 .0223889
1016.181 .0223829
1016.773 .0223780
1017.365 .0223746
1017.956 .0223714
1018.547 .0223691
1019.138 .0223661
1019.728 .0223619
1020.319 .0223565
1020.909 .0223500
1021.499 .0223431
1022.088 .0223377
1022.678 .0223339
1023.267 .0223333
1023.856 .0223356
1024.445 .0223401
1025.033 .0223460
1025.621 .0223521
1026.209 .0223577
1026.797 .0223632
1027.385 .0223684
1027.972 .0223739
1028.560 .0223784
1029.147 .0223843
1029.734 .0223905
1030.320 .0223967
1030.907 .0224027
1031.493 .0224083
1032.079 .0224120
1032.665 .0224145
1033.250 .0224151
1033.836 .0224157
1034.421 .0224161
1035.006 .0224164
1035.591 .0224161
1036.176 .0224143
1036.761 .0224108
1037.345 .0224050
1037.929 .0223961
1038.514 .0223866
1039.097 .0223754
1039.681 .0223646
1040.265 .0223550
1040.848 .0223491
1041.432 .0223465
1042.015 .0223467
1042.598 .0223497
1043.181 .0223543
1043.764 .0223588
1044.346 .0223636
1044.929 .0223686
1045.511 .0223740
1046.094 .0223813
1046.676 .0223897
1047.258 .0223987
1047.840 .0224095
1048.422 .0224202
1049.003 .0224308
1049.585 .0224411
1050.166 .0224510
1050.748 .0224594
1051.329 .0224669
1051.910 .0224743
1052.491 .0224803
1053.072 .0224855
1053.653 .0224896
1054.234 .0224907
1054.815 .0224900
1055.396 .0224887
1055.976 .0224868
1056.557 .0224855
1057.138 .0224855
1057.718 .0224867
1058.298 .0224887
1058.879 .0224897
1059.459 .0224899
1060.039 .0224876
1060.620 .0224824
1061.200 .0224744
1061.780 .0224637
1062.360 .0224525
1062.940 .0224438
1063.520 .0224383
1064.101 .0224368
1064.681 .0224392
1065.261 .0224448
1065.841 .0224510
1066.421 .0224584
1067.001 .0224653
1067.581 .0224711
1068.161 .0224750
1068.741 .0224793
1069.321 .0224830
1069.901 .0224867
1070.482 .0224924
1071.062 .0224977
1071.642 .0225034
1072.222 .0225084
1072.803 .0225115
1073.383 .0225131
1073.963 .0225136
1074.544 .0225151
1075.124 .0225166
1075.705 .0225183
1076.286 .0225220
1076.866 .0225254
1077.447 .0225297
1078.028 .0225340
1078.609 .0225395
1079.190 .0225450
1079.771 .0225519
1080.352 .0225574
1080.934 .0225638
1081.515 .0225710
1082.097 .0225803
1082.679 .0225875
1083.260 .0225957
1083.842 .0226042
1084.424 .0226105
1085.007 .0226133
1085.589 .0226155
1086.172 .0226145
1086.754 .0226135
1087.337 .0226114
1087.920 .0226112
1088.503 .0226132
1089.087 .0226193
1089.670 .0226289
1090.254 .0226430
1090.838 .0226600
1091.422 .0226800
1092.006 .0226986
1092.590 .0227180
1093.175 .0227354
1093.760 .0227508
1094.345 .0227620
1094.930 .0227698
1095.516 .0227751
1096.102 .0227779
1096.688 .0227791
1097.274 .0227808
1097.860 .0227813
1098.447 .0227836
1099.034 .0227858
1099.622 .0227885
1100.209 .0227879
1100.797 .0227867
1101.385 .0227813
1101.973 .0227739
1102.562 .0227621
1103.151 .0227468
1103.740 .0227301
1104.330 .0227177
1104.920 .0227076
1105.510 .0227016
1106.101 .0226975
1106.691 .0226985
1107.283 .0227009
1107.874 .0227049
1108.466 .0227044
1109.058 .0227039
1109.651 .0227030
1110.244 .0227058
1110.837 .0227091
1111.431 .0227177
1112.025 .0227286
1112.620 .0227446
1113.215 .0227599
1113.810 .0227716
1114.406 .0227752
1115.002 .0227762
1115.599 .0227704
1116.196 .0227590
1116.793 .0227425
1117.391 .0227256
1117.989 .0227102
1118.588 .0226971
1119.187 .0226822
1119.787 .0226636
1120.387 .0226426
1120.988 .0226230
1121.589 .0226006
1122.190 .0225790
1122.793 .0225611
1123.395 .0225520
1123.998 .0225546
1124.602 .0225695
1125.206 .0225977
1125.811 .0226383
1126.416 .0226925
1127.022 .0227499
1127.628 .0228107
1128.235 .0228718
1128.843 .0229332
1129.451 .0229930
1130.059 .0230511
1130.669 .0231069
1131.278 .0231557
1131.889 .0231976
1132.500 .0232367
1133.112 .0232686
1133.724 .0232939
1134.337 .0233096
1134.950 .0233231
1135.564 .0233259
1136.179 .0233226
1136.795 .0233158
1137.411 .0233109
1138.028 .0233062
1138.645 .0233014
1139.263 .0232935
1139.882 .0232895
1140.502 .0232876
1141.122 .0232900
1141.743 .0232847
1142.365 .0233217
1142.987 .0232882
1143.611 .0232479
1144.235 .0233963
1144.859 .0231750
1145.485 .0242975
