Measurement Sequence started on: 10-20-44-796
Integration time: 35
Scans to Average: 2 
>>>>>Begin Spectral Data<<<<<
432.953 .0506007
433.882 .0402793
434.810 .0357891
435.737 .0339642
436.662 .0342064
437.586 .0343782
438.509 .0332073
439.431 .0325482
440.351 .0321289
441.269 .0318492
442.187 .0316640
443.103 .0315655
444.018 .0315775
444.932 .0316621
445.844 .0317381
446.756 .0317920
447.666 .0318472
448.575 .0318838
449.482 .0319137
450.388 .0319533
451.294 .0320051
452.198 .0320584
453.100 .0321085
454.002 .0321499
454.902 .0321726
455.801 .0321639
456.699 .0321321
457.596 .0320783
458.492 .0320188
459.387 .0319529
460.280 .0318878
461.172 .0318264
462.064 .0317679
462.954 .0317055
463.843 .0316453
464.730 .0315949
465.617 .0315486
466.503 .0315075
467.387 .0314747
468.271 .0314536
469.153 .0314339
470.035 .0314173
470.915 .0314012
471.794 .0313809
472.673 .0313585
473.550 .0313310
474.426 .0313096
475.301 .0312974
476.175 .0312967
477.048 .0313013
477.920 .0313110
478.791 .0313215
479.661 .0313241
480.530 .0313227
481.398 .0313141
482.266 .0312995
483.132 .0312804
483.997 .0312633
484.861 .0312475
485.724 .0312352
486.587 .0312270
487.448 .0312147
488.308 .0312020
489.168 .0311813
490.026 .0311525
490.884 .0311184
491.741 .0310799
492.597 .0310368
493.452 .0309951
494.306 .0309558
495.159 .0309126
496.011 .0308709
496.862 .0308269
497.713 .0307744
498.562 .0307165
499.411 .0306532
500.259 .0305846
501.106 .0305149
501.952 .0304502
502.798 .0303800
503.642 .0303111
504.486 .0302442
505.329 .0301729
506.171 .0301054
507.012 .0300425
507.852 .0299763
508.692 .0299136
509.531 .0298566
510.369 .0297961
511.206 .0297354
512.043 .0296810
512.878 .0296195
513.713 .0295462
514.547 .0294675
515.381 .0293833
516.213 .0292933
517.045 .0292067
517.876 .0291156
518.706 .0290191
519.536 .0289221
520.365 .0288154
521.193 .0286935
522.020 .0285667
522.847 .0284306
523.673 .0282804
524.498 .0281214
525.323 .0279508
526.146 .0277717
526.969 .0275910
527.792 .0274134
528.614 .0272288
529.435 .0270412
530.255 .0268619
531.075 .0266857
531.894 .0265190
532.712 .0263590
533.530 .0262011
534.347 .0260501
535.163 .0259006
535.979 .0257599
536.794 .0256244
537.608 .0255046
538.422 .0254111
539.235 .0253419
540.048 .0253030
540.860 .0252973
541.671 .0253223
542.481 .0253736
543.292 .0254386
544.101 .0255041
544.910 .0255657
545.718 .0256261
546.526 .0256846
547.333 .0257402
548.139 .0257963
548.945 .0258643
549.750 .0259375
550.555 .0260211
551.359 .0261106
552.162 .0262011
552.965 .0262924
553.768 .0263739
554.569 .0264470
555.371 .0265072
556.171 .0265568
556.972 .0266039
557.771 .0266420
558.570 .0266754
559.369 .0267053
560.167 .0267335
560.964 .0267614
561.761 .0267945
562.558 .0268332
563.354 .0268818
564.149 .0269413
564.944 .0270110
565.738 .0270902
566.532 .0271796
567.325 .0272783
568.118 .0273791
568.910 .0274843
569.702 .0275934
570.494 .0276996
571.285 .0278096
572.075 .0279204
572.865 .0280316
573.654 .0281385
574.443 .0282402
575.232 .0283336
576.020 .0284189
576.807 .0284957
577.594 .0285634
578.381 .0286238
579.167 .0286797
579.952 .0287304
580.738 .0287766
581.522 .0288200
582.307 .0288632
583.091 .0289032
583.874 .0289422
584.657 .0289768
585.440 .0290097
586.222 .0290406
587.004 .0290700
587.785 .0290984
588.566 .0291276
589.346 .0291580
590.126 .0291883
590.906 .0292184
591.685 .0292492
592.464 .0292787
593.242 .0293075
594.020 .0293330
594.797 .0293558
595.575 .0293746
596.351 .0293902
597.128 .0294016
597.904 .0294098
598.679 .0294149
599.454 .0294160
600.229 .0294140
601.004 .0294087
601.778 .0293997
602.551 .0293869
603.325 .0293708
604.097 .0293526
604.870 .0293312
605.642 .0293080
606.414 .0292835
607.185 .0292578
607.956 .0292324
608.727 .0292066
609.497 .0291805
610.267 .0291543
611.037 .0291275
611.806 .0290999
612.575 .0290727
613.344 .0290456
614.112 .0290199
614.880 .0289963
615.647 .0289756
616.414 .0289572
617.181 .0289409
617.948 .0289271
618.714 .0289150
619.480 .0289033
620.245 .0288916
621.011 .0288788
621.775 .0288657
622.540 .0288526
623.304 .0288396
624.068 .0288282
624.832 .0288172
625.595 .0288074
626.358 .0287984
627.120 .0287888
627.883 .0287784
628.645 .0287666
629.406 .0287538
630.168 .0287397
630.929 .0287254
631.689 .0287113
632.450 .0286981
633.210 .0286876
633.970 .0286780
634.729 .0286701
635.489 .0286631
636.248 .0286568
637.006 .0286502
637.765 .0286432
638.523 .0286346
639.280 .0286239
640.038 .0286128
640.795 .0286006
641.552 .0285870
642.309 .0285736
643.065 .0285605
643.821 .0285471
644.577 .0285326
645.332 .0285173
646.088 .0285008
646.843 .0284847
647.597 .0284683
648.352 .0284523
649.106 .0284388
649.860 .0284275
650.613 .0284185
651.367 .0284121
652.120 .0284082
652.872 .0284048
653.625 .0284008
654.377 .0283969
655.129 .0283916
655.881 .0283852
656.632 .0283777
657.384 .0283689
658.135 .0283601
658.885 .0283508
659.636 .0283407
660.386 .0283300
661.136 .0283191
661.885 .0283066
662.635 .0282931
663.384 .0282794
664.133 .0282656
664.881 .0282510
665.630 .0282372
666.378 .0282234
667.126 .0282086
667.874 .0281928
668.621 .0281765
669.368 .0281596
670.115 .0281426
670.862 .0281254
671.608 .0281091
672.354 .0280945
673.100 .0280810
673.846 .0280676
674.591 .0280544
675.337 .0280406
676.082 .0280254
676.826 .0280079
677.571 .0279895
678.315 .0279705
679.059 .0279520
679.803 .0279351
680.547 .0279202
681.290 .0279074
682.033 .0278959
682.776 .0278852
683.518 .0278744
684.261 .0278622
685.003 .0278477
685.745 .0278310
686.487 .0278132
687.228 .0277941
687.969 .0277748
688.710 .0277562
689.451 .0277392
690.192 .0277241
690.932 .0277100
691.672 .0276971
692.412 .0276852
693.152 .0276737
693.891 .0276615
694.630 .0276497
695.369 .0276389
696.108 .0276283
696.846 .0276184
697.585 .0276089
698.323 .0275995
699.061 .0275899
699.798 .0275800
700.536 .0275694
701.273 .0275581
702.010 .0275463
702.746 .0275325
703.483 .0275177
704.219 .0275022
704.955 .0274854
705.691 .0274676
706.427 .0274490
707.162 .0274294
707.897 .0274092
708.632 .0273887
709.367 .0273687
710.101 .0273493
710.835 .0273306
711.569 .0273115
712.303 .0272923
713.037 .0272733
713.770 .0272542
714.503 .0272346
715.236 .0272158
715.969 .0271975
716.702 .0271797
717.434 .0271631
718.166 .0271476
718.898 .0271334
719.629 .0271200
720.361 .0271064
721.092 .0270930
721.823 .0270800
722.554 .0270668
723.284 .0270537
724.014 .0270404
724.744 .0270273
725.474 .0270125
726.204 .0269966
726.933 .0269796
727.662 .0269608
728.391 .0269400
729.120 .0269179
729.849 .0268948
730.577 .0268719
731.305 .0268490
732.033 .0268272
732.760 .0268060
733.488 .0267853
734.215 .0267639
734.942 .0267418
735.669 .0267196
736.395 .0266979
737.122 .0266762
737.848 .0266556
738.573 .0266367
739.299 .0266188
740.024 .0266024
740.750 .0265876
741.474 .0265734
742.199 .0265594
742.924 .0265451
743.648 .0265301
744.372 .0265147
745.096 .0264996
745.819 .0264847
746.543 .0264701
747.266 .0264572
747.989 .0264450
748.711 .0264338
749.434 .0264241
750.156 .0264160
750.878 .0264087
751.599 .0264035
752.321 .0263995
753.042 .0263968
753.763 .0263959
754.484 .0263961
755.205 .0263965
755.925 .0263976
756.645 .0263980
757.365 .0263971
758.085 .0263945
758.804 .0263905
759.523 .0263832
760.242 .0263740
760.961 .0263622
761.679 .0263485
762.397 .0263330
763.115 .0263159
763.833 .0262971
764.551 .0262773
765.268 .0262561
765.985 .0262331
766.702 .0262086
767.418 .0261826
768.134 .0261552
768.850 .0261273
769.566 .0260995
770.282 .0260730
770.997 .0260488
771.712 .0260268
772.427 .0260071
773.142 .0259901
773.856 .0259746
774.570 .0259600
775.284 .0259458
775.998 .0259311
776.711 .0259159
777.424 .0259003
778.137 .0258841
778.849 .0258674
779.562 .0258506
780.274 .0258336
780.986 .0258157
781.697 .0257978
782.409 .0257795
783.120 .0257610
783.831 .0257429
784.541 .0257255
785.252 .0257089
785.962 .0256940
786.671 .0256803
787.381 .0256684
788.090 .0256580
788.799 .0256493
789.508 .0256414
790.217 .0256344
790.925 .0256277
791.633 .0256217
792.341 .0256159
793.048 .0256108
793.755 .0256054
794.462 .0255997
795.169 .0255926
795.875 .0255849
796.581 .0255760
797.287 .0255662
797.993 .0255554
798.698 .0255438
799.403 .0255311
800.108 .0255176
800.812 .0255031
801.517 .0254881
802.221 .0254733
802.924 .0254586
803.628 .0254439
804.331 .0254307
805.034 .0254190
805.736 .0254084
806.439 .0253990
807.141 .0253903
807.843 .0253817
808.544 .0253728
809.245 .0253634
809.946 .0253534
810.647 .0253435
811.347 .0253341
812.047 .0253253
812.747 .0253178
813.447 .0253114
814.146 .0253052
814.845 .0252992
815.543 .0252926
816.242 .0252846
816.940 .0252744
817.638 .0252623
818.335 .0252489
819.032 .0252341
819.729 .0252186
820.426 .0252030
821.122 .0251875
821.818 .0251719
822.514 .0251566
823.209 .0251421
823.905 .0251276
824.599 .0251131
825.294 .0250992
825.988 .0250851
826.682 .0250714
827.376 .0250582
828.069 .0250452
828.762 .0250324
829.455 .0250200
830.147 .0250071
830.840 .0249945
831.531 .0249827
832.223 .0249717
832.914 .0249608
833.605 .0249509
834.296 .0249409
834.986 .0249305
835.676 .0249199
836.366 .0249083
837.055 .0248956
837.744 .0248824
838.433 .0248684
839.121 .0248538
839.809 .0248392
840.497 .0248252
841.185 .0248119
841.872 .0247999
842.559 .0247891
843.245 .0247789
843.932 .0247693
844.617 .0247599
845.303 .0247502
845.988 .0247399
846.673 .0247289
847.358 .0247175
848.042 .0247059
848.726 .0246942
849.410 .0246823
850.093 .0246708
850.776 .0246601
851.459 .0246494
852.141 .0246389
852.823 .0246280
853.505 .0246167
854.186 .0246052
854.867 .0245931
855.548 .0245802
856.228 .0245674
856.908 .0245545
857.588 .0245412
858.267 .0245283
858.946 .0245158
859.625 .0245034
860.303 .0244919
860.981 .0244813
861.659 .0244709
862.336 .0244607
863.013 .0244505
863.690 .0244400
864.366 .0244294
865.042 .0244184
865.718 .0244064
866.393 .0243944
867.068 .0243829
867.743 .0243715
868.417 .0243603
869.091 .0243501
869.765 .0243406
870.438 .0243314
871.111 .0243224
871.783 .0243131
872.456 .0243033
873.127 .0242931
873.799 .0242821
874.470 .0242702
875.141 .0242575
875.811 .0242446
876.481 .0242314
877.151 .0242187
877.820 .0242062
878.489 .0241934
879.158 .0241804
879.826 .0241674
880.494 .0241542
881.162 .0241401
881.829 .0241254
882.496 .0241108
883.163 .0240953
883.829 .0240798
884.495 .0240644
885.160 .0240499
885.825 .0240364
886.490 .0240239
887.154 .0240122
887.818 .0240013
888.482 .0239912
889.145 .0239817
889.808 .0239730
890.471 .0239652
891.133 .0239581
891.795 .0239516
892.456 .0239461
893.117 .0239413
893.778 .0239367
894.439 .0239325
895.099 .0239281
895.758 .0239239
896.417 .0239196
897.076 .0239149
897.735 .0239102
898.393 .0239052
899.051 .0238998
899.708 .0238937
900.365 .0238865
901.022 .0238781
901.678 .0238683
902.334 .0238572
902.990 .0238450
903.645 .0238321
904.300 .0238193
904.954 .0238069
905.608 .0237949
906.262 .0237836
906.915 .0237727
907.568 .0237620
908.221 .0237516
908.873 .0237410
909.525 .0237305
910.176 .0237201
910.828 .0237102
911.478 .0237010
912.129 .0236928
912.778 .0236853
913.428 .0236782
914.077 .0236714
914.726 .0236636
915.375 .0236547
916.023 .0236447
916.670 .0236343
917.318 .0236238
917.964 .0236136
918.611 .0236041
919.257 .0235954
919.903 .0235882
920.548 .0235819
921.193 .0235764
921.838 .0235716
922.482 .0235671
923.126 .0235626
923.770 .0235580
924.413 .0235541
925.056 .0235503
925.698 .0235475
926.340 .0235452
926.982 .0235431
927.623 .0235405
928.264 .0235374
928.904 .0235331
929.544 .0235270
930.184 .0235195
930.823 .0235102
931.462 .0234993
932.101 .0234881
932.739 .0234760
933.377 .0234639
934.014 .0234516
934.651 .0234397
935.288 .0234274
935.924 .0234156
936.560 .0234041
937.196 .0233927
937.831 .0233815
938.466 .0233704
939.100 .0233589
939.734 .0233473
940.368 .0233353
941.001 .0233228
941.634 .0233104
942.266 .0232984
942.899 .0232863
943.530 .0232740
944.162 .0232614
944.793 .0232485
945.423 .0232347
946.053 .0232195
946.683 .0232028
947.313 .0231850
947.942 .0231663
948.571 .0231467
949.199 .0231272
949.827 .0231082
950.455 .0230900
951.082 .0230734
951.709 .0230578
952.335 .0230433
952.961 .0230292
953.587 .0230154
954.212 .0230015
954.837 .0229876
955.462 .0229740
956.086 .0229609
956.710 .0229489
957.334 .0229377
957.957 .0229269
958.579 .0229173
959.202 .0229083
959.824 .0228997
960.445 .0228910
961.067 .0228820
961.688 .0228728
962.308 .0228635
962.928 .0228544
963.548 .0228458
964.168 .0228376
964.787 .0228303
965.406 .0228229
966.024 .0228162
966.642 .0228093
967.260 .0228023
967.877 .0227960
968.494 .0227898
969.110 .0227837
969.727 .0227782
970.342 .0227733
970.958 .0227695
971.573 .0227661
972.188 .0227632
972.802 .0227602
973.416 .0227568
974.030 .0227534
974.643 .0227492
975.256 .0227453
975.869 .0227419
976.481 .0227384
977.093 .0227362
977.705 .0227349
978.316 .0227339
978.927 .0227334
979.538 .0227329
980.148 .0227320
980.758 .0227297
981.367 .0227259
981.977 .0227213
982.586 .0227159
983.194 .0227108
983.802 .0227060
984.410 .0227016
985.018 .0226986
985.625 .0226967
986.232 .0226951
986.838 .0226943
987.445 .0226935
988.050 .0226930
988.656 .0226925
989.261 .0226922
989.866 .0226919
990.471 .0226917
991.075 .0226922
991.679 .0226928
992.282 .0226933
992.886 .0226936
993.489 .0226938
994.091 .0226940
994.694 .0226939
995.296 .0226934
995.897 .0226922
996.499 .0226909
997.100 .0226882
997.701 .0226846
998.301 .0226803
998.901 .0226755
999.501 .0226704
1000.101 .0226647
1000.700 .0226593
1001.299 .0226543
1001.898 .0226502
1002.496 .0226478
1003.094 .0226467
1003.692 .0226472
1004.289 .0226482
1004.887 .0226491
1005.484 .0226491
1006.080 .0226476
1006.677 .0226445
1007.273 .0226396
1007.868 .0226341
1008.464 .0226290
1009.059 .0226246
1009.654 .0226224
1010.249 .0226233
1010.843 .0226263
1011.437 .0226317
1012.031 .0226387
1012.625 .0226461
1013.218 .0226531
1013.811 .0226595
1014.404 .0226642
1014.997 .0226678
1015.589 .0226709
1016.181 .0226742
1016.773 .0226781
1017.365 .0226829
1017.956 .0226876
1018.547 .0226916
1019.138 .0226947
1019.728 .0226965
1020.319 .0226958
1020.909 .0226936
1021.499 .0226888
1022.088 .0226830
1022.678 .0226758
1023.267 .0226688
1023.856 .0226626
1024.445 .0226581
1025.033 .0226556
1025.621 .0226541
1026.209 .0226533
1026.797 .0226532
1027.385 .0226527
1027.972 .0226519
1028.560 .0226497
1029.147 .0226470
1029.734 .0226425
1030.320 .0226383
1030.907 .0226336
1031.493 .0226291
1032.079 .0226246
1032.665 .0226203
1033.250 .0226157
1033.836 .0226103
1034.421 .0226042
1035.006 .0225973
1035.591 .0225906
1036.176 .0225841
1036.761 .0225777
1037.345 .0225732
1037.929 .0225698
1038.514 .0225681
1039.097 .0225673
1039.681 .0225682
1040.265 .0225691
1040.848 .0225704
1041.432 .0225720
1042.015 .0225728
1042.598 .0225735
1043.181 .0225739
1043.764 .0225738
1044.346 .0225741
1044.929 .0225747
1045.511 .0225751
1046.094 .0225756
1046.676 .0225763
1047.258 .0225762
1047.840 .0225763
1048.422 .0225765
1049.003 .0225771
1049.585 .0225782
1050.166 .0225807
1050.748 .0225841
1051.329 .0225882
1051.910 .0225934
1052.491 .0225990
1053.072 .0226049
1053.653 .0226103
1054.234 .0226142
1054.815 .0226161
1055.396 .0226151
1055.976 .0226118
1056.557 .0226055
1057.138 .0225973
1057.718 .0225873
1058.298 .0225764
1058.879 .0225639
1059.459 .0225503
1060.039 .0225348
1060.620 .0225160
1061.200 .0224951
1061.780 .0224703
1062.360 .0224420
1062.940 .0224120
1063.520 .0223824
1064.101 .0223538
1064.681 .0223272
1065.261 .0223048
1065.841 .0222865
1066.421 .0222729
1067.001 .0222627
1067.581 .0222541
1068.161 .0222469
1068.741 .0222411
1069.321 .0222353
1069.901 .0222287
1070.482 .0222239
1071.062 .0222190
1071.642 .0222161
1072.222 .0222143
1072.803 .0222141
1073.383 .0222148
1073.963 .0222166
1074.544 .0222206
1075.124 .0222220
1075.705 .0222206
1076.286 .0222161
1076.866 .0222088
1077.447 .0222002
1078.028 .0221880
1078.609 .0221759
1079.190 .0221641
1079.771 .0221548
1080.352 .0221466
1080.934 .0221406
1081.515 .0221393
1082.097 .0221421
1082.679 .0221485
1083.260 .0221567
1083.842 .0221679
1084.424 .0221795
1085.007 .0221935
1085.589 .0222065
1086.172 .0222175
1086.754 .0222244
1087.337 .0222265
1087.920 .0222248
1088.503 .0222178
1089.087 .0222052
1089.670 .0221887
1090.254 .0221689
1090.838 .0221489
1091.422 .0221236
1092.006 .0220975
1092.590 .0220672
1093.175 .0220339
1093.760 .0219966
1094.345 .0219589
1094.930 .0219199
1095.516 .0218848
1096.102 .0218564
1096.688 .0218378
1097.274 .0218272
1097.860 .0218271
1098.447 .0218318
1099.034 .0218438
1099.622 .0218563
1100.209 .0218689
1100.797 .0218814
1101.385 .0218983
1101.973 .0219167
1102.562 .0219390
1103.151 .0219657
1103.740 .0219956
1104.330 .0220240
1104.920 .0220517
1105.510 .0220722
1106.101 .0220867
1106.691 .0220917
1107.283 .0220896
1107.874 .0220818
1108.466 .0220721
1109.058 .0220615
1109.651 .0220551
1110.244 .0220511
1110.837 .0220474
1111.431 .0220422
1112.025 .0220357
1112.620 .0220273
1113.215 .0220168
1113.810 .0220047
1114.406 .0219928
1115.002 .0219839
1115.599 .0219794
1116.196 .0219767
1116.793 .0219829
1117.391 .0219939
1117.989 .0220090
1118.588 .0220277
1119.187 .0220465
1119.787 .0220627
1120.387 .0220751
1120.988 .0220820
1121.589 .0220820
1122.190 .0220720
1122.793 .0220569
1123.395 .0220380
1123.998 .0220199
1124.602 .0220031
1125.206 .0219897
1125.811 .0219817
1126.416 .0219790
1127.022 .0219778
1127.628 .0219769
1128.235 .0219763
1128.843 .0219788
1129.451 .0219836
1130.059 .0219935
1130.669 .0220103
1131.278 .0220332
1131.889 .0220594
1132.500 .0220930
1133.112 .0221292
1133.724 .0221665
1134.337 .0222058
1134.950 .0222481
1135.564 .0222958
1136.179 .0223432
1136.795 .0223937
1137.411 .0224468
1138.028 .0225029
1138.645 .0225561
1139.263 .0226006
1139.882 .0226477
1140.502 .0227022
1141.122 .0227604
1141.743 .0228189
1142.365 .0229016
1142.987 .0229711
1143.611 .0232319
1144.235 .0231843
1144.859 .0230799
1145.485 .0236920
