Measurement Sequence started on: 10-20-44-796
Integration time: 35
Scans to Average: 2 
>>>>>Begin Spectral Data<<<<<
432.953 .0349505
433.882 .0183868
434.810 .0222136
435.737 .0269858
436.662 .0291683
437.586 .0296390
438.509 .0304376
439.431 .0315370
440.351 .0322903
441.269 .0327770
442.187 .0331237
443.103 .0333679
444.018 .0335590
444.932 .0337050
445.844 .0337886
446.756 .0338147
447.666 .0337710
448.575 .0336891
449.482 .0335863
450.388 .0334770
451.294 .0333661
452.198 .0332724
453.100 .0331860
454.002 .0331166
454.902 .0330634
455.801 .0330186
456.699 .0329748
457.596 .0329444
458.492 .0329135
459.387 .0328871
460.280 .0328654
461.172 .0328490
462.064 .0328340
462.954 .0328265
463.843 .0328165
464.730 .0328111
465.617 .0328122
466.503 .0328194
467.387 .0328265
468.271 .0328401
469.153 .0328562
470.035 .0328716
470.915 .0328878
471.794 .0329014
472.673 .0329037
473.550 .0329001
474.426 .0328894
475.301 .0328708
476.175 .0328497
477.048 .0328277
477.920 .0328076
478.791 .0327903
479.661 .0327778
480.530 .0327647
481.398 .0327537
482.266 .0327437
483.132 .0327306
483.997 .0327103
484.861 .0326865
485.724 .0326575
486.587 .0326294
487.448 .0326022
488.308 .0325763
489.168 .0325504
490.026 .0325275
490.884 .0325029
491.741 .0324762
492.597 .0324440
493.452 .0324095
494.306 .0323698
495.159 .0323262
496.011 .0322762
496.862 .0322240
497.713 .0321713
498.562 .0321184
499.411 .0320628
500.259 .0320078
501.106 .0319497
501.952 .0318918
502.798 .0318338
503.642 .0317749
504.486 .0317156
505.329 .0316546
506.171 .0315904
507.012 .0315258
507.852 .0314564
508.692 .0313799
509.531 .0312998
510.369 .0312200
511.206 .0311374
512.043 .0310515
512.878 .0309608
513.713 .0308657
514.547 .0307607
515.381 .0306414
516.213 .0305030
517.045 .0303458
517.876 .0301726
518.706 .0299811
519.536 .0297802
520.365 .0295772
521.193 .0293708
522.020 .0291715
522.847 .0289765
523.673 .0287824
524.498 .0285823
525.323 .0283688
526.146 .0281459
526.969 .0279151
527.792 .0276816
528.614 .0274481
529.435 .0272314
530.255 .0270411
531.075 .0268780
531.894 .0267520
532.712 .0266630
533.530 .0265961
534.347 .0265472
535.163 .0265005
535.979 .0264512
536.794 .0263929
537.608 .0263283
538.422 .0262625
539.235 .0262052
540.048 .0261587
540.860 .0261252
541.671 .0261135
542.481 .0261275
543.292 .0261515
544.101 .0261824
544.910 .0262175
545.718 .0262509
546.526 .0262836
547.333 .0263202
548.139 .0263648
548.945 .0264274
549.750 .0265043
550.555 .0265989
551.359 .0267084
552.162 .0268274
552.965 .0269512
553.768 .0270703
554.569 .0271875
555.371 .0272924
556.171 .0273838
556.972 .0274678
557.771 .0275407
558.570 .0276079
559.369 .0276694
560.167 .0277244
560.964 .0277770
561.761 .0278283
562.558 .0278811
563.354 .0279381
564.149 .0280007
564.944 .0280668
565.738 .0281355
566.532 .0282084
567.325 .0282844
568.118 .0283599
568.910 .0284363
569.702 .0285142
570.494 .0285933
571.285 .0286759
572.075 .0287601
572.865 .0288469
573.654 .0289331
574.443 .0290168
575.232 .0290949
576.020 .0291643
576.807 .0292276
577.594 .0292861
578.381 .0293392
579.167 .0293878
579.952 .0294352
580.738 .0294824
581.522 .0295305
582.307 .0295797
583.091 .0296297
583.874 .0296786
584.657 .0297263
585.440 .0297706
586.222 .0298115
587.004 .0298495
587.785 .0298856
588.566 .0299180
589.346 .0299481
590.126 .0299754
590.906 .0300005
591.685 .0300236
592.464 .0300436
593.242 .0300603
594.020 .0300734
594.797 .0300823
595.575 .0300871
596.351 .0300879
597.128 .0300867
597.904 .0300836
598.679 .0300782
599.454 .0300714
600.229 .0300639
601.004 .0300557
601.778 .0300470
602.551 .0300376
603.325 .0300271
604.097 .0300156
604.870 .0300031
605.642 .0299897
606.414 .0299752
607.185 .0299604
607.956 .0299452
608.727 .0299293
609.497 .0299131
610.267 .0298960
611.037 .0298779
611.806 .0298590
612.575 .0298389
613.344 .0298175
614.112 .0297949
614.880 .0297716
615.647 .0297481
616.414 .0297252
617.181 .0297031
617.948 .0296814
618.714 .0296608
619.480 .0296414
620.245 .0296222
621.011 .0296036
621.775 .0295858
622.540 .0295687
623.304 .0295523
624.068 .0295368
624.832 .0295232
625.595 .0295107
626.358 .0294995
627.120 .0294889
627.883 .0294782
628.645 .0294675
629.406 .0294558
630.168 .0294430
630.929 .0294304
631.689 .0294179
632.450 .0294056
633.210 .0293937
633.970 .0293822
634.729 .0293710
635.489 .0293593
636.248 .0293469
637.006 .0293340
637.765 .0293197
638.523 .0293049
639.280 .0292892
640.038 .0292735
640.795 .0292581
641.552 .0292432
642.309 .0292291
643.065 .0292152
643.821 .0292010
644.577 .0291868
645.332 .0291724
646.088 .0291583
646.843 .0291440
647.597 .0291297
648.352 .0291158
649.106 .0291023
649.860 .0290891
650.613 .0290764
651.367 .0290640
652.120 .0290521
652.872 .0290399
653.625 .0290276
654.377 .0290155
655.129 .0290033
655.881 .0289917
656.632 .0289803
657.384 .0289686
658.135 .0289563
658.885 .0289435
659.636 .0289300
660.386 .0289156
661.136 .0289009
661.885 .0288863
662.635 .0288722
663.384 .0288595
664.133 .0288484
664.881 .0288387
665.630 .0288305
666.378 .0288236
667.126 .0288170
667.874 .0288107
668.621 .0288041
669.368 .0287975
670.115 .0287907
670.862 .0287842
671.608 .0287777
672.354 .0287712
673.100 .0287650
673.846 .0287586
674.591 .0287511
675.337 .0287425
676.082 .0287323
676.826 .0287201
677.571 .0287063
678.315 .0286911
679.059 .0286743
679.803 .0286564
680.547 .0286376
681.290 .0286177
682.033 .0285964
682.776 .0285744
683.518 .0285513
684.261 .0285275
685.003 .0285036
685.745 .0284794
686.487 .0284553
687.228 .0284323
687.969 .0284097
688.710 .0283873
689.451 .0283655
690.192 .0283445
690.932 .0283234
691.672 .0283031
692.412 .0282832
693.152 .0282639
693.891 .0282455
694.630 .0282280
695.369 .0282111
696.108 .0281949
696.846 .0281793
697.585 .0281636
698.323 .0281478
699.061 .0281326
699.798 .0281166
700.536 .0281006
701.273 .0280843
702.010 .0280678
702.746 .0280507
703.483 .0280332
704.219 .0280153
704.955 .0279971
705.691 .0279783
706.427 .0279593
707.162 .0279400
707.897 .0279207
708.632 .0279016
709.367 .0278824
710.101 .0278634
710.835 .0278453
711.569 .0278270
712.303 .0278092
713.037 .0277914
713.770 .0277739
714.503 .0277562
715.236 .0277385
715.969 .0277212
716.702 .0277040
717.434 .0276875
718.166 .0276718
718.898 .0276564
719.629 .0276417
720.361 .0276271
721.092 .0276121
721.823 .0275967
722.554 .0275805
723.284 .0275638
724.014 .0275463
724.744 .0275285
725.474 .0275105
726.204 .0274925
726.933 .0274744
727.662 .0274562
728.391 .0274374
729.120 .0274185
729.849 .0273991
730.577 .0273787
731.305 .0273574
732.033 .0273358
732.760 .0273136
733.488 .0272911
734.215 .0272685
734.942 .0272464
735.669 .0272240
736.395 .0272018
737.122 .0271790
737.848 .0271564
738.573 .0271340
739.299 .0271118
740.024 .0270901
740.750 .0270693
741.474 .0270495
742.199 .0270308
742.924 .0270133
743.648 .0269974
744.372 .0269825
745.096 .0269690
745.819 .0269565
746.543 .0269451
747.266 .0269349
747.989 .0269261
748.711 .0269190
749.434 .0269133
750.156 .0269089
750.878 .0269052
751.599 .0269026
752.321 .0269007
753.042 .0268993
753.763 .0268986
754.484 .0268984
755.205 .0268985
755.925 .0268988
756.645 .0268994
757.365 .0268999
758.085 .0269003
758.804 .0269002
759.523 .0268985
760.242 .0268951
760.961 .0268899
761.679 .0268831
762.397 .0268744
763.115 .0268649
763.833 .0268541
764.551 .0268419
765.268 .0268285
765.985 .0268131
766.702 .0267958
767.418 .0267768
768.134 .0267560
768.850 .0267338
769.566 .0267109
770.282 .0266882
770.997 .0266659
771.712 .0266448
772.427 .0266255
773.142 .0266076
773.856 .0265911
774.570 .0265752
775.284 .0265596
775.998 .0265442
776.711 .0265292
777.424 .0265148
778.137 .0265009
778.849 .0264877
779.562 .0264755
780.274 .0264638
780.986 .0264530
781.697 .0264428
782.409 .0264331
783.120 .0264233
783.831 .0264135
784.541 .0264031
785.252 .0263922
785.962 .0263809
786.671 .0263694
787.381 .0263578
788.090 .0263460
788.799 .0263342
789.508 .0263224
790.217 .0263105
790.925 .0262990
791.633 .0262868
792.341 .0262742
793.048 .0262606
793.755 .0262459
794.462 .0262297
795.169 .0262130
795.875 .0261960
796.581 .0261792
797.287 .0261629
797.993 .0261478
798.698 .0261340
799.403 .0261215
800.108 .0261099
800.812 .0260989
801.517 .0260878
802.221 .0260769
802.924 .0260652
803.628 .0260534
804.331 .0260421
805.034 .0260313
805.736 .0260205
806.439 .0260102
807.141 .0260000
807.843 .0259901
808.544 .0259797
809.245 .0259688
809.946 .0259570
810.647 .0259446
811.347 .0259310
812.047 .0259168
812.747 .0259020
813.447 .0258870
814.146 .0258720
814.845 .0258576
815.543 .0258438
816.242 .0258310
816.940 .0258192
817.638 .0258086
818.335 .0257988
819.032 .0257896
819.729 .0257797
820.426 .0257691
821.122 .0257574
821.818 .0257435
822.514 .0257278
823.209 .0257107
823.905 .0256924
824.599 .0256737
825.294 .0256550
825.988 .0256362
826.682 .0256178
827.376 .0255997
828.069 .0255813
828.762 .0255625
829.455 .0255434
830.147 .0255238
830.840 .0255041
831.531 .0254849
832.223 .0254664
832.914 .0254487
833.605 .0254324
834.296 .0254171
834.986 .0254025
835.676 .0253888
836.366 .0253755
837.055 .0253625
837.744 .0253497
838.433 .0253368
839.121 .0253241
839.809 .0253114
840.497 .0252991
841.185 .0252874
841.872 .0252761
842.559 .0252659
843.245 .0252564
843.932 .0252479
844.617 .0252401
845.303 .0252329
845.988 .0252259
846.673 .0252189
847.358 .0252118
848.042 .0252048
848.726 .0251978
849.410 .0251908
850.093 .0251841
850.776 .0251776
851.459 .0251711
852.141 .0251641
852.823 .0251564
853.505 .0251476
854.186 .0251374
854.867 .0251262
855.548 .0251138
856.228 .0251012
856.908 .0250891
857.588 .0250776
858.267 .0250670
858.946 .0250574
859.625 .0250479
860.303 .0250381
860.981 .0250276
861.659 .0250157
862.336 .0250021
863.013 .0249881
863.690 .0249738
864.366 .0249595
865.042 .0249460
865.718 .0249335
866.393 .0249214
867.068 .0249100
867.743 .0248986
868.417 .0248863
869.091 .0248736
869.765 .0248603
870.438 .0248463
871.111 .0248326
871.783 .0248197
872.456 .0248078
873.127 .0247967
873.799 .0247863
874.470 .0247759
875.141 .0247655
875.811 .0247555
876.481 .0247452
877.151 .0247350
877.820 .0247259
878.489 .0247177
879.158 .0247104
879.826 .0247041
880.494 .0246987
881.162 .0246934
881.829 .0246880
882.496 .0246816
883.163 .0246742
883.829 .0246663
884.495 .0246581
885.160 .0246505
885.825 .0246439
886.490 .0246381
887.154 .0246333
887.818 .0246294
888.482 .0246260
889.145 .0246221
889.808 .0246180
890.471 .0246135
891.133 .0246087
891.795 .0246037
892.456 .0245986
893.117 .0245937
893.778 .0245901
894.439 .0245869
895.099 .0245838
895.758 .0245812
896.417 .0245789
897.076 .0245757
897.735 .0245722
898.393 .0245675
899.051 .0245621
899.708 .0245554
900.365 .0245478
901.022 .0245390
901.678 .0245298
902.334 .0245207
902.990 .0245119
903.645 .0245040
904.300 .0244976
904.954 .0244919
905.608 .0244870
906.262 .0244832
906.915 .0244802
907.568 .0244771
908.221 .0244744
908.873 .0244716
909.525 .0244689
910.176 .0244660
910.828 .0244637
911.478 .0244615
912.129 .0244597
912.778 .0244580
913.428 .0244555
914.077 .0244526
914.726 .0244491
915.375 .0244446
916.023 .0244394
916.670 .0244336
917.318 .0244270
917.964 .0244193
918.611 .0244111
919.257 .0244018
919.903 .0243919
920.548 .0243812
921.193 .0243700
921.838 .0243585
922.482 .0243477
923.126 .0243373
923.770 .0243277
924.413 .0243192
925.056 .0243112
925.698 .0243042
926.340 .0242979
926.982 .0242919
927.623 .0242858
928.264 .0242798
928.904 .0242735
929.544 .0242669
930.184 .0242606
930.823 .0242546
931.462 .0242491
932.101 .0242441
932.739 .0242391
933.377 .0242339
934.014 .0242284
934.651 .0242224
935.288 .0242148
935.924 .0242058
936.560 .0241950
937.196 .0241822
937.831 .0241682
938.466 .0241530
939.100 .0241370
939.734 .0241208
940.368 .0241045
941.001 .0240882
941.634 .0240720
942.266 .0240561
942.899 .0240400
943.530 .0240230
944.162 .0240051
944.793 .0239860
945.423 .0239656
946.053 .0239443
946.683 .0239231
947.313 .0239025
947.942 .0238828
948.571 .0238638
949.199 .0238458
949.827 .0238285
950.455 .0238121
951.082 .0237956
951.709 .0237787
952.335 .0237618
952.961 .0237449
953.587 .0237277
954.212 .0237115
954.837 .0236957
955.462 .0236807
956.086 .0236662
956.710 .0236524
957.334 .0236384
957.957 .0236239
958.579 .0236088
959.202 .0235933
959.824 .0235774
960.445 .0235615
961.067 .0235454
961.688 .0235302
962.308 .0235159
962.928 .0235023
963.548 .0234888
964.168 .0234759
964.787 .0234631
965.406 .0234505
966.024 .0234379
966.642 .0234263
967.260 .0234160
967.877 .0234069
968.494 .0233990
969.110 .0233920
969.727 .0233853
970.342 .0233788
970.958 .0233723
971.573 .0233657
972.188 .0233591
972.802 .0233530
973.416 .0233478
974.030 .0233438
974.643 .0233410
975.256 .0233391
975.869 .0233376
976.481 .0233363
977.093 .0233343
977.705 .0233317
978.316 .0233286
978.927 .0233251
979.538 .0233217
980.148 .0233185
980.758 .0233159
981.367 .0233135
981.977 .0233113
982.586 .0233088
983.194 .0233060
983.802 .0233023
984.410 .0232973
985.018 .0232919
985.625 .0232863
986.232 .0232808
986.838 .0232758
987.445 .0232713
988.050 .0232667
988.656 .0232618
989.261 .0232563
989.866 .0232490
990.471 .0232408
991.075 .0232317
991.679 .0232218
992.282 .0232121
992.886 .0232033
993.489 .0231955
994.091 .0231888
994.694 .0231829
995.296 .0231770
995.897 .0231701
996.499 .0231627
997.100 .0231538
997.701 .0231442
998.301 .0231345
998.901 .0231256
999.501 .0231182
1000.101 .0231133
1000.700 .0231106
1001.299 .0231095
1001.898 .0231098
1002.496 .0231102
1003.094 .0231099
1003.692 .0231086
1004.289 .0231054
1004.887 .0231014
1005.484 .0230964
1006.080 .0230915
1006.677 .0230864
1007.273 .0230824
1007.868 .0230797
1008.464 .0230785
1009.059 .0230781
1009.654 .0230782
1010.249 .0230790
1010.843 .0230803
1011.437 .0230815
1012.031 .0230821
1012.625 .0230827
1013.218 .0230831
1013.811 .0230830
1014.404 .0230830
1014.997 .0230831
1015.589 .0230836
1016.181 .0230850
1016.773 .0230871
1017.365 .0230899
1017.956 .0230931
1018.547 .0230963
1019.138 .0230989
1019.728 .0231006
1020.319 .0231009
1020.909 .0230990
1021.499 .0230960
1022.088 .0230932
1022.678 .0230892
1023.267 .0230860
1023.856 .0230836
1024.445 .0230815
1025.033 .0230795
1025.621 .0230768
1026.209 .0230727
1026.797 .0230670
1027.385 .0230596
1027.972 .0230499
1028.560 .0230386
1029.147 .0230278
1029.734 .0230169
1030.320 .0230065
1030.907 .0229976
1031.493 .0229903
1032.079 .0229840
1032.665 .0229802
1033.250 .0229777
1033.836 .0229767
1034.421 .0229779
1035.006 .0229808
1035.591 .0229859
1036.176 .0229934
1036.761 .0230026
1037.345 .0230130
1037.929 .0230240
1038.514 .0230351
1039.097 .0230450
1039.681 .0230547
1040.265 .0230638
1040.848 .0230722
1041.432 .0230789
1042.015 .0230837
1042.598 .0230865
1043.181 .0230870
1043.764 .0230853
1044.346 .0230808
1044.929 .0230745
1045.511 .0230671
1046.094 .0230583
1046.676 .0230495
1047.258 .0230419
1047.840 .0230367
1048.422 .0230330
1049.003 .0230315
1049.585 .0230321
1050.166 .0230343
1050.748 .0230377
1051.329 .0230421
1051.910 .0230468
1052.491 .0230518
1053.072 .0230563
1053.653 .0230597
1054.234 .0230631
1054.815 .0230661
1055.396 .0230682
1055.976 .0230693
1056.557 .0230686
1057.138 .0230664
1057.718 .0230626
1058.298 .0230585
1058.879 .0230544
1059.459 .0230504
1060.039 .0230471
1060.620 .0230431
1061.200 .0230394
1061.780 .0230357
1062.360 .0230305
1062.940 .0230253
1063.520 .0230196
1064.101 .0230138
1064.681 .0230075
1065.261 .0230017
1065.841 .0229960
1066.421 .0229912
1067.001 .0229865
1067.581 .0229802
1068.161 .0229718
1068.741 .0229623
1069.321 .0229509
1069.901 .0229385
1070.482 .0229266
1071.062 .0229162
1071.642 .0229072
1072.222 .0229028
1072.803 .0229010
1073.383 .0229032
1073.963 .0229082
1074.544 .0229159
1075.124 .0229237
1075.705 .0229317
1076.286 .0229391
1076.866 .0229453
1077.447 .0229499
1078.028 .0229539
1078.609 .0229547
1079.190 .0229536
1079.771 .0229504
1080.352 .0229453
1080.934 .0229374
1081.515 .0229293
1082.097 .0229202
1082.679 .0229110
1083.260 .0229002
1083.842 .0228899
1084.424 .0228793
1085.007 .0228700
1085.589 .0228618
1086.172 .0228539
1086.754 .0228472
1087.337 .0228436
1087.920 .0228417
1088.503 .0228425
1089.087 .0228469
1089.670 .0228550
1090.254 .0228638
1090.838 .0228729
1091.422 .0228811
1092.006 .0228864
1092.590 .0228886
1093.175 .0228884
1093.760 .0228844
1094.345 .0228783
1094.930 .0228709
1095.516 .0228631
1096.102 .0228568
1096.688 .0228526
1097.274 .0228481
1097.860 .0228426
1098.447 .0228369
1099.034 .0228285
1099.622 .0228159
1100.209 .0228033
1100.797 .0227913
1101.385 .0227796
1101.973 .0227708
1102.562 .0227653
1103.151 .0227620
1103.740 .0227623
1104.330 .0227650
1104.920 .0227674
1105.510 .0227686
1106.101 .0227672
1106.691 .0227602
1107.283 .0227519
1107.874 .0227442
1108.466 .0227372
1109.058 .0227340
1109.651 .0227371
1110.244 .0227444
1110.837 .0227547
1111.431 .0227676
1112.025 .0227794
1112.620 .0227896
1113.215 .0227976
1113.810 .0228011
1114.406 .0228007
1115.002 .0227981
1115.599 .0227957
1116.196 .0227939
1116.793 .0227938
1117.391 .0227933
1117.989 .0227913
1118.588 .0227871
1119.187 .0227793
1119.787 .0227699
1120.387 .0227592
1120.988 .0227500
1121.589 .0227435
1122.190 .0227402
1122.793 .0227402
1123.395 .0227425
1123.998 .0227500
1124.602 .0227630
1125.206 .0227800
1125.811 .0228020
1126.416 .0228291
1127.022 .0228637
1127.628 .0229067
1128.235 .0229533
1128.843 .0230037
1129.451 .0230538
1130.059 .0230990
1130.669 .0231378
1131.278 .0231700
1131.889 .0231966
1132.500 .0232170
1133.112 .0232346
1133.724 .0232543
1134.337 .0232732
1134.950 .0232938
1135.564 .0233169
1136.179 .0233398
1136.795 .0233661
1137.411 .0233955
1138.028 .0234265
1138.645 .0234670
1139.263 .0235206
1139.882 .0235810
1140.502 .0236522
1141.122 .0237329
1141.743 .0238229
1142.365 .0239520
1142.987 .0239545
1143.611 .0241295
1144.235 .0241606
1144.859 .0243109
1145.485 .0254202
