Measurement Sequence started on: 10-20-44-796
Integration time: 35
Scans to Average: 2 
>>>>>Begin Spectral Data<<<<<
432.953 .0377286
433.882 .0433809
434.810 .0362687
435.737 .0343128
436.662 .0316866
437.586 .0339087
438.509 .0332963
439.431 .0327228
440.351 .0324735
441.269 .0323285
442.187 .0322640
443.103 .0321831
444.018 .0321509
444.932 .0321561
445.844 .0321766
446.756 .0322014
447.666 .0322394
448.575 .0322579
449.482 .0322578
450.388 .0322492
451.294 .0322310
452.198 .0322244
453.100 .0322283
454.002 .0322372
454.902 .0322501
455.801 .0322687
456.699 .0322828
457.596 .0322854
458.492 .0322762
459.387 .0322587
460.280 .0322338
461.172 .0322050
462.064 .0321753
462.954 .0321414
463.843 .0321112
464.730 .0320843
465.617 .0320517
466.503 .0320150
467.387 .0319659
468.271 .0319077
469.153 .0318440
470.035 .0317795
470.915 .0317173
471.794 .0316528
472.673 .0315934
473.550 .0315370
474.426 .0314835
475.301 .0314331
476.175 .0313848
477.048 .0313396
477.920 .0312999
478.791 .0312666
479.661 .0312367
480.530 .0312159
481.398 .0312038
482.266 .0311999
483.132 .0311995
483.997 .0311977
484.861 .0311955
485.724 .0311918
486.587 .0311931
487.448 .0311958
488.308 .0312014
489.168 .0312125
490.026 .0312236
490.884 .0312374
491.741 .0312484
492.597 .0312515
493.452 .0312438
494.306 .0312265
495.159 .0311957
496.011 .0311524
496.862 .0310992
497.713 .0310420
498.562 .0309833
499.411 .0309248
500.259 .0308631
501.106 .0307998
501.952 .0307352
502.798 .0306690
503.642 .0305991
504.486 .0305299
505.329 .0304546
506.171 .0303779
507.012 .0303009
507.852 .0302238
508.692 .0301451
509.531 .0300678
510.369 .0299906
511.206 .0299156
512.043 .0298385
512.878 .0297566
513.713 .0296683
514.547 .0295780
515.381 .0294762
516.213 .0293620
517.045 .0292358
517.876 .0290935
518.706 .0289376
519.536 .0287763
520.365 .0286087
521.193 .0284392
522.020 .0282742
522.847 .0281193
523.673 .0279697
524.498 .0278338
525.323 .0277052
526.146 .0275838
526.969 .0274730
527.792 .0273628
528.614 .0272452
529.435 .0271317
530.255 .0270236
531.075 .0269175
531.894 .0268143
532.712 .0267195
533.530 .0266298
534.347 .0265462
535.163 .0264661
535.979 .0263850
536.794 .0263057
537.608 .0262328
538.422 .0261598
539.235 .0260929
540.048 .0260314
540.860 .0259793
541.671 .0259352
542.481 .0258974
543.292 .0258656
544.101 .0258351
544.910 .0258117
545.718 .0257985
546.526 .0257926
547.333 .0257996
548.139 .0258189
548.945 .0258547
549.750 .0258985
550.555 .0259482
551.359 .0259998
552.162 .0260507
552.965 .0261006
553.768 .0261461
554.569 .0261891
555.371 .0262316
556.171 .0262799
556.972 .0263334
557.771 .0263954
558.570 .0264652
559.369 .0265431
560.167 .0266302
560.964 .0267222
561.761 .0268194
562.558 .0269196
563.354 .0270255
564.149 .0271356
564.944 .0272454
565.738 .0273557
566.532 .0274624
567.325 .0275641
568.118 .0276592
568.910 .0277468
569.702 .0278297
570.494 .0279096
571.285 .0279873
572.075 .0280642
572.865 .0281449
573.654 .0282251
574.443 .0283035
575.232 .0283786
576.020 .0284488
576.807 .0285132
577.594 .0285720
578.381 .0286263
579.167 .0286778
579.952 .0287298
580.738 .0287844
581.522 .0288392
582.307 .0288970
583.091 .0289559
583.874 .0290139
584.657 .0290688
585.440 .0291199
586.222 .0291644
587.004 .0292043
587.785 .0292391
588.566 .0292688
589.346 .0292952
590.126 .0293200
590.906 .0293421
591.685 .0293631
592.464 .0293822
593.242 .0293986
594.020 .0294116
594.797 .0294239
595.575 .0294331
596.351 .0294399
597.128 .0294459
597.904 .0294505
598.679 .0294549
599.454 .0294593
600.229 .0294628
601.004 .0294646
601.778 .0294653
602.551 .0294632
603.325 .0294583
604.097 .0294512
604.870 .0294427
605.642 .0294324
606.414 .0294224
607.185 .0294122
607.956 .0294014
608.727 .0293914
609.497 .0293819
610.267 .0293714
611.037 .0293610
611.806 .0293496
612.575 .0293368
613.344 .0293227
614.112 .0293085
614.880 .0292932
615.647 .0292780
616.414 .0292635
617.181 .0292499
617.948 .0292371
618.714 .0292261
619.480 .0292149
620.245 .0292042
621.011 .0291939
621.775 .0291825
622.540 .0291702
623.304 .0291577
624.068 .0291445
624.832 .0291301
625.595 .0291153
626.358 .0291005
627.120 .0290854
627.883 .0290700
628.645 .0290549
629.406 .0290389
630.168 .0290230
630.929 .0290065
631.689 .0289891
632.450 .0289712
633.210 .0289528
633.970 .0289333
634.729 .0289128
635.489 .0288913
636.248 .0288686
637.006 .0288446
637.765 .0288208
638.523 .0287970
639.280 .0287736
640.038 .0287508
640.795 .0287297
641.552 .0287095
642.309 .0286905
643.065 .0286723
643.821 .0286549
644.577 .0286386
645.332 .0286229
646.088 .0286076
646.843 .0285926
647.597 .0285785
648.352 .0285649
649.106 .0285515
649.860 .0285385
650.613 .0285256
651.367 .0285133
652.120 .0285015
652.872 .0284903
653.625 .0284791
654.377 .0284677
655.129 .0284560
655.881 .0284427
656.632 .0284275
657.384 .0284106
658.135 .0283925
658.885 .0283737
659.636 .0283549
660.386 .0283362
661.136 .0283183
661.885 .0283018
662.635 .0282868
663.384 .0282722
664.133 .0282582
664.881 .0282442
665.630 .0282298
666.378 .0282152
667.126 .0282000
667.874 .0281850
668.621 .0281712
669.368 .0281580
670.115 .0281460
670.862 .0281351
671.608 .0281255
672.354 .0281172
673.100 .0281100
673.846 .0281036
674.591 .0280977
675.337 .0280927
676.082 .0280885
676.826 .0280846
677.571 .0280810
678.315 .0280774
679.059 .0280731
679.803 .0280689
680.547 .0280635
681.290 .0280569
682.033 .0280496
682.776 .0280416
683.518 .0280329
684.261 .0280231
685.003 .0280131
685.745 .0280027
686.487 .0279922
687.228 .0279816
687.969 .0279705
688.710 .0279595
689.451 .0279486
690.192 .0279373
690.932 .0279261
691.672 .0279152
692.412 .0279043
693.152 .0278942
693.891 .0278848
694.630 .0278761
695.369 .0278678
696.108 .0278599
696.846 .0278524
697.585 .0278441
698.323 .0278346
699.061 .0278232
699.798 .0278098
700.536 .0277940
701.273 .0277757
702.010 .0277559
702.746 .0277351
703.483 .0277140
704.219 .0276933
704.955 .0276737
705.691 .0276553
706.427 .0276379
707.162 .0276213
707.897 .0276051
708.632 .0275887
709.367 .0275715
710.101 .0275536
710.835 .0275356
711.569 .0275177
712.303 .0274996
713.037 .0274823
713.770 .0274659
714.503 .0274496
715.236 .0274334
715.969 .0274169
716.702 .0274002
717.434 .0273826
718.166 .0273636
718.898 .0273432
719.629 .0273217
720.361 .0272992
721.092 .0272758
721.823 .0272524
722.554 .0272287
723.284 .0272050
724.014 .0271814
724.744 .0271580
725.474 .0271352
726.204 .0271131
726.933 .0270918
727.662 .0270705
728.391 .0270497
729.120 .0270287
729.849 .0270076
730.577 .0269869
731.305 .0269661
732.033 .0269451
732.760 .0269241
733.488 .0269035
734.215 .0268829
734.942 .0268631
735.669 .0268440
736.395 .0268254
737.122 .0268076
737.848 .0267895
738.573 .0267711
739.299 .0267526
740.024 .0267346
740.750 .0267163
741.474 .0266982
742.199 .0266806
742.924 .0266634
743.648 .0266470
744.372 .0266310
745.096 .0266160
745.819 .0266013
746.543 .0265870
747.266 .0265725
747.989 .0265583
748.711 .0265447
749.434 .0265314
750.156 .0265191
750.878 .0265073
751.599 .0264968
752.321 .0264865
753.042 .0264765
753.763 .0264669
754.484 .0264570
755.205 .0264465
755.925 .0264353
756.645 .0264240
757.365 .0264122
758.085 .0264001
758.804 .0263876
759.523 .0263744
760.242 .0263608
760.961 .0263460
761.679 .0263301
762.397 .0263130
763.115 .0262951
763.833 .0262756
764.551 .0262551
765.268 .0262337
765.985 .0262113
766.702 .0261883
767.418 .0261647
768.134 .0261410
768.850 .0261174
769.566 .0260938
770.282 .0260709
770.997 .0260488
771.712 .0260275
772.427 .0260066
773.142 .0259864
773.856 .0259665
774.570 .0259470
775.284 .0259280
775.998 .0259096
776.711 .0258926
777.424 .0258769
778.137 .0258626
778.849 .0258496
779.562 .0258378
780.274 .0258269
780.986 .0258162
781.697 .0258056
782.409 .0257950
783.120 .0257848
783.831 .0257753
784.541 .0257666
785.252 .0257595
785.962 .0257537
786.671 .0257488
787.381 .0257440
788.090 .0257387
788.799 .0257319
789.508 .0257231
790.217 .0257124
790.925 .0257000
791.633 .0256864
792.341 .0256724
793.048 .0256583
793.755 .0256445
794.462 .0256313
795.169 .0256187
795.875 .0256066
796.581 .0255948
797.287 .0255831
797.993 .0255716
798.698 .0255609
799.403 .0255509
800.108 .0255422
800.812 .0255352
801.517 .0255301
802.221 .0255265
802.924 .0255241
803.628 .0255227
804.331 .0255219
805.034 .0255212
805.736 .0255194
806.439 .0255165
807.141 .0255124
807.843 .0255069
808.544 .0255002
809.245 .0254925
809.946 .0254841
810.647 .0254755
811.347 .0254663
812.047 .0254568
812.747 .0254472
813.447 .0254376
814.146 .0254278
814.845 .0254185
815.543 .0254094
816.242 .0254010
816.940 .0253937
817.638 .0253884
818.335 .0253846
819.032 .0253825
819.729 .0253815
820.426 .0253809
821.122 .0253801
821.818 .0253785
822.514 .0253751
823.209 .0253708
823.905 .0253654
824.599 .0253586
825.294 .0253508
825.988 .0253426
826.682 .0253339
827.376 .0253248
828.069 .0253150
828.762 .0253041
829.455 .0252916
830.147 .0252777
830.840 .0252622
831.531 .0252459
832.223 .0252296
832.914 .0252136
833.605 .0251985
834.296 .0251850
834.986 .0251728
835.676 .0251623
836.366 .0251531
837.055 .0251452
837.744 .0251378
838.433 .0251308
839.121 .0251239
839.809 .0251175
840.497 .0251118
841.185 .0251073
841.872 .0251036
842.559 .0251011
843.245 .0250995
843.932 .0250987
844.617 .0250981
845.303 .0250978
845.988 .0250971
846.673 .0250958
847.358 .0250939
848.042 .0250916
848.726 .0250884
849.410 .0250852
850.093 .0250813
850.776 .0250768
851.459 .0250715
852.141 .0250654
852.823 .0250581
853.505 .0250500
854.186 .0250410
854.867 .0250309
855.548 .0250203
856.228 .0250095
856.908 .0249982
857.588 .0249867
858.267 .0249747
858.946 .0249622
859.625 .0249494
860.303 .0249365
860.981 .0249234
861.659 .0249105
862.336 .0248983
863.013 .0248868
863.690 .0248755
864.366 .0248645
865.042 .0248535
865.718 .0248421
866.393 .0248302
867.068 .0248173
867.743 .0248037
868.417 .0247898
869.091 .0247756
869.765 .0247616
870.438 .0247479
871.111 .0247348
871.783 .0247220
872.456 .0247093
873.127 .0246971
873.799 .0246847
874.470 .0246722
875.141 .0246602
875.811 .0246487
876.481 .0246378
877.151 .0246278
877.820 .0246191
878.489 .0246114
879.158 .0246043
879.826 .0245975
880.494 .0245905
881.162 .0245832
881.829 .0245752
882.496 .0245660
883.163 .0245562
883.829 .0245460
884.495 .0245353
885.160 .0245251
885.825 .0245152
886.490 .0245058
887.154 .0244967
887.818 .0244876
888.482 .0244783
889.145 .0244684
889.808 .0244582
890.471 .0244475
891.133 .0244369
891.795 .0244263
892.456 .0244154
893.117 .0244052
893.778 .0243949
894.439 .0243842
895.099 .0243726
895.758 .0243600
896.417 .0243459
897.076 .0243305
897.735 .0243141
898.393 .0242970
899.051 .0242800
899.708 .0242633
900.365 .0242470
901.022 .0242316
901.678 .0242173
902.334 .0242042
902.990 .0241923
903.645 .0241823
904.300 .0241736
904.954 .0241667
905.608 .0241613
906.262 .0241571
906.915 .0241535
907.568 .0241500
908.221 .0241462
908.873 .0241417
909.525 .0241364
910.176 .0241299
910.828 .0241226
911.478 .0241145
912.129 .0241055
912.778 .0240951
913.428 .0240830
914.077 .0240694
914.726 .0240537
915.375 .0240357
916.023 .0240159
916.670 .0239944
917.318 .0239723
917.964 .0239499
918.611 .0239278
919.257 .0239061
919.903 .0238852
920.548 .0238648
921.193 .0238451
921.838 .0238259
922.482 .0238070
923.126 .0237885
923.770 .0237711
924.413 .0237545
925.056 .0237390
925.698 .0237250
926.340 .0237127
926.982 .0237018
927.623 .0236919
928.264 .0236821
928.904 .0236727
929.544 .0236632
930.184 .0236532
930.823 .0236425
931.462 .0236311
932.101 .0236191
932.739 .0236062
933.377 .0235930
934.014 .0235789
934.651 .0235641
935.288 .0235490
935.924 .0235331
936.560 .0235170
937.196 .0235007
937.831 .0234843
938.466 .0234677
939.100 .0234510
939.734 .0234339
940.368 .0234161
941.001 .0233981
941.634 .0233798
942.266 .0233612
942.899 .0233426
943.530 .0233239
944.162 .0233045
944.793 .0232854
945.423 .0232657
946.053 .0232455
946.683 .0232251
947.313 .0232040
947.942 .0231825
948.571 .0231605
949.199 .0231386
949.827 .0231168
950.455 .0230955
951.082 .0230749
951.709 .0230549
952.335 .0230354
952.961 .0230167
953.587 .0229984
954.212 .0229806
954.837 .0229629
955.462 .0229450
956.086 .0229272
956.710 .0229098
957.334 .0228932
957.957 .0228776
958.579 .0228630
959.202 .0228498
959.824 .0228375
960.445 .0228262
961.067 .0228151
961.688 .0228046
962.308 .0227941
962.928 .0227840
963.548 .0227737
964.168 .0227638
964.787 .0227547
965.406 .0227466
966.024 .0227398
966.642 .0227338
967.260 .0227282
967.877 .0227226
968.494 .0227162
969.110 .0227092
969.727 .0227006
970.342 .0226912
970.958 .0226810
971.573 .0226709
972.188 .0226613
972.802 .0226528
973.416 .0226456
974.030 .0226396
974.643 .0226343
975.256 .0226291
975.869 .0226238
976.481 .0226184
977.093 .0226130
977.705 .0226080
978.316 .0226037
978.927 .0226008
979.538 .0225990
980.148 .0225986
980.758 .0225995
981.367 .0226013
981.977 .0226033
982.586 .0226053
983.194 .0226072
983.802 .0226089
984.410 .0226109
985.018 .0226128
985.625 .0226150
986.232 .0226178
986.838 .0226209
987.445 .0226238
988.050 .0226268
988.656 .0226295
989.261 .0226314
989.866 .0226324
990.471 .0226327
991.075 .0226321
991.679 .0226311
992.282 .0226303
992.886 .0226296
993.489 .0226297
994.091 .0226301
994.694 .0226313
995.296 .0226335
995.897 .0226367
996.499 .0226403
997.100 .0226443
997.701 .0226489
998.301 .0226536
998.901 .0226585
999.501 .0226636
1000.101 .0226681
1000.700 .0226727
1001.299 .0226766
1001.898 .0226800
1002.496 .0226828
1003.094 .0226855
1003.692 .0226873
1004.289 .0226888
1004.887 .0226900
1005.484 .0226902
1006.080 .0226903
1006.677 .0226902
1007.273 .0226894
1007.868 .0226884
1008.464 .0226878
1009.059 .0226870
1009.654 .0226864
1010.249 .0226867
1010.843 .0226877
1011.437 .0226898
1012.031 .0226931
1012.625 .0226977
1013.218 .0227038
1013.811 .0227111
1014.404 .0227195
1014.997 .0227287
1015.589 .0227386
1016.181 .0227479
1016.773 .0227564
1017.365 .0227646
1017.956 .0227718
1018.547 .0227788
1019.138 .0227853
1019.728 .0227923
1020.319 .0227999
1020.909 .0228079
1021.499 .0228163
1022.088 .0228244
1022.678 .0228321
1023.267 .0228379
1023.856 .0228422
1024.445 .0228451
1025.033 .0228464
1025.621 .0228477
1026.209 .0228497
1026.797 .0228522
1027.385 .0228553
1027.972 .0228597
1028.560 .0228645
1029.147 .0228691
1029.734 .0228736
1030.320 .0228776
1030.907 .0228812
1031.493 .0228854
1032.079 .0228899
1032.665 .0228957
1033.250 .0229035
1033.836 .0229128
1034.421 .0229228
1035.006 .0229340
1035.591 .0229448
1036.176 .0229548
1036.761 .0229640
1037.345 .0229726
1037.929 .0229798
1038.514 .0229855
1039.097 .0229904
1039.681 .0229948
1040.265 .0229985
1040.848 .0230013
1041.432 .0230030
1042.015 .0230040
1042.598 .0230039
1043.181 .0230028
1043.764 .0230000
1044.346 .0229966
1044.929 .0229928
1045.511 .0229882
1046.094 .0229841
1046.676 .0229817
1047.258 .0229809
1047.840 .0229821
1048.422 .0229868
1049.003 .0229932
1049.585 .0230014
1050.166 .0230119
1050.748 .0230237
1051.329 .0230360
1051.910 .0230488
1052.491 .0230610
1053.072 .0230723
1053.653 .0230843
1054.234 .0230962
1054.815 .0231071
1055.396 .0231189
1055.976 .0231302
1056.557 .0231406
1057.138 .0231502
1057.718 .0231589
1058.298 .0231659
1058.879 .0231726
1059.459 .0231787
1060.039 .0231835
1060.620 .0231866
1061.200 .0231892
1061.780 .0231904
1062.360 .0231900
1062.940 .0231879
1063.520 .0231827
1064.101 .0231754
1064.681 .0231657
1065.261 .0231529
1065.841 .0231378
1066.421 .0231225
1067.001 .0231062
1067.581 .0230891
1068.161 .0230712
1068.741 .0230526
1069.321 .0230340
1069.901 .0230156
1070.482 .0229980
1071.062 .0229807
1071.642 .0229658
1072.222 .0229542
1072.803 .0229449
1073.383 .0229400
1073.963 .0229376
1074.544 .0229383
1075.124 .0229415
1075.705 .0229449
1076.286 .0229470
1076.866 .0229491
1077.447 .0229511
1078.028 .0229523
1078.609 .0229542
1079.190 .0229566
1079.771 .0229602
1080.352 .0229656
1080.934 .0229719
1081.515 .0229789
1082.097 .0229868
1082.679 .0229961
1083.260 .0230050
1083.842 .0230144
1084.424 .0230241
1085.007 .0230334
1085.589 .0230449
1086.172 .0230560
1086.754 .0230657
1087.337 .0230749
1087.920 .0230837
1088.503 .0230912
1089.087 .0230984
1089.670 .0231048
1090.254 .0231116
1090.838 .0231183
1091.422 .0231245
1092.006 .0231291
1092.590 .0231330
1093.175 .0231357
1093.760 .0231361
1094.345 .0231346
1094.930 .0231326
1095.516 .0231297
1096.102 .0231282
1096.688 .0231271
1097.274 .0231266
1097.860 .0231256
1098.447 .0231225
1099.034 .0231157
1099.622 .0231040
1100.209 .0230874
1100.797 .0230661
1101.385 .0230419
1101.973 .0230165
1102.562 .0229919
1103.151 .0229708
1103.740 .0229552
1104.330 .0229444
1104.920 .0229368
1105.510 .0229307
1106.101 .0229265
1106.691 .0229215
1107.283 .0229155
1107.874 .0229088
1108.466 .0229041
1109.058 .0229007
1109.651 .0229000
1110.244 .0229005
1110.837 .0229029
1111.431 .0229058
1112.025 .0229095
1112.620 .0229128
1113.215 .0229169
1113.810 .0229213
1114.406 .0229265
1115.002 .0229329
1115.599 .0229426
1116.196 .0229510
1116.793 .0229603
1117.391 .0229697
1117.989 .0229782
1118.588 .0229837
1119.187 .0229858
1119.787 .0229860
1120.387 .0229840
1120.988 .0229806
1121.589 .0229745
1122.190 .0229643
1122.793 .0229521
1123.395 .0229365
1123.998 .0229178
1124.602 .0228989
1125.206 .0228804
1125.811 .0228627
1126.416 .0228494
1127.022 .0228435
1127.628 .0228431
1128.235 .0228489
1128.843 .0228610
1129.451 .0228797
1130.059 .0229008
1130.669 .0229245
1131.278 .0229492
1131.889 .0229766
1132.500 .0230059
1133.112 .0230333
1133.724 .0230597
1134.337 .0230874
1134.950 .0231131
1135.564 .0231388
1136.179 .0231638
1136.795 .0231924
1137.411 .0232212
1138.028 .0232512
1138.645 .0232837
1139.263 .0233167
1139.882 .0233536
1140.502 .0233997
1141.122 .0234548
1141.743 .0235317
1142.365 .0236258
1142.987 .0236108
1143.611 .0238510
1144.235 .0239555
1144.859 .0242742
1145.485 .0243622
