Measurement Sequence started on: 10-20-44-796
Integration time: 35
Scans to Average: 2 
>>>>>Begin Spectral Data<<<<<
432.953 .0336334
433.882 .0328074
434.810 .0325465
435.737 .0340874
436.662 .0344372
437.586 .0342546
438.509 .0344253
439.431 .0345837
440.351 .0347173
441.269 .0347962
442.187 .0348624
443.103 .0349121
444.018 .0349431
444.932 .0349709
445.844 .0349621
446.756 .0349271
447.666 .0348648
448.575 .0347858
449.482 .0347092
450.388 .0346363
451.294 .0345716
452.198 .0345261
453.100 .0344963
454.002 .0344825
454.902 .0344768
455.801 .0344812
456.699 .0344897
457.596 .0345069
458.492 .0345267
459.387 .0345421
460.280 .0345535
461.172 .0345630
462.064 .0345693
462.954 .0345734
463.843 .0345691
464.730 .0345594
465.617 .0345463
466.503 .0345300
467.387 .0345039
468.271 .0344677
469.153 .0344228
470.035 .0343698
470.915 .0343087
471.794 .0342337
472.673 .0341513
473.550 .0340669
474.426 .0339876
475.301 .0339177
476.175 .0338586
477.048 .0338094
477.920 .0337682
478.791 .0337350
479.661 .0337023
480.530 .0336699
481.398 .0336383
482.266 .0336105
483.132 .0335856
483.997 .0335664
484.861 .0335566
485.724 .0335590
486.587 .0335764
487.448 .0336021
488.308 .0336291
489.168 .0336559
490.026 .0336754
490.884 .0336880
491.741 .0336914
492.597 .0336916
493.452 .0336875
494.306 .0336854
495.159 .0336833
496.011 .0336822
496.862 .0336783
497.713 .0336736
498.562 .0336586
499.411 .0336327
500.259 .0335930
501.106 .0335403
501.952 .0334780
502.798 .0334092
503.642 .0333326
504.486 .0332539
505.329 .0331700
506.171 .0330844
507.012 .0329911
507.852 .0328969
508.692 .0327981
509.531 .0327004
510.369 .0326031
511.206 .0325094
512.043 .0324190
512.878 .0323341
513.713 .0322486
514.547 .0321622
515.381 .0320718
516.213 .0319734
517.045 .0318655
517.876 .0317516
518.706 .0316291
519.536 .0315075
520.365 .0313829
521.193 .0312605
522.020 .0311358
522.847 .0310028
523.673 .0308535
524.498 .0306832
525.323 .0304915
526.146 .0302803
526.969 .0300547
527.792 .0298223
528.614 .0295911
529.435 .0293715
530.255 .0291690
531.075 .0289857
531.894 .0288253
532.712 .0286789
533.530 .0285406
534.347 .0284147
535.163 .0282953
535.979 .0281838
536.794 .0280903
537.608 .0280093
538.422 .0279451
539.235 .0278911
540.048 .0278457
540.860 .0278024
541.671 .0277681
542.481 .0277422
543.292 .0277208
544.101 .0277114
544.910 .0277217
545.718 .0277474
546.526 .0277979
547.333 .0278659
548.139 .0279448
548.945 .0280288
549.750 .0281134
550.555 .0281877
551.359 .0282544
552.162 .0283170
552.965 .0283794
553.768 .0284400
554.569 .0285035
555.371 .0285638
556.171 .0286206
556.972 .0286743
557.771 .0287182
558.570 .0287501
559.369 .0287727
560.167 .0287852
560.964 .0287943
561.761 .0288015
562.558 .0288099
563.354 .0288245
564.149 .0288496
564.944 .0288870
565.738 .0289349
566.532 .0289948
567.325 .0290649
568.118 .0291424
568.910 .0292243
569.702 .0293069
570.494 .0293911
571.285 .0294718
572.075 .0295493
572.865 .0296238
573.654 .0296964
574.443 .0297660
575.232 .0298353
576.020 .0299058
576.807 .0299765
577.594 .0300460
578.381 .0301148
579.167 .0301837
579.952 .0302555
580.738 .0303265
581.522 .0303973
582.307 .0304677
583.091 .0305380
583.874 .0306042
584.657 .0306675
585.440 .0307279
586.222 .0307858
587.004 .0308401
587.785 .0308899
588.566 .0309351
589.346 .0309755
590.126 .0310090
590.906 .0310360
591.685 .0310556
592.464 .0310680
593.242 .0310731
594.020 .0310729
594.797 .0310685
595.575 .0310608
596.351 .0310516
597.128 .0310413
597.904 .0310308
598.679 .0310212
599.454 .0310106
600.229 .0309999
601.004 .0309898
601.778 .0309785
602.551 .0309668
603.325 .0309556
604.097 .0309454
604.870 .0309363
605.642 .0309284
606.414 .0309208
607.185 .0309139
607.956 .0309082
608.727 .0309030
609.497 .0308968
610.267 .0308902
611.037 .0308827
611.806 .0308731
612.575 .0308622
613.344 .0308507
614.112 .0308376
614.880 .0308245
615.647 .0308107
616.414 .0307959
617.181 .0307805
617.948 .0307643
618.714 .0307467
619.480 .0307285
620.245 .0307087
621.011 .0306865
621.775 .0306622
622.540 .0306370
623.304 .0306109
624.068 .0305846
624.832 .0305585
625.595 .0305328
626.358 .0305069
627.120 .0304814
627.883 .0304553
628.645 .0304287
629.406 .0304015
630.168 .0303734
630.929 .0303447
631.689 .0303156
632.450 .0302866
633.210 .0302585
633.970 .0302319
634.729 .0302070
635.489 .0301831
636.248 .0301604
637.006 .0301384
637.765 .0301176
638.523 .0300973
639.280 .0300780
640.038 .0300592
640.795 .0300408
641.552 .0300227
642.309 .0300054
643.065 .0299885
643.821 .0299715
644.577 .0299544
645.332 .0299375
646.088 .0299195
646.843 .0299006
647.597 .0298812
648.352 .0298618
649.106 .0298428
649.860 .0298238
650.613 .0298048
651.367 .0297869
652.120 .0297699
652.872 .0297536
653.625 .0297379
654.377 .0297232
655.129 .0297091
655.881 .0296953
656.632 .0296819
657.384 .0296688
658.135 .0296553
658.885 .0296415
659.636 .0296269
660.386 .0296119
661.136 .0295959
661.885 .0295789
662.635 .0295621
663.384 .0295456
664.133 .0295291
664.881 .0295126
665.630 .0294960
666.378 .0294801
667.126 .0294640
667.874 .0294474
668.621 .0294303
669.368 .0294131
670.115 .0293960
670.862 .0293777
671.608 .0293594
672.354 .0293414
673.100 .0293232
673.846 .0293049
674.591 .0292869
675.337 .0292692
676.082 .0292519
676.826 .0292346
677.571 .0292176
678.315 .0292006
679.059 .0291837
679.803 .0291664
680.547 .0291495
681.290 .0291331
682.033 .0291169
682.776 .0291009
683.518 .0290859
684.261 .0290714
685.003 .0290575
685.745 .0290435
686.487 .0290301
687.228 .0290167
687.969 .0290027
688.710 .0289878
689.451 .0289723
690.192 .0289559
690.932 .0289392
691.672 .0289222
692.412 .0289053
693.152 .0288882
693.891 .0288708
694.630 .0288531
695.369 .0288351
696.108 .0288166
696.846 .0287975
697.585 .0287779
698.323 .0287587
699.061 .0287390
699.798 .0287198
700.536 .0287012
701.273 .0286827
702.010 .0286644
702.746 .0286452
703.483 .0286251
704.219 .0286043
704.955 .0285827
705.691 .0285604
706.427 .0285383
707.162 .0285170
707.897 .0284966
708.632 .0284775
709.367 .0284596
710.101 .0284425
710.835 .0284259
711.569 .0284091
712.303 .0283918
713.037 .0283742
713.770 .0283568
714.503 .0283394
715.236 .0283230
715.969 .0283078
716.702 .0282938
717.434 .0282814
718.166 .0282700
718.898 .0282589
719.629 .0282480
720.361 .0282366
721.092 .0282244
721.823 .0282113
722.554 .0281969
723.284 .0281816
724.014 .0281657
724.744 .0281489
725.474 .0281306
726.204 .0281113
726.933 .0280913
727.662 .0280702
728.391 .0280478
729.120 .0280247
729.849 .0280008
730.577 .0279770
731.305 .0279526
732.033 .0279285
732.760 .0279050
733.488 .0278822
734.215 .0278607
734.942 .0278404
735.669 .0278215
736.395 .0278044
737.122 .0277887
737.848 .0277745
738.573 .0277612
739.299 .0277485
740.024 .0277359
740.750 .0277234
741.474 .0277106
742.199 .0276976
742.924 .0276844
743.648 .0276714
744.372 .0276582
745.096 .0276449
745.819 .0276314
746.543 .0276174
747.266 .0276033
747.989 .0275892
748.711 .0275752
749.434 .0275618
750.156 .0275496
750.878 .0275386
751.599 .0275291
752.321 .0275218
753.042 .0275160
753.763 .0275114
754.484 .0275078
755.205 .0275045
755.925 .0275016
756.645 .0274985
757.365 .0274955
758.085 .0274925
758.804 .0274896
759.523 .0274864
760.242 .0274821
760.961 .0274768
761.679 .0274697
762.397 .0274603
763.115 .0274484
763.833 .0274339
764.551 .0274172
765.268 .0273987
765.985 .0273789
766.702 .0273580
767.418 .0273361
768.134 .0273136
768.850 .0272904
769.566 .0272662
770.282 .0272414
770.997 .0272164
771.712 .0271915
772.427 .0271675
773.142 .0271442
773.856 .0271222
774.570 .0271015
775.284 .0270825
775.998 .0270646
776.711 .0270477
777.424 .0270320
778.137 .0270169
778.849 .0270026
779.562 .0269895
780.274 .0269770
780.986 .0269655
781.697 .0269552
782.409 .0269456
783.120 .0269371
783.831 .0269294
784.541 .0269223
785.252 .0269158
785.962 .0269099
786.671 .0269039
787.381 .0268977
788.090 .0268918
788.799 .0268855
789.508 .0268780
790.217 .0268698
790.925 .0268601
791.633 .0268489
792.341 .0268367
793.048 .0268232
793.755 .0268086
794.462 .0267931
795.169 .0267769
795.875 .0267604
796.581 .0267439
797.287 .0267272
797.993 .0267102
798.698 .0266937
799.403 .0266774
800.108 .0266609
800.812 .0266448
801.517 .0266294
802.221 .0266146
802.924 .0266006
803.628 .0265871
804.331 .0265743
805.034 .0265622
805.736 .0265504
806.439 .0265388
807.141 .0265274
807.843 .0265157
808.544 .0265036
809.245 .0264907
809.946 .0264772
810.647 .0264626
811.347 .0264470
812.047 .0264307
812.747 .0264139
813.447 .0263971
814.146 .0263804
814.845 .0263647
815.543 .0263505
816.242 .0263377
816.940 .0263264
817.638 .0263164
818.335 .0263074
819.032 .0262986
819.729 .0262898
820.426 .0262807
821.122 .0262711
821.818 .0262607
822.514 .0262497
823.209 .0262385
823.905 .0262272
824.599 .0262157
825.294 .0262039
825.988 .0261920
826.682 .0261795
827.376 .0261659
828.069 .0261509
828.762 .0261341
829.455 .0261157
830.147 .0260959
830.840 .0260749
831.531 .0260531
832.223 .0260317
832.914 .0260109
833.605 .0259912
834.296 .0259729
834.986 .0259560
835.676 .0259408
836.366 .0259269
837.055 .0259137
837.744 .0259008
838.433 .0258876
839.121 .0258743
839.809 .0258606
840.497 .0258474
841.185 .0258345
841.872 .0258219
842.559 .0258105
843.245 .0258005
843.932 .0257915
844.617 .0257832
845.303 .0257756
845.988 .0257683
846.673 .0257606
847.358 .0257524
848.042 .0257435
848.726 .0257347
849.410 .0257258
850.093 .0257169
850.776 .0257080
851.459 .0256997
852.141 .0256909
852.823 .0256822
853.505 .0256730
854.186 .0256630
854.867 .0256521
855.548 .0256402
856.228 .0256277
856.908 .0256147
857.588 .0256013
858.267 .0255879
858.946 .0255750
859.625 .0255631
860.303 .0255513
860.981 .0255403
861.659 .0255303
862.336 .0255211
863.013 .0255125
863.690 .0255048
864.366 .0254979
865.042 .0254916
865.718 .0254864
866.393 .0254815
867.068 .0254767
867.743 .0254720
868.417 .0254670
869.091 .0254615
869.765 .0254554
870.438 .0254483
871.111 .0254405
871.783 .0254321
872.456 .0254232
873.127 .0254137
873.799 .0254041
874.470 .0253946
875.141 .0253847
875.811 .0253745
876.481 .0253639
877.151 .0253528
877.820 .0253415
878.489 .0253302
879.158 .0253192
879.826 .0253087
880.494 .0252990
881.162 .0252901
881.829 .0252818
882.496 .0252739
883.163 .0252661
883.829 .0252578
884.495 .0252491
885.160 .0252402
885.825 .0252316
886.490 .0252239
887.154 .0252172
887.818 .0252120
888.482 .0252077
889.145 .0252040
889.808 .0252004
890.471 .0251958
891.133 .0251909
891.795 .0251851
892.456 .0251787
893.117 .0251719
893.778 .0251656
894.439 .0251603
895.099 .0251555
895.758 .0251518
896.417 .0251485
897.076 .0251451
897.735 .0251419
898.393 .0251386
899.051 .0251355
899.708 .0251329
900.365 .0251314
901.022 .0251313
901.678 .0251328
902.334 .0251353
902.990 .0251386
903.645 .0251421
904.300 .0251456
904.954 .0251482
905.608 .0251495
906.262 .0251503
906.915 .0251506
907.568 .0251504
908.221 .0251503
908.873 .0251503
909.525 .0251505
910.176 .0251505
910.828 .0251502
911.478 .0251488
912.129 .0251458
912.778 .0251413
913.428 .0251353
914.077 .0251276
914.726 .0251186
915.375 .0251083
916.023 .0250974
916.670 .0250862
917.318 .0250748
917.964 .0250627
918.611 .0250507
919.257 .0250380
919.903 .0250244
920.548 .0250102
921.193 .0249957
921.838 .0249809
922.482 .0249660
923.126 .0249516
923.770 .0249377
924.413 .0249246
925.056 .0249129
925.698 .0249021
926.340 .0248929
926.982 .0248847
927.623 .0248776
928.264 .0248716
928.904 .0248666
929.544 .0248620
930.184 .0248576
930.823 .0248529
931.462 .0248478
932.101 .0248418
932.739 .0248351
933.377 .0248279
934.014 .0248200
934.651 .0248120
935.288 .0248042
935.924 .0247968
936.560 .0247898
937.196 .0247831
937.831 .0247768
938.466 .0247698
939.100 .0247619
939.734 .0247526
940.368 .0247416
941.001 .0247294
941.634 .0247160
942.266 .0247019
942.899 .0246874
943.530 .0246733
944.162 .0246595
944.793 .0246461
945.423 .0246333
946.053 .0246202
946.683 .0246063
947.313 .0245916
947.942 .0245754
948.571 .0245583
949.199 .0245405
949.827 .0245226
950.455 .0245051
951.082 .0244883
951.709 .0244727
952.335 .0244581
952.961 .0244450
953.587 .0244331
954.212 .0244214
954.837 .0244103
955.462 .0243991
956.086 .0243878
956.710 .0243767
957.334 .0243662
957.957 .0243561
958.579 .0243466
959.202 .0243374
959.824 .0243286
960.445 .0243200
961.067 .0243118
961.688 .0243036
962.308 .0242954
962.928 .0242872
963.548 .0242787
964.168 .0242694
964.787 .0242596
965.406 .0242490
966.024 .0242378
966.642 .0242258
967.260 .0242135
967.877 .0242006
968.494 .0241875
969.110 .0241745
969.727 .0241618
970.342 .0241489
970.958 .0241359
971.573 .0241227
972.188 .0241092
972.802 .0240955
973.416 .0240821
974.030 .0240683
974.643 .0240552
975.256 .0240428
975.869 .0240307
976.481 .0240190
977.093 .0240087
977.705 .0239997
978.316 .0239920
978.927 .0239851
979.538 .0239789
980.148 .0239725
980.758 .0239665
981.367 .0239603
981.977 .0239540
982.586 .0239479
983.194 .0239421
983.802 .0239366
984.410 .0239313
985.018 .0239258
985.625 .0239201
986.232 .0239135
986.838 .0239062
987.445 .0238967
988.050 .0238851
988.656 .0238723
989.261 .0238588
989.866 .0238449
990.471 .0238318
991.075 .0238203
991.679 .0238106
992.282 .0238027
992.886 .0237964
993.489 .0237915
994.091 .0237875
994.694 .0237840
995.296 .0237805
995.897 .0237771
996.499 .0237747
997.100 .0237735
997.701 .0237739
998.301 .0237768
998.901 .0237817
999.501 .0237886
1000.101 .0237971
1000.700 .0238062
1001.299 .0238146
1001.898 .0238213
1002.496 .0238259
1003.094 .0238280
1003.692 .0238274
1004.289 .0238244
1004.887 .0238199
1005.484 .0238149
1006.080 .0238095
1006.677 .0238042
1007.273 .0237992
1007.868 .0237947
1008.464 .0237897
1009.059 .0237834
1009.654 .0237758
1010.249 .0237670
1010.843 .0237569
1011.437 .0237456
1012.031 .0237341
1012.625 .0237230
1013.218 .0237129
1013.811 .0237046
1014.404 .0236984
1014.997 .0236941
1015.589 .0236913
1016.181 .0236899
1016.773 .0236890
1017.365 .0236880
1017.956 .0236864
1018.547 .0236839
1019.138 .0236814
1019.728 .0236789
1020.319 .0236763
1020.909 .0236747
1021.499 .0236746
1022.088 .0236755
1022.678 .0236766
1023.267 .0236781
1023.856 .0236792
1024.445 .0236795
1025.033 .0236791
1025.621 .0236775
1026.209 .0236753
1026.797 .0236722
1027.385 .0236688
1027.972 .0236660
1028.560 .0236637
1029.147 .0236612
1029.734 .0236590
1030.320 .0236568
1030.907 .0236533
1031.493 .0236497
1032.079 .0236460
1032.665 .0236425
1033.250 .0236393
1033.836 .0236358
1034.421 .0236313
1035.006 .0236261
1035.591 .0236202
1036.176 .0236122
1036.761 .0236028
1037.345 .0235929
1037.929 .0235813
1038.514 .0235695
1039.097 .0235587
1039.681 .0235497
1040.265 .0235424
1040.848 .0235373
1041.432 .0235327
1042.015 .0235290
1042.598 .0235259
1043.181 .0235230
1043.764 .0235203
1044.346 .0235196
1044.929 .0235200
1045.511 .0235215
1046.094 .0235253
1046.676 .0235315
1047.258 .0235382
1047.840 .0235465
1048.422 .0235539
1049.003 .0235604
1049.585 .0235640
1050.166 .0235644
1050.748 .0235616
1051.329 .0235572
1051.910 .0235500
1052.491 .0235405
1053.072 .0235297
1053.653 .0235188
1054.234 .0235064
1054.815 .0234940
1055.396 .0234802
1055.976 .0234664
1056.557 .0234509
1057.138 .0234344
1057.718 .0234175
1058.298 .0234022
1058.879 .0233879
1059.459 .0233760
1060.039 .0233670
1060.620 .0233596
1061.200 .0233522
1061.780 .0233450
1062.360 .0233362
1062.940 .0233268
1063.520 .0233156
1064.101 .0233036
1064.681 .0232917
1065.261 .0232828
1065.841 .0232739
1066.421 .0232676
1067.001 .0232620
1067.581 .0232551
1068.161 .0232457
1068.741 .0232334
1069.321 .0232162
1069.901 .0231965
1070.482 .0231757
1071.062 .0231556
1071.642 .0231365
1072.222 .0231216
1072.803 .0231092
1073.383 .0231021
1073.963 .0230987
1074.544 .0230977
1075.124 .0230965
1075.705 .0230958
1076.286 .0230942
1076.866 .0230922
1077.447 .0230903
1078.028 .0230889
1078.609 .0230888
1079.190 .0230913
1079.771 .0230963
1080.352 .0231036
1080.934 .0231124
1081.515 .0231245
1082.097 .0231384
1082.679 .0231522
1083.260 .0231639
1083.842 .0231739
1084.424 .0231823
1085.007 .0231886
1085.589 .0231924
1086.172 .0231939
1086.754 .0231952
1087.337 .0231953
1087.920 .0231961
1088.503 .0231961
1089.087 .0231957
1089.670 .0231949
1090.254 .0231923
1090.838 .0231867
1091.422 .0231798
1092.006 .0231706
1092.590 .0231588
1093.175 .0231457
1093.760 .0231322
1094.345 .0231166
1094.930 .0231025
1095.516 .0230904
1096.102 .0230793
1096.688 .0230681
1097.274 .0230589
1097.860 .0230472
1098.447 .0230366
1099.034 .0230263
1099.622 .0230135
1100.209 .0230006
1100.797 .0229887
1101.385 .0229748
1101.973 .0229604
1102.562 .0229474
1103.151 .0229365
1103.740 .0229270
1104.330 .0229220
1104.920 .0229193
1105.510 .0229216
1106.101 .0229300
1106.691 .0229416
1107.283 .0229549
1107.874 .0229716
1108.466 .0229850
1109.058 .0229956
1109.651 .0230044
1110.244 .0230092
1110.837 .0230127
1111.431 .0230166
1112.025 .0230213
1112.620 .0230282
1113.215 .0230370
1113.810 .0230475
1114.406 .0230578
1115.002 .0230694
1115.599 .0230768
1116.196 .0230760
1116.793 .0230727
1117.391 .0230655
1117.989 .0230550
1118.588 .0230452
1119.187 .0230354
1119.787 .0230266
1120.387 .0230185
1120.988 .0230098
1121.589 .0229967
1122.190 .0229823
1122.793 .0229654
1123.395 .0229440
1123.998 .0229215
1124.602 .0229021
1125.206 .0228839
1125.811 .0228711
1126.416 .0228658
1127.022 .0228673
1127.628 .0228703
1128.235 .0228783
1128.843 .0228910
1129.451 .0229099
1130.059 .0229362
1130.669 .0229729
1131.278 .0230210
1131.889 .0230856
1132.500 .0231607
1133.112 .0232450
1133.724 .0233324
1134.337 .0234216
1134.950 .0235037
1135.564 .0235769
1136.179 .0236461
1136.795 .0237144
1137.411 .0237811
1138.028 .0238553
1138.645 .0239333
1139.263 .0240195
1139.882 .0241044
1140.502 .0241946
1141.122 .0242913
1141.743 .0243923
1142.365 .0244941
1142.987 .0244305
1143.611 .0246702
1144.235 .0249390
1144.859 .0250369
1145.485 .0250225
