Measurement Sequence started on: 10-20-44-796
Integration time: 35
Scans to Average: 2 
>>>>>Begin Spectral Data<<<<<
432.953 .0296613
433.882 .0393816
434.810 .0379871
435.737 .0342205
436.662 .0370872
437.586 .0373010
438.509 .0377835
439.431 .0379717
440.351 .0382000
441.269 .0384791
442.187 .0386272
443.103 .0387559
444.018 .0388127
444.932 .0388728
445.844 .0388895
446.756 .0388777
447.666 .0388310
448.575 .0387451
449.482 .0386430
450.388 .0385270
451.294 .0383993
452.198 .0382875
453.100 .0381906
454.002 .0381121
454.902 .0380231
455.801 .0379248
456.699 .0378121
457.596 .0376902
458.492 .0375479
459.387 .0373942
460.280 .0372473
461.172 .0371148
462.064 .0369932
462.954 .0368947
463.843 .0368208
464.730 .0367629
465.617 .0367135
466.503 .0366712
467.387 .0366197
468.271 .0365642
469.153 .0365048
470.035 .0364477
470.915 .0363999
471.794 .0363641
472.673 .0363417
473.550 .0363362
474.426 .0363478
475.301 .0363641
476.175 .0363777
477.048 .0363884
477.920 .0363825
478.791 .0363612
479.661 .0363256
480.530 .0362838
481.398 .0362383
482.266 .0361948
483.132 .0361595
483.997 .0361299
484.861 .0361043
485.724 .0360804
486.587 .0360565
487.448 .0360283
488.308 .0359920
489.168 .0359483
490.026 .0359002
490.884 .0358543
491.741 .0358055
492.597 .0357604
493.452 .0357191
494.306 .0356797
495.159 .0356369
496.011 .0355891
496.862 .0355373
497.713 .0354764
498.562 .0354060
499.411 .0353296
500.259 .0352461
501.106 .0351591
501.952 .0350678
502.798 .0349742
503.642 .0348786
504.486 .0347751
505.329 .0346625
506.171 .0345463
507.012 .0344224
507.852 .0342928
508.692 .0341597
509.531 .0340262
510.369 .0338968
511.206 .0337700
512.043 .0336437
512.878 .0335159
513.713 .0333827
514.547 .0332359
515.381 .0330746
516.213 .0329068
517.045 .0327285
517.876 .0325423
518.706 .0323662
519.536 .0321949
520.365 .0320322
521.193 .0318806
522.020 .0317387
522.847 .0315970
523.673 .0314477
524.498 .0312802
525.323 .0310946
526.146 .0308980
526.969 .0306999
527.792 .0304997
528.614 .0303199
529.435 .0301623
530.255 .0300230
531.075 .0299020
531.894 .0298021
532.712 .0297093
533.530 .0296212
534.347 .0295297
535.163 .0294358
535.979 .0293348
536.794 .0292527
537.608 .0291877
538.422 .0291428
539.235 .0291237
540.048 .0291209
540.860 .0291325
541.671 .0291607
542.481 .0291918
543.292 .0292240
544.101 .0292561
544.910 .0292908
545.718 .0293159
546.526 .0293445
547.333 .0293785
548.139 .0294188
548.945 .0294612
549.750 .0295029
550.555 .0295390
551.359 .0295699
552.162 .0296007
552.965 .0296267
553.768 .0296531
554.569 .0296794
555.371 .0297083
556.171 .0297443
556.972 .0297817
557.771 .0298249
558.570 .0298735
559.369 .0299304
560.167 .0299950
560.964 .0300625
561.761 .0301338
562.558 .0302123
563.354 .0303034
564.149 .0303996
564.944 .0305019
565.738 .0306075
566.532 .0307156
567.325 .0308210
568.118 .0309227
568.910 .0310171
569.702 .0311037
570.494 .0311866
571.285 .0312568
572.075 .0313182
572.865 .0313764
573.654 .0314290
574.443 .0314811
575.232 .0315339
576.020 .0315849
576.807 .0316310
577.594 .0316764
578.381 .0317188
579.167 .0317601
579.952 .0318022
580.738 .0318425
581.522 .0318845
582.307 .0319309
583.091 .0319802
583.874 .0320295
584.657 .0320814
585.440 .0321353
586.222 .0321839
587.004 .0322274
587.785 .0322634
588.566 .0322939
589.346 .0323225
590.126 .0323474
590.906 .0323688
591.685 .0323887
592.464 .0324063
593.242 .0324192
594.020 .0324261
594.797 .0324263
595.575 .0324175
596.351 .0324009
597.128 .0323788
597.904 .0323509
598.679 .0323212
599.454 .0322916
600.229 .0322637
601.004 .0322388
601.778 .0322155
602.551 .0321921
603.325 .0321693
604.097 .0321457
604.870 .0321206
605.642 .0320942
606.414 .0320686
607.185 .0320447
607.956 .0320238
608.727 .0320066
609.497 .0319925
610.267 .0319812
611.037 .0319722
611.806 .0319630
612.575 .0319534
613.344 .0319409
614.112 .0319257
614.880 .0319076
615.647 .0318865
616.414 .0318644
617.181 .0318428
617.948 .0318219
618.714 .0318023
619.480 .0317850
620.245 .0317701
621.011 .0317559
621.775 .0317433
622.540 .0317309
623.304 .0317186
624.068 .0317066
624.832 .0316939
625.595 .0316811
626.358 .0316698
627.120 .0316590
627.883 .0316492
628.645 .0316411
629.406 .0316333
630.168 .0316234
630.929 .0316124
631.689 .0315994
632.450 .0315839
633.210 .0315656
633.970 .0315465
634.729 .0315270
635.489 .0315082
636.248 .0314893
637.006 .0314708
637.765 .0314543
638.523 .0314380
639.280 .0314204
640.038 .0314019
640.795 .0313829
641.552 .0313638
642.309 .0313442
643.065 .0313263
643.821 .0313094
644.577 .0312938
645.332 .0312781
646.088 .0312620
646.843 .0312451
647.597 .0312266
648.352 .0312062
649.106 .0311851
649.860 .0311635
650.613 .0311408
651.367 .0311182
652.120 .0310972
652.872 .0310770
653.625 .0310571
654.377 .0310370
655.129 .0310175
655.881 .0309981
656.632 .0309785
657.384 .0309582
658.135 .0309382
658.885 .0309188
659.636 .0308985
660.386 .0308772
661.136 .0308555
661.885 .0308327
662.635 .0308089
663.384 .0307839
664.133 .0307576
664.881 .0307305
665.630 .0307029
666.378 .0306753
667.126 .0306477
667.874 .0306199
668.621 .0305921
669.368 .0305645
670.115 .0305376
670.862 .0305101
671.608 .0304833
672.354 .0304576
673.100 .0304329
673.846 .0304103
674.591 .0303895
675.337 .0303710
676.082 .0303552
676.826 .0303418
677.571 .0303296
678.315 .0303182
679.059 .0303070
679.803 .0302948
680.547 .0302812
681.290 .0302659
682.033 .0302483
682.776 .0302294
683.518 .0302102
684.261 .0301901
685.003 .0301703
685.745 .0301510
686.487 .0301317
687.228 .0301123
687.969 .0300924
688.710 .0300716
689.451 .0300501
690.192 .0300277
690.932 .0300053
691.672 .0299828
692.412 .0299614
693.152 .0299414
693.891 .0299228
694.630 .0299061
695.369 .0298902
696.108 .0298751
696.846 .0298600
697.585 .0298446
698.323 .0298284
699.061 .0298116
699.798 .0297942
700.536 .0297763
701.273 .0297575
702.010 .0297383
702.746 .0297192
703.483 .0297002
704.219 .0296811
704.955 .0296623
705.691 .0296438
706.427 .0296258
707.162 .0296086
707.897 .0295927
708.632 .0295779
709.367 .0295641
710.101 .0295508
710.835 .0295378
711.569 .0295247
712.303 .0295111
713.037 .0294969
713.770 .0294827
714.503 .0294684
715.236 .0294536
715.969 .0294384
716.702 .0294235
717.434 .0294084
718.166 .0293927
718.898 .0293767
719.629 .0293605
720.361 .0293439
721.092 .0293271
721.823 .0293103
722.554 .0292934
723.284 .0292763
724.014 .0292591
724.744 .0292408
725.474 .0292218
726.204 .0292021
726.933 .0291814
727.662 .0291606
728.391 .0291409
729.120 .0291219
729.849 .0291044
730.577 .0290891
731.305 .0290751
732.033 .0290616
732.760 .0290486
733.488 .0290353
734.215 .0290210
734.942 .0290065
735.669 .0289915
736.395 .0289759
737.122 .0289610
737.848 .0289465
738.573 .0289321
739.299 .0289184
740.024 .0289049
740.750 .0288904
741.474 .0288750
742.199 .0288585
742.924 .0288403
743.648 .0288209
744.372 .0288007
745.096 .0287798
745.819 .0287582
746.543 .0287371
747.266 .0287165
747.989 .0286971
748.711 .0286794
749.434 .0286633
750.156 .0286488
750.878 .0286363
751.599 .0286249
752.321 .0286143
753.042 .0286048
753.763 .0285965
754.484 .0285886
755.205 .0285810
755.925 .0285735
756.645 .0285657
757.365 .0285574
758.085 .0285483
758.804 .0285368
759.523 .0285230
760.242 .0285062
760.961 .0284862
761.679 .0284637
762.397 .0284385
763.115 .0284114
763.833 .0283835
764.551 .0283548
765.268 .0283255
765.985 .0282959
766.702 .0282659
767.418 .0282354
768.134 .0282043
768.850 .0281727
769.566 .0281406
770.282 .0281090
770.997 .0280782
771.712 .0280483
772.427 .0280203
773.142 .0279946
773.856 .0279699
774.570 .0279473
775.284 .0279247
775.998 .0279020
776.711 .0278787
777.424 .0278544
778.137 .0278287
778.849 .0278021
779.562 .0277746
780.274 .0277470
780.986 .0277198
781.697 .0276938
782.409 .0276692
783.120 .0276471
783.831 .0276272
784.541 .0276092
785.252 .0275928
785.962 .0275782
786.671 .0275643
787.381 .0275516
788.090 .0275391
788.799 .0275268
789.508 .0275147
790.217 .0275024
790.925 .0274895
791.633 .0274766
792.341 .0274631
793.048 .0274491
793.755 .0274345
794.462 .0274192
795.169 .0274032
795.875 .0273873
796.581 .0273717
797.287 .0273559
797.993 .0273400
798.698 .0273242
799.403 .0273081
800.108 .0272919
800.812 .0272761
801.517 .0272610
802.221 .0272468
802.924 .0272339
803.628 .0272225
804.331 .0272130
805.034 .0272050
805.736 .0271979
806.439 .0271915
807.141 .0271850
807.843 .0271781
808.544 .0271695
809.245 .0271603
809.946 .0271504
810.647 .0271403
811.347 .0271307
812.047 .0271224
812.747 .0271156
813.447 .0271105
814.146 .0271066
814.845 .0271042
815.543 .0271020
816.242 .0270996
816.940 .0270965
817.638 .0270929
818.335 .0270882
819.032 .0270824
819.729 .0270759
820.426 .0270694
821.122 .0270618
821.818 .0270532
822.514 .0270432
823.209 .0270323
823.905 .0270199
824.599 .0270060
825.294 .0269907
825.988 .0269748
826.682 .0269581
827.376 .0269415
828.069 .0269255
828.762 .0269109
829.455 .0268981
830.147 .0268875
830.840 .0268791
831.531 .0268729
832.223 .0268684
832.914 .0268658
833.605 .0268644
834.296 .0268641
834.986 .0268642
835.676 .0268647
836.366 .0268654
837.055 .0268651
837.744 .0268639
838.433 .0268615
839.121 .0268579
839.809 .0268532
840.497 .0268469
841.185 .0268395
841.872 .0268310
842.559 .0268223
843.245 .0268129
843.932 .0268034
844.617 .0267938
845.303 .0267839
845.988 .0267736
846.673 .0267628
847.358 .0267510
848.042 .0267390
848.726 .0267274
849.410 .0267160
850.093 .0267052
850.776 .0266953
851.459 .0266864
852.141 .0266788
852.823 .0266718
853.505 .0266656
854.186 .0266589
854.867 .0266519
855.548 .0266437
856.228 .0266346
856.908 .0266253
857.588 .0266159
858.267 .0266072
858.946 .0265994
859.625 .0265926
860.303 .0265876
860.981 .0265835
861.659 .0265805
862.336 .0265773
863.013 .0265736
863.690 .0265683
864.366 .0265611
865.042 .0265517
865.718 .0265405
866.393 .0265282
867.068 .0265151
867.743 .0265013
868.417 .0264878
869.091 .0264744
869.765 .0264611
870.438 .0264475
871.111 .0264329
871.783 .0264172
872.456 .0264005
873.127 .0263819
873.799 .0263622
874.470 .0263417
875.141 .0263212
875.811 .0263010
876.481 .0262817
877.151 .0262635
877.820 .0262460
878.489 .0262297
879.158 .0262138
879.826 .0261975
880.494 .0261808
881.162 .0261632
881.829 .0261453
882.496 .0261273
883.163 .0261086
883.829 .0260908
884.495 .0260740
885.160 .0260587
885.825 .0260444
886.490 .0260317
887.154 .0260201
887.818 .0260094
888.482 .0259991
889.145 .0259888
889.808 .0259790
890.471 .0259698
891.133 .0259606
891.795 .0259520
892.456 .0259441
893.117 .0259361
893.778 .0259278
894.439 .0259193
895.099 .0259101
895.758 .0259001
896.417 .0258898
897.076 .0258790
897.735 .0258676
898.393 .0258553
899.051 .0258422
899.708 .0258275
900.365 .0258111
901.022 .0257924
901.678 .0257725
902.334 .0257515
902.990 .0257300
903.645 .0257085
904.300 .0256883
904.954 .0256695
905.608 .0256514
906.262 .0256334
906.915 .0256152
907.568 .0255961
908.221 .0255758
908.873 .0255539
909.525 .0255315
910.176 .0255091
910.828 .0254872
911.478 .0254671
912.129 .0254488
912.778 .0254315
913.428 .0254154
914.077 .0253998
914.726 .0253841
915.375 .0253677
916.023 .0253507
916.670 .0253337
917.318 .0253170
917.964 .0253012
918.611 .0252857
919.257 .0252716
919.903 .0252591
920.548 .0252472
921.193 .0252357
921.838 .0252244
922.482 .0252131
923.126 .0252016
923.770 .0251904
924.413 .0251799
925.056 .0251698
925.698 .0251604
926.340 .0251516
926.982 .0251428
927.623 .0251336
928.264 .0251233
928.904 .0251114
929.544 .0250978
930.184 .0250824
930.823 .0250649
931.462 .0250461
932.101 .0250265
932.739 .0250074
933.377 .0249883
934.014 .0249691
934.651 .0249496
935.288 .0249293
935.924 .0249081
936.560 .0248857
937.196 .0248618
937.831 .0248373
938.466 .0248131
939.100 .0247897
939.734 .0247677
940.368 .0247478
941.001 .0247306
941.634 .0247149
942.266 .0247006
942.899 .0246860
943.530 .0246702
944.162 .0246535
944.793 .0246358
945.423 .0246177
946.053 .0245993
946.683 .0245809
947.313 .0245632
947.942 .0245458
948.571 .0245282
949.199 .0245094
949.827 .0244893
950.455 .0244678
951.082 .0244445
951.709 .0244199
952.335 .0243950
952.961 .0243710
953.587 .0243487
954.212 .0243276
954.837 .0243079
955.462 .0242895
956.086 .0242720
956.710 .0242548
957.334 .0242378
957.957 .0242205
958.579 .0242036
959.202 .0241877
959.824 .0241734
960.445 .0241610
961.067 .0241507
961.688 .0241429
962.308 .0241371
962.928 .0241328
963.548 .0241290
964.168 .0241253
964.787 .0241219
965.406 .0241172
966.024 .0241119
966.642 .0241059
967.260 .0240997
967.877 .0240939
968.494 .0240888
969.110 .0240841
969.727 .0240797
970.342 .0240756
970.958 .0240712
971.573 .0240669
972.188 .0240626
972.802 .0240576
973.416 .0240534
974.030 .0240506
974.643 .0240491
975.256 .0240491
975.869 .0240514
976.481 .0240549
977.093 .0240588
977.705 .0240634
978.316 .0240676
978.927 .0240717
979.538 .0240765
980.148 .0240811
980.758 .0240860
981.367 .0240916
981.977 .0240970
982.586 .0241026
983.194 .0241085
983.802 .0241134
984.410 .0241161
985.018 .0241180
985.625 .0241189
986.232 .0241194
986.838 .0241198
987.445 .0241209
988.050 .0241230
988.656 .0241264
989.261 .0241298
989.866 .0241327
990.471 .0241350
991.075 .0241360
991.679 .0241352
992.282 .0241330
992.886 .0241294
993.489 .0241256
994.091 .0241230
994.694 .0241218
995.296 .0241220
995.897 .0241234
996.499 .0241258
997.100 .0241294
997.701 .0241333
998.301 .0241377
998.901 .0241436
999.501 .0241508
1000.101 .0241605
1000.700 .0241722
1001.299 .0241864
1001.898 .0242033
1002.496 .0242225
1003.094 .0242422
1003.692 .0242616
1004.289 .0242790
1004.887 .0242934
1005.484 .0243044
1006.080 .0243124
1006.677 .0243169
1007.273 .0243192
1007.868 .0243206
1008.464 .0243217
1009.059 .0243229
1009.654 .0243251
1010.249 .0243272
1010.843 .0243294
1011.437 .0243310
1012.031 .0243316
1012.625 .0243313
1013.218 .0243311
1013.811 .0243310
1014.404 .0243325
1014.997 .0243357
1015.589 .0243407
1016.181 .0243475
1016.773 .0243557
1017.365 .0243640
1017.956 .0243709
1018.547 .0243753
1019.138 .0243765
1019.728 .0243751
1020.319 .0243717
1020.909 .0243672
1021.499 .0243634
1022.088 .0243607
1022.678 .0243592
1023.267 .0243593
1023.856 .0243604
1024.445 .0243611
1025.033 .0243617
1025.621 .0243614
1026.209 .0243594
1026.797 .0243572
1027.385 .0243550
1027.972 .0243540
1028.560 .0243553
1029.147 .0243587
1029.734 .0243638
1030.320 .0243709
1030.907 .0243794
1031.493 .0243881
1032.079 .0243975
1032.665 .0244071
1033.250 .0244160
1033.836 .0244244
1034.421 .0244319
1035.006 .0244392
1035.591 .0244464
1036.176 .0244532
1036.761 .0244584
1037.345 .0244638
1037.929 .0244686
1038.514 .0244724
1039.097 .0244759
1039.681 .0244796
1040.265 .0244826
1040.848 .0244849
1041.432 .0244852
1042.015 .0244835
1042.598 .0244806
1043.181 .0244762
1043.764 .0244708
1044.346 .0244661
1044.929 .0244619
1045.511 .0244591
1046.094 .0244585
1046.676 .0244610
1047.258 .0244649
1047.840 .0244703
1048.422 .0244767
1049.003 .0244827
1049.585 .0244892
1050.166 .0244941
1050.748 .0244981
1051.329 .0245015
1051.910 .0245031
1052.491 .0245019
1053.072 .0244996
1053.653 .0244956
1054.234 .0244908
1054.815 .0244849
1055.396 .0244795
1055.976 .0244739
1056.557 .0244675
1057.138 .0244601
1057.718 .0244519
1058.298 .0244406
1058.879 .0244269
1059.459 .0244087
1060.039 .0243901
1060.620 .0243704
1061.200 .0243526
1061.780 .0243377
1062.360 .0243268
1062.940 .0243206
1063.520 .0243171
1064.101 .0243138
1064.681 .0243109
1065.261 .0243048
1065.841 .0242957
1066.421 .0242835
1067.001 .0242684
1067.581 .0242508
1068.161 .0242336
1068.741 .0242180
1069.321 .0242041
1069.901 .0241925
1070.482 .0241815
1071.062 .0241691
1071.642 .0241552
1072.222 .0241375
1072.803 .0241148
1073.383 .0240908
1073.963 .0240662
1074.544 .0240414
1075.124 .0240185
1075.705 .0240013
1076.286 .0239884
1076.866 .0239813
1077.447 .0239781
1078.028 .0239776
1078.609 .0239801
1079.190 .0239836
1079.771 .0239869
1080.352 .0239919
1080.934 .0239985
1081.515 .0240057
1082.097 .0240141
1082.679 .0240242
1083.260 .0240349
1083.842 .0240445
1084.424 .0240532
1085.007 .0240582
1085.589 .0240577
1086.172 .0240513
1086.754 .0240382
1087.337 .0240218
1087.920 .0240024
1088.503 .0239811
1089.087 .0239606
1089.670 .0239401
1090.254 .0239212
1090.838 .0239021
1091.422 .0238838
1092.006 .0238645
1092.590 .0238433
1093.175 .0238215
1093.760 .0238009
1094.345 .0237840
1094.930 .0237712
1095.516 .0237656
1096.102 .0237683
1096.688 .0237772
1097.274 .0237897
1097.860 .0238042
1098.447 .0238166
1099.034 .0238267
1099.622 .0238320
1100.209 .0238320
1100.797 .0238276
1101.385 .0238187
1101.973 .0238090
1102.562 .0237982
1103.151 .0237853
1103.740 .0237713
1104.330 .0237543
1104.920 .0237365
1105.510 .0237120
1106.101 .0236828
1106.691 .0236510
1107.283 .0236167
1107.874 .0235821
1108.466 .0235454
1109.058 .0235098
1109.651 .0234765
1110.244 .0234445
1110.837 .0234147
1111.431 .0233901
1112.025 .0233711
1112.620 .0233574
1113.215 .0233492
1113.810 .0233453
1114.406 .0233485
1115.002 .0233546
1115.599 .0233652
1116.196 .0233782
1116.793 .0233902
1117.391 .0234007
1117.989 .0234084
1118.588 .0234155
1119.187 .0234212
1119.787 .0234261
1120.387 .0234336
1120.988 .0234452
1121.589 .0234617
1122.190 .0234835
1122.793 .0235111
1123.395 .0235417
1123.998 .0235715
1124.602 .0235924
1125.206 .0236059
1125.811 .0236112
1126.416 .0236110
1127.022 .0236079
1127.628 .0236074
1128.235 .0236143
1128.843 .0236321
1129.451 .0236621
1130.059 .0237022
1130.669 .0237498
1131.278 .0238014
1131.889 .0238522
1132.500 .0238968
1133.112 .0239351
1133.724 .0239726
1134.337 .0240113
1134.950 .0240573
1135.564 .0241098
1136.179 .0241701
1136.795 .0242409
1137.411 .0243185
1138.028 .0243982
1138.645 .0244760
1139.263 .0245508
1139.882 .0246146
1140.502 .0246729
1141.122 .0247224
1141.743 .0247604
1142.365 .0247997
1142.987 .0247670
1143.611 .0249624
1144.235 .0249231
1144.859 .0247500
1145.485 .0250413
