Measurement Sequence started on: 10-20-44-796
Integration time: 35
Scans to Average: 2 
>>>>>Begin Spectral Data<<<<<
432.953 .0373348
433.882 .0391371
434.810 .0368284
435.737 .0336189
436.662 .0329154
437.586 .0343312
438.509 .0340271
439.431 .0338049
440.351 .0337448
441.269 .0338079
442.187 .0338794
443.103 .0339208
444.018 .0339742
444.932 .0340185
445.844 .0340468
446.756 .0340662
447.666 .0340830
448.575 .0340736
449.482 .0340572
450.388 .0340287
451.294 .0339849
452.198 .0339423
453.100 .0338969
454.002 .0338482
454.902 .0338016
455.801 .0337461
456.699 .0336982
457.596 .0336535
458.492 .0336167
459.387 .0335853
460.280 .0335583
461.172 .0335357
462.064 .0335185
462.954 .0334996
463.843 .0334815
464.730 .0334634
465.617 .0334459
466.503 .0334251
467.387 .0334000
468.271 .0333750
469.153 .0333496
470.035 .0333222
470.915 .0332967
471.794 .0332659
472.673 .0332350
473.550 .0332016
474.426 .0331707
475.301 .0331435
476.175 .0331183
477.048 .0330953
477.920 .0330762
478.791 .0330606
479.661 .0330498
480.530 .0330402
481.398 .0330333
482.266 .0330287
483.132 .0330255
483.997 .0330204
484.861 .0330162
485.724 .0330150
486.587 .0330141
487.448 .0330122
488.308 .0330092
489.168 .0330003
490.026 .0329841
490.884 .0329623
491.741 .0329319
492.597 .0328960
493.452 .0328568
494.306 .0328143
495.159 .0327722
496.011 .0327318
496.862 .0326928
497.713 .0326503
498.562 .0326032
499.411 .0325511
500.259 .0324880
501.106 .0324189
501.952 .0323424
502.798 .0322634
503.642 .0321847
504.486 .0321083
505.329 .0320363
506.171 .0319675
507.012 .0318997
507.852 .0318321
508.692 .0317591
509.531 .0316807
510.369 .0315956
511.206 .0315018
512.043 .0314026
512.878 .0312979
513.713 .0311870
514.547 .0310732
515.381 .0309543
516.213 .0308301
517.045 .0306965
517.876 .0305568
518.706 .0304122
519.536 .0302608
520.365 .0301069
521.193 .0299480
522.020 .0297852
522.847 .0296172
523.673 .0294404
524.498 .0292555
525.323 .0290653
526.146 .0288747
526.969 .0286888
527.792 .0285119
528.614 .0283527
529.435 .0282157
530.255 .0281066
531.075 .0280183
531.894 .0279513
532.712 .0278972
533.530 .0278474
534.347 .0277938
535.163 .0277301
535.979 .0276579
536.794 .0275834
537.608 .0275106
538.422 .0274443
539.235 .0273890
540.048 .0273516
540.860 .0273273
541.671 .0273151
542.481 .0273021
543.292 .0272870
544.101 .0272628
544.910 .0272288
545.718 .0271854
546.526 .0271386
547.333 .0271026
548.139 .0270828
548.945 .0270851
549.750 .0271110
550.555 .0271588
551.359 .0272299
552.162 .0273094
552.965 .0273990
553.768 .0274891
554.569 .0275766
555.371 .0276600
556.171 .0277407
556.972 .0278206
557.771 .0279059
558.570 .0279991
559.369 .0280964
560.167 .0281993
560.964 .0282999
561.761 .0283953
562.558 .0284875
563.354 .0285750
564.149 .0286543
564.944 .0287267
565.738 .0287994
566.532 .0288719
567.325 .0289466
568.118 .0290312
568.910 .0291173
569.702 .0292077
570.494 .0292969
571.285 .0293805
572.075 .0294581
572.865 .0295311
573.654 .0295950
574.443 .0296502
575.232 .0297002
576.020 .0297485
576.807 .0297936
577.594 .0298445
578.381 .0298998
579.167 .0299573
579.952 .0300179
580.738 .0300804
581.522 .0301409
582.307 .0302029
583.091 .0302637
583.874 .0303213
584.657 .0303755
585.440 .0304278
586.222 .0304742
587.004 .0305183
587.785 .0305610
588.566 .0305993
589.346 .0306319
590.126 .0306612
590.906 .0306842
591.685 .0307033
592.464 .0307191
593.242 .0307321
594.020 .0307429
594.797 .0307533
595.575 .0307618
596.351 .0307692
597.128 .0307765
597.904 .0307819
598.679 .0307847
599.454 .0307858
600.229 .0307850
601.004 .0307826
601.778 .0307796
602.551 .0307764
603.325 .0307731
604.097 .0307694
604.870 .0307643
605.642 .0307585
606.414 .0307519
607.185 .0307434
607.956 .0307333
608.727 .0307228
609.497 .0307123
610.267 .0307016
611.037 .0306924
611.806 .0306836
612.575 .0306758
613.344 .0306680
614.112 .0306595
614.880 .0306499
615.647 .0306389
616.414 .0306257
617.181 .0306111
617.948 .0305964
618.714 .0305811
619.480 .0305658
620.245 .0305515
621.011 .0305376
621.775 .0305234
622.540 .0305088
623.304 .0304942
624.068 .0304797
624.832 .0304657
625.595 .0304520
626.358 .0304385
627.120 .0304264
627.883 .0304139
628.645 .0304011
629.406 .0303877
630.168 .0303732
630.929 .0303568
631.689 .0303396
632.450 .0303212
633.210 .0303025
633.970 .0302835
634.729 .0302642
635.489 .0302435
636.248 .0302212
637.006 .0301962
637.765 .0301688
638.523 .0301392
639.280 .0301089
640.038 .0300777
640.795 .0300485
641.552 .0300214
642.309 .0299973
643.065 .0299762
643.821 .0299576
644.577 .0299399
645.332 .0299228
646.088 .0299051
646.843 .0298877
647.597 .0298705
648.352 .0298548
649.106 .0298405
649.860 .0298281
650.613 .0298178
651.367 .0298091
652.120 .0298004
652.872 .0297914
653.625 .0297810
654.377 .0297696
655.129 .0297573
655.881 .0297443
656.632 .0297310
657.384 .0297180
658.135 .0297047
658.885 .0296909
659.636 .0296763
660.386 .0296611
661.136 .0296453
661.885 .0296291
662.635 .0296130
663.384 .0295973
664.133 .0295830
664.881 .0295702
665.630 .0295588
666.378 .0295489
667.126 .0295395
667.874 .0295301
668.621 .0295206
669.368 .0295108
670.115 .0295009
670.862 .0294910
671.608 .0294819
672.354 .0294732
673.100 .0294650
673.846 .0294577
674.591 .0294508
675.337 .0294443
676.082 .0294376
676.826 .0294305
677.571 .0294226
678.315 .0294142
679.059 .0294054
679.803 .0293963
680.547 .0293876
681.290 .0293794
682.033 .0293713
682.776 .0293630
683.518 .0293544
684.261 .0293450
685.003 .0293341
685.745 .0293216
686.487 .0293072
687.228 .0292913
687.969 .0292738
688.710 .0292551
689.451 .0292358
690.192 .0292164
690.932 .0291977
691.672 .0291794
692.412 .0291622
693.152 .0291459
693.891 .0291309
694.630 .0291170
695.369 .0291045
696.108 .0290930
696.846 .0290821
697.585 .0290716
698.323 .0290618
699.061 .0290517
699.798 .0290417
700.536 .0290317
701.273 .0290223
702.010 .0290134
702.746 .0290050
703.483 .0289961
704.219 .0289871
704.955 .0289777
705.691 .0289664
706.427 .0289529
707.162 .0289373
707.897 .0289197
708.632 .0289004
709.367 .0288800
710.101 .0288588
710.835 .0288377
711.569 .0288173
712.303 .0287969
713.037 .0287762
713.770 .0287551
714.503 .0287327
715.236 .0287090
715.969 .0286839
716.702 .0286578
717.434 .0286308
718.166 .0286042
718.898 .0285782
719.629 .0285529
720.361 .0285288
721.092 .0285056
721.823 .0284832
722.554 .0284609
723.284 .0284381
724.014 .0284138
724.744 .0283885
725.474 .0283624
726.204 .0283349
726.933 .0283072
727.662 .0282792
728.391 .0282516
729.120 .0282243
729.849 .0281974
730.577 .0281711
731.305 .0281452
732.033 .0281197
732.760 .0280942
733.488 .0280689
734.215 .0280438
734.942 .0280191
735.669 .0279952
736.395 .0279718
737.122 .0279493
737.848 .0279271
738.573 .0279059
739.299 .0278850
740.024 .0278649
740.750 .0278453
741.474 .0278263
742.199 .0278076
742.924 .0277887
743.648 .0277693
744.372 .0277493
745.096 .0277289
745.819 .0277078
746.543 .0276867
747.266 .0276663
747.989 .0276468
748.711 .0276285
749.434 .0276119
750.156 .0275972
750.878 .0275837
751.599 .0275715
752.321 .0275601
753.042 .0275491
753.763 .0275384
754.484 .0275279
755.205 .0275177
755.925 .0275087
756.645 .0275001
757.365 .0274919
758.085 .0274837
758.804 .0274750
759.523 .0274649
760.242 .0274532
760.961 .0274402
761.679 .0274257
762.397 .0274093
763.115 .0273922
763.833 .0273742
764.551 .0273562
765.268 .0273381
765.985 .0273200
766.702 .0273021
767.418 .0272839
768.134 .0272648
768.850 .0272452
769.566 .0272259
770.282 .0272071
770.997 .0271886
771.712 .0271717
772.427 .0271563
773.142 .0271425
773.856 .0271301
774.570 .0271192
775.284 .0271088
775.998 .0270986
776.711 .0270880
777.424 .0270766
778.137 .0270649
778.849 .0270532
779.562 .0270414
780.274 .0270304
780.986 .0270201
781.697 .0270102
782.409 .0270006
783.120 .0269915
783.831 .0269825
784.541 .0269735
785.252 .0269642
785.962 .0269549
786.671 .0269458
787.381 .0269368
788.090 .0269281
788.799 .0269198
789.508 .0269118
790.217 .0269038
790.925 .0268957
791.633 .0268877
792.341 .0268795
793.048 .0268711
793.755 .0268621
794.462 .0268526
795.169 .0268427
795.875 .0268327
796.581 .0268225
797.287 .0268122
797.993 .0268021
798.698 .0267919
799.403 .0267818
800.108 .0267721
800.812 .0267620
801.517 .0267519
802.221 .0267411
802.924 .0267297
803.628 .0267176
804.331 .0267056
805.034 .0266935
805.736 .0266816
806.439 .0266702
807.141 .0266591
807.843 .0266483
808.544 .0266380
809.245 .0266278
809.946 .0266177
810.647 .0266076
811.347 .0265977
812.047 .0265881
812.747 .0265794
813.447 .0265717
814.146 .0265654
814.845 .0265604
815.543 .0265565
816.242 .0265530
816.940 .0265496
817.638 .0265460
818.335 .0265415
819.032 .0265358
819.729 .0265285
820.426 .0265193
821.122 .0265083
821.818 .0264956
822.514 .0264814
823.209 .0264664
823.905 .0264504
824.599 .0264335
825.294 .0264161
825.988 .0263977
826.682 .0263781
827.376 .0263577
828.069 .0263361
828.762 .0263138
829.455 .0262903
830.147 .0262664
830.840 .0262428
831.531 .0262199
832.223 .0261976
832.914 .0261765
833.605 .0261567
834.296 .0261377
834.986 .0261188
835.676 .0261005
836.366 .0260821
837.055 .0260634
837.744 .0260449
838.433 .0260258
839.121 .0260069
839.809 .0259884
840.497 .0259698
841.185 .0259523
841.872 .0259356
842.559 .0259198
843.245 .0259047
843.932 .0258907
844.617 .0258780
845.303 .0258657
845.988 .0258537
846.673 .0258419
847.358 .0258291
848.042 .0258154
848.726 .0258002
849.410 .0257833
850.093 .0257655
850.776 .0257466
851.459 .0257271
852.141 .0257071
852.823 .0256869
853.505 .0256667
854.186 .0256455
854.867 .0256238
855.548 .0256007
856.228 .0255765
856.908 .0255513
857.588 .0255255
858.267 .0255001
858.946 .0254755
859.625 .0254522
860.303 .0254304
860.981 .0254100
861.659 .0253910
862.336 .0253730
863.013 .0253555
863.690 .0253387
864.366 .0253225
865.042 .0253067
865.718 .0252917
866.393 .0252772
867.068 .0252635
867.743 .0252499
868.417 .0252361
869.091 .0252219
869.765 .0252064
870.438 .0251904
871.111 .0251737
871.783 .0251566
872.456 .0251392
873.127 .0251216
873.799 .0251039
874.470 .0250860
875.141 .0250679
875.811 .0250494
876.481 .0250304
877.151 .0250114
877.820 .0249921
878.489 .0249729
879.158 .0249543
879.826 .0249361
880.494 .0249187
881.162 .0249024
881.829 .0248868
882.496 .0248716
883.163 .0248570
883.829 .0248427
884.495 .0248287
885.160 .0248151
885.825 .0248021
886.490 .0247897
887.154 .0247784
887.818 .0247679
888.482 .0247580
889.145 .0247488
889.808 .0247405
890.471 .0247326
891.133 .0247250
891.795 .0247173
892.456 .0247090
893.117 .0247001
893.778 .0246907
894.439 .0246806
895.099 .0246700
895.758 .0246592
896.417 .0246481
897.076 .0246372
897.735 .0246264
898.393 .0246159
899.051 .0246057
899.708 .0245960
900.365 .0245866
901.022 .0245774
901.678 .0245679
902.334 .0245585
902.990 .0245493
903.645 .0245404
904.300 .0245317
904.954 .0245235
905.608 .0245161
906.262 .0245095
906.915 .0245041
907.568 .0244994
908.221 .0244954
908.873 .0244922
909.525 .0244888
910.176 .0244851
910.828 .0244810
911.478 .0244763
912.129 .0244704
912.778 .0244634
913.428 .0244558
914.077 .0244475
914.726 .0244387
915.375 .0244295
916.023 .0244201
916.670 .0244110
917.318 .0244015
917.964 .0243914
918.611 .0243805
919.257 .0243690
919.903 .0243561
920.548 .0243421
921.193 .0243284
921.838 .0243149
922.482 .0243028
923.126 .0242925
923.770 .0242848
924.413 .0242797
925.056 .0242768
925.698 .0242765
926.340 .0242779
926.982 .0242805
927.623 .0242833
928.264 .0242860
928.904 .0242883
929.544 .0242903
930.184 .0242917
930.823 .0242924
931.462 .0242930
932.101 .0242933
932.739 .0242929
933.377 .0242912
934.014 .0242880
934.651 .0242828
935.288 .0242753
935.924 .0242661
936.560 .0242545
937.196 .0242416
937.831 .0242284
938.466 .0242149
939.100 .0242021
939.734 .0241902
940.368 .0241794
941.001 .0241694
941.634 .0241605
942.266 .0241521
942.899 .0241431
943.530 .0241342
944.162 .0241250
944.793 .0241155
945.423 .0241059
946.053 .0240958
946.683 .0240853
947.313 .0240745
947.942 .0240632
948.571 .0240506
949.199 .0240372
949.827 .0240228
950.455 .0240073
951.082 .0239911
951.709 .0239745
952.335 .0239578
952.961 .0239412
953.587 .0239251
954.212 .0239094
954.837 .0238938
955.462 .0238790
956.086 .0238653
956.710 .0238528
957.334 .0238414
957.957 .0238312
958.579 .0238223
959.202 .0238153
959.824 .0238095
960.445 .0238050
961.067 .0238023
961.688 .0238007
962.308 .0238000
962.928 .0237998
963.548 .0238000
964.168 .0237999
964.787 .0237992
965.406 .0237984
966.024 .0237968
966.642 .0237946
967.260 .0237920
967.877 .0237896
968.494 .0237870
969.110 .0237841
969.727 .0237800
970.342 .0237752
970.958 .0237701
971.573 .0237641
972.188 .0237577
972.802 .0237514
973.416 .0237461
974.030 .0237411
974.643 .0237367
975.256 .0237337
975.869 .0237314
976.481 .0237300
977.093 .0237289
977.705 .0237282
978.316 .0237281
978.927 .0237286
979.538 .0237301
980.148 .0237322
980.758 .0237352
981.367 .0237384
981.977 .0237414
982.586 .0237443
983.194 .0237465
983.802 .0237477
984.410 .0237474
985.018 .0237457
985.625 .0237425
986.232 .0237382
986.838 .0237331
987.445 .0237273
988.050 .0237215
988.656 .0237155
989.261 .0237096
989.866 .0237034
990.471 .0236974
991.075 .0236912
991.679 .0236850
992.282 .0236789
992.886 .0236728
993.489 .0236676
994.091 .0236633
994.694 .0236605
995.296 .0236591
995.897 .0236585
996.499 .0236586
997.100 .0236587
997.701 .0236586
998.301 .0236574
998.901 .0236550
999.501 .0236518
1000.101 .0236478
1000.700 .0236435
1001.299 .0236387
1001.898 .0236333
1002.496 .0236275
1003.094 .0236212
1003.692 .0236141
1004.289 .0236059
1004.887 .0235975
1005.484 .0235884
1006.080 .0235791
1006.677 .0235695
1007.273 .0235604
1007.868 .0235519
1008.464 .0235450
1009.059 .0235395
1009.654 .0235355
1010.249 .0235330
1010.843 .0235319
1011.437 .0235315
1012.031 .0235316
1012.625 .0235313
1013.218 .0235306
1013.811 .0235287
1014.404 .0235271
1014.997 .0235255
1015.589 .0235251
1016.181 .0235259
1016.773 .0235286
1017.365 .0235323
1017.956 .0235359
1018.547 .0235388
1019.138 .0235400
1019.728 .0235395
1020.319 .0235369
1020.909 .0235326
1021.499 .0235270
1022.088 .0235212
1022.678 .0235154
1023.267 .0235089
1023.856 .0235025
1024.445 .0234952
1025.033 .0234862
1025.621 .0234761
1026.209 .0234644
1026.797 .0234515
1027.385 .0234376
1027.972 .0234242
1028.560 .0234108
1029.147 .0233981
1029.734 .0233859
1030.320 .0233738
1030.907 .0233621
1031.493 .0233512
1032.079 .0233409
1032.665 .0233324
1033.250 .0233260
1033.836 .0233208
1034.421 .0233169
1035.006 .0233145
1035.591 .0233118
1036.176 .0233091
1036.761 .0233055
1037.345 .0233010
1037.929 .0232954
1038.514 .0232890
1039.097 .0232822
1039.681 .0232748
1040.265 .0232676
1040.848 .0232602
1041.432 .0232517
1042.015 .0232424
1042.598 .0232316
1043.181 .0232201
1043.764 .0232091
1044.346 .0231977
1044.929 .0231858
1045.511 .0231738
1046.094 .0231625
1046.676 .0231512
1047.258 .0231398
1047.840 .0231285
1048.422 .0231178
1049.003 .0231071
1049.585 .0230974
1050.166 .0230875
1050.748 .0230787
1051.329 .0230719
1051.910 .0230664
1052.491 .0230627
1053.072 .0230603
1053.653 .0230583
1054.234 .0230571
1054.815 .0230554
1055.396 .0230527
1055.976 .0230472
1056.557 .0230405
1057.138 .0230325
1057.718 .0230237
1058.298 .0230152
1058.879 .0230084
1059.459 .0230029
1060.039 .0229990
1060.620 .0229943
1061.200 .0229877
1061.780 .0229773
1062.360 .0229630
1062.940 .0229445
1063.520 .0229239
1064.101 .0229016
1064.681 .0228795
1065.261 .0228599
1065.841 .0228446
1066.421 .0228329
1067.001 .0228258
1067.581 .0228215
1068.161 .0228182
1068.741 .0228147
1069.321 .0228109
1069.901 .0228056
1070.482 .0228002
1071.062 .0227948
1071.642 .0227890
1072.222 .0227842
1072.803 .0227799
1073.383 .0227744
1073.963 .0227684
1074.544 .0227617
1075.124 .0227527
1075.705 .0227399
1076.286 .0227244
1076.866 .0227063
1077.447 .0226872
1078.028 .0226682
1078.609 .0226496
1079.190 .0226322
1079.771 .0226185
1080.352 .0226050
1080.934 .0225920
1081.515 .0225827
1082.097 .0225755
1082.679 .0225701
1083.260 .0225668
1083.842 .0225668
1084.424 .0225710
1085.007 .0225778
1085.589 .0225877
1086.172 .0225975
1086.754 .0226067
1087.337 .0226126
1087.920 .0226135
1088.503 .0226103
1089.087 .0226043
1089.670 .0225947
1090.254 .0225847
1090.838 .0225742
1091.422 .0225640
1092.006 .0225529
1092.590 .0225419
1093.175 .0225310
1093.760 .0225165
1094.345 .0224975
1094.930 .0224767
1095.516 .0224537
1096.102 .0224310
1096.688 .0224083
1097.274 .0223896
1097.860 .0223749
1098.447 .0223640
1099.034 .0223545
1099.622 .0223462
1100.209 .0223386
1100.797 .0223315
1101.385 .0223225
1101.973 .0223119
1102.562 .0223004
1103.151 .0222871
1103.740 .0222749
1104.330 .0222654
1104.920 .0222584
1105.510 .0222552
1106.101 .0222558
1106.691 .0222593
1107.283 .0222634
1107.874 .0222678
1108.466 .0222701
1109.058 .0222712
1109.651 .0222718
1110.244 .0222702
1110.837 .0222677
1111.431 .0222655
1112.025 .0222665
1112.620 .0222703
1113.215 .0222775
1113.810 .0222850
1114.406 .0222929
1115.002 .0222992
1115.599 .0223004
1116.196 .0222959
1116.793 .0222876
1117.391 .0222762
1117.989 .0222630
1118.588 .0222503
1119.187 .0222391
1119.787 .0222306
1120.387 .0222277
1120.988 .0222282
1121.589 .0222313
1122.190 .0222348
1122.793 .0222388
1123.395 .0222426
1123.998 .0222500
1124.602 .0222586
1125.206 .0222715
1125.811 .0222894
1126.416 .0223117
1127.022 .0223362
1127.628 .0223624
1128.235 .0223914
1128.843 .0224218
1129.451 .0224540
1130.059 .0224868
1130.669 .0225218
1131.278 .0225619
1131.889 .0226054
1132.500 .0226539
1133.112 .0227069
1133.724 .0227609
1134.337 .0228130
1134.950 .0228613
1135.564 .0229053
1136.179 .0229445
1136.795 .0229852
1137.411 .0230285
1138.028 .0230773
1138.645 .0231350
1139.263 .0232044
1139.882 .0232774
1140.502 .0233548
1141.122 .0234341
1141.743 .0235251
1142.365 .0236391
1142.987 .0235853
1143.611 .0236771
1144.235 .0237925
1144.859 .0242763
1145.485 .0248240
