Measurement Sequence started on: 10-20-44-796
Integration time: 35
Scans to Average: 2 
>>>>>Begin Spectral Data<<<<<
432.953 .0370120
433.882 .0392627
434.810 .0376202
435.737 .0368953
436.662 .0380567
437.586 .0383239
438.509 .0384792
439.431 .0385708
440.351 .0386939
441.269 .0387929
442.187 .0388210
443.103 .0388078
444.018 .0387728
444.932 .0387040
445.844 .0386230
446.756 .0385333
447.666 .0384286
448.575 .0383327
449.482 .0382476
450.388 .0381776
451.294 .0381379
452.198 .0381188
453.100 .0381111
454.002 .0381113
454.902 .0381136
455.801 .0381145
456.699 .0381084
457.596 .0381014
458.492 .0380910
459.387 .0380719
460.280 .0380497
461.172 .0380154
462.064 .0379794
462.954 .0379339
463.843 .0378731
464.730 .0377994
465.617 .0377127
466.503 .0376118
467.387 .0375066
468.271 .0373968
469.153 .0372873
470.035 .0371829
470.915 .0370900
471.794 .0370050
472.673 .0369315
473.550 .0368684
474.426 .0368156
475.301 .0367733
476.175 .0367393
477.048 .0367064
477.920 .0366779
478.791 .0366529
479.661 .0366271
480.530 .0366064
481.398 .0365841
482.266 .0365642
483.132 .0365463
483.997 .0365307
484.861 .0365165
485.724 .0365023
486.587 .0364891
487.448 .0364724
488.308 .0364492
489.168 .0364209
490.026 .0363834
490.884 .0363453
491.741 .0363028
492.597 .0362567
493.452 .0362061
494.306 .0361549
495.159 .0361001
496.011 .0360460
496.862 .0359881
497.713 .0359265
498.562 .0358571
499.411 .0357782
500.259 .0356874
501.106 .0355870
501.952 .0354805
502.798 .0353750
503.642 .0352669
504.486 .0351605
505.329 .0350509
506.171 .0349413
507.012 .0348321
507.852 .0347190
508.692 .0345993
509.531 .0344748
510.369 .0343419
511.206 .0342050
512.043 .0340643
512.878 .0339278
513.713 .0337936
514.547 .0336676
515.381 .0335460
516.213 .0334276
517.045 .0333057
517.876 .0331840
518.706 .0330606
519.536 .0329411
520.365 .0328229
521.193 .0327061
522.020 .0325970
522.847 .0324958
523.673 .0323892
524.498 .0322818
525.323 .0321550
526.146 .0320146
526.969 .0318481
527.792 .0316656
528.614 .0314610
529.435 .0312506
530.255 .0310430
531.075 .0308394
531.894 .0306490
532.712 .0304716
533.530 .0303032
534.347 .0301522
535.163 .0300110
535.979 .0298829
536.794 .0297674
537.608 .0296758
538.422 .0296028
539.235 .0295575
540.048 .0295429
540.860 .0295600
541.671 .0296076
542.481 .0296793
543.292 .0297633
544.101 .0298480
544.910 .0299280
545.718 .0299895
546.526 .0300381
547.333 .0300722
548.139 .0300945
548.945 .0301156
549.750 .0301404
550.555 .0301716
551.359 .0302107
552.162 .0302565
552.965 .0303047
553.768 .0303463
554.569 .0303827
555.371 .0304057
556.171 .0304245
556.972 .0304372
557.771 .0304482
558.570 .0304642
559.369 .0304915
560.167 .0305282
560.964 .0305783
561.761 .0306439
562.558 .0307169
563.354 .0307946
564.149 .0308747
564.944 .0309509
565.738 .0310239
566.532 .0310939
567.325 .0311617
568.118 .0312273
568.910 .0312916
569.702 .0313572
570.494 .0314238
571.285 .0314937
572.075 .0315621
572.865 .0316280
573.654 .0316896
574.443 .0317478
575.232 .0317991
576.020 .0318479
576.807 .0318964
577.594 .0319444
578.381 .0319908
579.167 .0320370
579.952 .0320846
580.738 .0321330
581.522 .0321819
582.307 .0322306
583.091 .0322756
583.874 .0323171
584.657 .0323544
585.440 .0323890
586.222 .0324212
587.004 .0324516
587.785 .0324793
588.566 .0325050
589.346 .0325286
590.126 .0325488
590.906 .0325654
591.685 .0325790
592.464 .0325889
593.242 .0325945
594.020 .0325962
594.797 .0325962
595.575 .0325949
596.351 .0325924
597.128 .0325898
597.904 .0325869
598.679 .0325837
599.454 .0325793
600.229 .0325739
601.004 .0325676
601.778 .0325603
602.551 .0325516
603.325 .0325408
604.097 .0325294
604.870 .0325168
605.642 .0325029
606.414 .0324876
607.185 .0324722
607.956 .0324567
608.727 .0324404
609.497 .0324234
610.267 .0324058
611.037 .0323869
611.806 .0323661
612.575 .0323429
613.344 .0323169
614.112 .0322883
614.880 .0322579
615.647 .0322253
616.414 .0321927
617.181 .0321599
617.948 .0321283
618.714 .0320984
619.480 .0320714
620.245 .0320457
621.011 .0320205
621.775 .0319965
622.540 .0319732
623.304 .0319496
624.068 .0319261
624.832 .0319022
625.595 .0318791
626.358 .0318568
627.120 .0318356
627.883 .0318146
628.645 .0317952
629.406 .0317766
630.168 .0317580
630.929 .0317388
631.689 .0317185
632.450 .0316962
633.210 .0316723
633.970 .0316463
634.729 .0316186
635.489 .0315895
636.248 .0315600
637.006 .0315304
637.765 .0315013
638.523 .0314728
639.280 .0314453
640.038 .0314188
640.795 .0313927
641.552 .0313663
642.309 .0313399
643.065 .0313132
643.821 .0312859
644.577 .0312590
645.332 .0312325
646.088 .0312069
646.843 .0311825
647.597 .0311588
648.352 .0311364
649.106 .0311155
649.860 .0310955
650.613 .0310759
651.367 .0310577
652.120 .0310405
652.872 .0310236
653.625 .0310076
654.377 .0309926
655.129 .0309777
655.881 .0309633
656.632 .0309488
657.384 .0309340
658.135 .0309191
658.885 .0309043
659.636 .0308892
660.386 .0308744
661.136 .0308590
661.885 .0308432
662.635 .0308273
663.384 .0308114
664.133 .0307944
664.881 .0307767
665.630 .0307585
666.378 .0307406
667.126 .0307223
667.874 .0307038
668.621 .0306858
669.368 .0306684
670.115 .0306517
670.862 .0306353
671.608 .0306201
672.354 .0306065
673.100 .0305937
673.846 .0305817
674.591 .0305695
675.337 .0305576
676.082 .0305460
676.826 .0305338
677.571 .0305217
678.315 .0305093
679.059 .0304966
679.803 .0304834
680.547 .0304706
681.290 .0304575
682.033 .0304438
682.776 .0304295
683.518 .0304137
684.261 .0303962
685.003 .0303775
685.745 .0303579
686.487 .0303378
687.228 .0303182
687.969 .0302983
688.710 .0302780
689.451 .0302581
690.192 .0302377
690.932 .0302171
691.672 .0301962
692.412 .0301753
693.152 .0301542
693.891 .0301333
694.630 .0301137
695.369 .0300947
696.108 .0300773
696.846 .0300604
697.585 .0300434
698.323 .0300263
699.061 .0300087
699.798 .0299902
700.536 .0299713
701.273 .0299523
702.010 .0299333
702.746 .0299144
703.483 .0298957
704.219 .0298770
704.955 .0298584
705.691 .0298394
706.427 .0298194
707.162 .0297983
707.897 .0297762
708.632 .0297526
709.367 .0297283
710.101 .0297036
710.835 .0296787
711.569 .0296545
712.303 .0296307
713.037 .0296074
713.770 .0295847
714.503 .0295623
715.236 .0295400
715.969 .0295177
716.702 .0294952
717.434 .0294722
718.166 .0294487
718.898 .0294249
719.629 .0294005
720.361 .0293764
721.092 .0293525
721.823 .0293286
722.554 .0293046
723.284 .0292804
724.014 .0292554
724.744 .0292302
725.474 .0292035
726.204 .0291760
726.933 .0291477
727.662 .0291188
728.391 .0290898
729.120 .0290611
729.849 .0290338
730.577 .0290084
731.305 .0289849
732.033 .0289633
732.760 .0289429
733.488 .0289241
734.215 .0289059
734.942 .0288881
735.669 .0288703
736.395 .0288521
737.122 .0288335
737.848 .0288150
738.573 .0287966
739.299 .0287786
740.024 .0287612
740.750 .0287446
741.474 .0287285
742.199 .0287122
742.924 .0286957
743.648 .0286788
744.372 .0286614
745.096 .0286437
745.819 .0286260
746.543 .0286088
747.266 .0285925
747.989 .0285779
748.711 .0285646
749.434 .0285530
750.156 .0285429
750.878 .0285340
751.599 .0285266
752.321 .0285205
753.042 .0285151
753.763 .0285107
754.484 .0285074
755.205 .0285051
755.925 .0285031
756.645 .0285012
757.365 .0284987
758.085 .0284950
758.804 .0284892
759.523 .0284809
760.242 .0284696
760.961 .0284558
761.679 .0284395
762.397 .0284209
763.115 .0284005
763.833 .0283781
764.551 .0283544
765.268 .0283297
765.985 .0283041
766.702 .0282782
767.418 .0282523
768.134 .0282271
768.850 .0282032
769.566 .0281811
770.282 .0281606
770.997 .0281421
771.712 .0281256
772.427 .0281106
773.142 .0280969
773.856 .0280845
774.570 .0280733
775.284 .0280633
775.998 .0280544
776.711 .0280465
777.424 .0280391
778.137 .0280320
778.849 .0280238
779.562 .0280145
780.274 .0280037
780.986 .0279913
781.697 .0279774
782.409 .0279628
783.120 .0279482
783.831 .0279347
784.541 .0279226
785.252 .0279130
785.962 .0279054
786.671 .0278995
787.381 .0278943
788.090 .0278892
788.799 .0278833
789.508 .0278764
790.217 .0278685
790.925 .0278600
791.633 .0278508
792.341 .0278417
793.048 .0278326
793.755 .0278238
794.462 .0278149
795.169 .0278053
795.875 .0277949
796.581 .0277833
797.287 .0277703
797.993 .0277561
798.698 .0277415
799.403 .0277271
800.108 .0277130
800.812 .0276994
801.517 .0276871
802.221 .0276759
802.924 .0276660
803.628 .0276572
804.331 .0276496
805.034 .0276430
805.736 .0276373
806.439 .0276324
807.141 .0276284
807.843 .0276249
808.544 .0276216
809.245 .0276180
809.946 .0276135
810.647 .0276082
811.347 .0276015
812.047 .0275939
812.747 .0275854
813.447 .0275760
814.146 .0275656
814.845 .0275547
815.543 .0275440
816.242 .0275331
816.940 .0275224
817.638 .0275120
818.335 .0275017
819.032 .0274917
819.729 .0274820
820.426 .0274725
821.122 .0274633
821.818 .0274543
822.514 .0274458
823.209 .0274374
823.905 .0274288
824.599 .0274201
825.294 .0274111
825.988 .0274013
826.682 .0273904
827.376 .0273782
828.069 .0273648
828.762 .0273501
829.455 .0273345
830.147 .0273180
830.840 .0273011
831.531 .0272844
832.223 .0272681
832.914 .0272523
833.605 .0272376
834.296 .0272237
834.986 .0272107
835.676 .0271991
836.366 .0271887
837.055 .0271784
837.744 .0271687
838.433 .0271589
839.121 .0271488
839.809 .0271375
840.497 .0271255
841.185 .0271126
841.872 .0270993
842.559 .0270860
843.245 .0270727
843.932 .0270600
844.617 .0270481
845.303 .0270364
845.988 .0270247
846.673 .0270129
847.358 .0270009
848.042 .0269888
848.726 .0269764
849.410 .0269643
850.093 .0269525
850.776 .0269414
851.459 .0269311
852.141 .0269209
852.823 .0269107
853.505 .0269003
854.186 .0268889
854.867 .0268770
855.548 .0268639
856.228 .0268506
856.908 .0268368
857.588 .0268223
858.267 .0268070
858.946 .0267911
859.625 .0267742
860.303 .0267569
860.981 .0267388
861.659 .0267208
862.336 .0267025
863.013 .0266852
863.690 .0266688
864.366 .0266533
865.042 .0266388
865.718 .0266248
866.393 .0266108
867.068 .0265967
867.743 .0265819
868.417 .0265669
869.091 .0265521
869.765 .0265379
870.438 .0265241
871.111 .0265107
871.783 .0264982
872.456 .0264861
873.127 .0264741
873.799 .0264624
874.470 .0264505
875.141 .0264388
875.811 .0264277
876.481 .0264166
877.151 .0264060
877.820 .0263958
878.489 .0263858
879.158 .0263756
879.826 .0263650
880.494 .0263539
881.162 .0263423
881.829 .0263305
882.496 .0263181
883.163 .0263051
883.829 .0262923
884.495 .0262788
885.160 .0262650
885.825 .0262512
886.490 .0262373
887.154 .0262235
887.818 .0262102
888.482 .0261974
889.145 .0261850
889.808 .0261732
890.471 .0261615
891.133 .0261498
891.795 .0261385
892.456 .0261274
893.117 .0261172
893.778 .0261084
894.439 .0261011
895.099 .0260953
895.758 .0260910
896.417 .0260880
897.076 .0260850
897.735 .0260812
898.393 .0260761
899.051 .0260688
899.708 .0260594
900.365 .0260480
901.022 .0260351
901.678 .0260217
902.334 .0260078
902.990 .0259938
903.645 .0259797
904.300 .0259656
904.954 .0259512
905.608 .0259364
906.262 .0259211
906.915 .0259055
907.568 .0258892
908.221 .0258733
908.873 .0258579
909.525 .0258431
910.176 .0258291
910.828 .0258163
911.478 .0258046
912.129 .0257937
912.778 .0257833
913.428 .0257736
914.077 .0257641
914.726 .0257552
915.375 .0257460
916.023 .0257369
916.670 .0257277
917.318 .0257188
917.964 .0257092
918.611 .0256997
919.257 .0256898
919.903 .0256800
920.548 .0256700
921.193 .0256601
921.838 .0256500
922.482 .0256398
923.126 .0256298
923.770 .0256194
924.413 .0256088
925.056 .0255983
925.698 .0255870
926.340 .0255757
926.982 .0255641
927.623 .0255527
928.264 .0255409
928.904 .0255296
929.544 .0255185
930.184 .0255072
930.823 .0254957
931.462 .0254836
932.101 .0254717
932.739 .0254597
933.377 .0254472
934.014 .0254341
934.651 .0254208
935.288 .0254073
935.924 .0253934
936.560 .0253794
937.196 .0253652
937.831 .0253502
938.466 .0253343
939.100 .0253178
939.734 .0253005
940.368 .0252830
941.001 .0252659
941.634 .0252493
942.266 .0252333
942.899 .0252176
943.530 .0252021
944.162 .0251872
944.793 .0251725
945.423 .0251570
946.053 .0251405
946.683 .0251234
947.313 .0251057
947.942 .0250875
948.571 .0250693
949.199 .0250514
949.827 .0250337
950.455 .0250161
951.082 .0249984
951.709 .0249805
952.335 .0249621
952.961 .0249431
953.587 .0249239
954.212 .0249047
954.837 .0248859
955.462 .0248684
956.086 .0248527
956.710 .0248394
957.334 .0248283
957.957 .0248188
958.579 .0248102
959.202 .0248020
959.824 .0247927
960.445 .0247822
961.067 .0247711
961.688 .0247592
962.308 .0247470
962.928 .0247356
963.548 .0247248
964.168 .0247148
964.787 .0247055
965.406 .0246965
966.024 .0246867
966.642 .0246761
967.260 .0246642
967.877 .0246508
968.494 .0246365
969.110 .0246218
969.727 .0246069
970.342 .0245932
970.958 .0245807
971.573 .0245693
972.188 .0245588
972.802 .0245496
973.416 .0245409
974.030 .0245327
974.643 .0245247
975.256 .0245170
975.869 .0245095
976.481 .0245028
977.093 .0244974
977.705 .0244933
978.316 .0244915
978.927 .0244918
979.538 .0244939
980.148 .0244977
980.758 .0245018
981.367 .0245064
981.977 .0245103
982.586 .0245131
983.194 .0245143
983.802 .0245143
984.410 .0245134
985.018 .0245114
985.625 .0245089
986.232 .0245064
986.838 .0245039
987.445 .0245010
988.050 .0244972
988.656 .0244923
989.261 .0244856
989.866 .0244763
990.471 .0244654
991.075 .0244536
991.679 .0244411
992.282 .0244291
992.886 .0244185
993.489 .0244100
994.091 .0244034
994.694 .0243992
995.296 .0243966
995.897 .0243952
996.499 .0243941
997.100 .0243926
997.701 .0243905
998.301 .0243885
998.901 .0243863
999.501 .0243848
1000.101 .0243852
1000.700 .0243875
1001.299 .0243917
1001.898 .0243979
1002.496 .0244058
1003.094 .0244146
1003.692 .0244232
1004.289 .0244317
1004.887 .0244387
1005.484 .0244448
1006.080 .0244491
1006.677 .0244525
1007.273 .0244556
1007.868 .0244585
1008.464 .0244618
1009.059 .0244654
1009.654 .0244695
1010.249 .0244740
1010.843 .0244784
1011.437 .0244826
1012.031 .0244857
1012.625 .0244887
1013.218 .0244903
1013.811 .0244917
1014.404 .0244927
1014.997 .0244938
1015.589 .0244957
1016.181 .0244989
1016.773 .0245028
1017.365 .0245076
1017.956 .0245131
1018.547 .0245187
1019.138 .0245236
1019.728 .0245287
1020.319 .0245334
1020.909 .0245384
1021.499 .0245431
1022.088 .0245484
1022.678 .0245527
1023.267 .0245575
1023.856 .0245616
1024.445 .0245648
1025.033 .0245674
1025.621 .0245691
1026.209 .0245698
1026.797 .0245700
1027.385 .0245695
1027.972 .0245688
1028.560 .0245679
1029.147 .0245674
1029.734 .0245668
1030.320 .0245662
1030.907 .0245656
1031.493 .0245652
1032.079 .0245652
1032.665 .0245664
1033.250 .0245683
1033.836 .0245714
1034.421 .0245756
1035.006 .0245805
1035.591 .0245870
1036.176 .0245940
1036.761 .0246014
1037.345 .0246092
1037.929 .0246169
1038.514 .0246237
1039.097 .0246300
1039.681 .0246359
1040.265 .0246412
1040.848 .0246459
1041.432 .0246498
1042.015 .0246526
1042.598 .0246546
1043.181 .0246562
1043.764 .0246562
1044.346 .0246555
1044.929 .0246545
1045.511 .0246519
1046.094 .0246487
1046.676 .0246446
1047.258 .0246387
1047.840 .0246324
1048.422 .0246262
1049.003 .0246203
1049.585 .0246134
1050.166 .0246070
1050.748 .0246001
1051.329 .0245929
1051.910 .0245854
1052.491 .0245772
1053.072 .0245679
1053.653 .0245593
1054.234 .0245503
1054.815 .0245415
1055.396 .0245341
1055.976 .0245284
1056.557 .0245238
1057.138 .0245203
1057.718 .0245156
1058.298 .0245105
1058.879 .0245040
1059.459 .0244968
1060.039 .0244876
1060.620 .0244779
1061.200 .0244678
1061.780 .0244578
1062.360 .0244472
1062.940 .0244368
1063.520 .0244258
1064.101 .0244150
1064.681 .0244022
1065.261 .0243869
1065.841 .0243695
1066.421 .0243507
1067.001 .0243311
1067.581 .0243121
1068.161 .0242936
1068.741 .0242767
1069.321 .0242616
1069.901 .0242510
1070.482 .0242431
1071.062 .0242393
1071.642 .0242394
1072.222 .0242439
1072.803 .0242520
1073.383 .0242639
1073.963 .0242786
1074.544 .0242966
1075.124 .0243162
1075.705 .0243361
1076.286 .0243542
1076.866 .0243722
1077.447 .0243893
1078.028 .0244048
1078.609 .0244196
1079.190 .0244342
1079.771 .0244467
1080.352 .0244573
1080.934 .0244644
1081.515 .0244681
1082.097 .0244668
1082.679 .0244625
1083.260 .0244554
1083.842 .0244465
1084.424 .0244389
1085.007 .0244336
1085.589 .0244310
1086.172 .0244338
1086.754 .0244377
1087.337 .0244419
1087.920 .0244465
1088.503 .0244499
1089.087 .0244493
1089.670 .0244466
1090.254 .0244425
1090.838 .0244361
1091.422 .0244283
1092.006 .0244203
1092.590 .0244107
1093.175 .0244003
1093.760 .0243881
1094.345 .0243719
1094.930 .0243546
1095.516 .0243365
1096.102 .0243159
1096.688 .0242956
1097.274 .0242782
1097.860 .0242616
1098.447 .0242457
1099.034 .0242332
1099.622 .0242231
1100.209 .0242149
1100.797 .0242103
1101.385 .0242058
1101.973 .0242044
1102.562 .0242048
1103.151 .0242056
1103.740 .0242060
1104.330 .0242074
1104.920 .0242089
1105.510 .0242092
1106.101 .0242110
1106.691 .0242147
1107.283 .0242180
1107.874 .0242255
1108.466 .0242332
1109.058 .0242416
1109.651 .0242485
1110.244 .0242547
1110.837 .0242594
1111.431 .0242644
1112.025 .0242687
1112.620 .0242729
1113.215 .0242770
1113.810 .0242832
1114.406 .0242892
1115.002 .0242950
1115.599 .0243005
1116.196 .0243053
1116.793 .0243067
1117.391 .0243063
1117.989 .0242997
1118.588 .0242920
1119.187 .0242799
1119.787 .0242665
1120.387 .0242496
1120.988 .0242337
1121.589 .0242205
1122.190 .0242095
1122.793 .0242038
1123.395 .0242059
1123.998 .0242126
1124.602 .0242228
1125.206 .0242357
1125.811 .0242521
1126.416 .0242677
1127.022 .0242884
1127.628 .0243102
1128.235 .0243387
1128.843 .0243720
1129.451 .0244125
1130.059 .0244568
1130.669 .0245094
1131.278 .0245658
1131.889 .0246210
1132.500 .0246784
1133.112 .0247325
1133.724 .0247824
1134.337 .0248318
1134.950 .0248794
1135.564 .0249249
1136.179 .0249677
1136.795 .0250160
1137.411 .0250634
1138.028 .0251158
1138.645 .0251722
1139.263 .0252311
1139.882 .0252943
1140.502 .0253539
1141.122 .0254113
1141.743 .0254729
1142.365 .0255441
1142.987 .0256020
1143.611 .0255462
1144.235 .0256438
1144.859 .0259049
1145.485 .0261304
