Measurement Sequence started on: 10-20-44-796
Integration time: 35
Scans to Average: 2 
>>>>>Begin Spectral Data<<<<<
432.953 .0454185
433.882 .0419449
434.810 .0409831
435.737 .0388539
436.662 .0374279
437.586 .0383412
438.509 .0377378
439.431 .0373594
440.351 .0370990
441.269 .0369376
442.187 .0368342
443.103 .0367390
444.018 .0366699
444.932 .0366125
445.844 .0365622
446.756 .0365253
447.666 .0365030
448.575 .0364908
449.482 .0364857
450.388 .0364747
451.294 .0364640
452.198 .0364404
453.100 .0364118
454.002 .0363828
454.902 .0363485
455.801 .0363051
456.699 .0362613
457.596 .0362196
458.492 .0361792
459.387 .0361446
460.280 .0361103
461.172 .0360717
462.064 .0360284
462.954 .0359704
463.843 .0359076
464.730 .0358413
465.617 .0357702
466.503 .0356966
467.387 .0356216
468.271 .0355452
469.153 .0354730
470.035 .0354095
470.915 .0353538
471.794 .0353030
472.673 .0352605
473.550 .0352235
474.426 .0351914
475.301 .0351675
476.175 .0351483
477.048 .0351345
477.920 .0351282
478.791 .0351245
479.661 .0351221
480.530 .0351227
481.398 .0351235
482.266 .0351256
483.132 .0351271
483.997 .0351239
484.861 .0351111
485.724 .0350953
486.587 .0350747
487.448 .0350479
488.308 .0350180
489.168 .0349879
490.026 .0349548
490.884 .0349211
491.741 .0348839
492.597 .0348446
493.452 .0348036
494.306 .0347607
495.159 .0347139
496.011 .0346678
496.862 .0346225
497.713 .0345745
498.562 .0345253
499.411 .0344768
500.259 .0344227
501.106 .0343607
501.952 .0342924
502.798 .0342173
503.642 .0341353
504.486 .0340501
505.329 .0339636
506.171 .0338761
507.012 .0337895
507.852 .0336977
508.692 .0336028
509.531 .0335021
510.369 .0333974
511.206 .0332851
512.043 .0331699
512.878 .0330517
513.713 .0329330
514.547 .0328134
515.381 .0326999
516.213 .0325861
517.045 .0324679
517.876 .0323411
518.706 .0322030
519.536 .0320525
520.365 .0318927
521.193 .0317210
522.020 .0315475
522.847 .0313757
523.673 .0312099
524.498 .0310415
525.323 .0308770
526.146 .0307164
526.969 .0305559
527.792 .0303966
528.614 .0302387
529.435 .0300873
530.255 .0299463
531.075 .0298137
531.894 .0296909
532.712 .0295808
533.530 .0294778
534.347 .0293752
535.163 .0292753
535.979 .0291796
536.794 .0290833
537.608 .0289908
538.422 .0289101
539.235 .0288426
540.048 .0287878
540.860 .0287446
541.671 .0287107
542.481 .0286907
543.292 .0286755
544.101 .0286645
544.910 .0286591
545.718 .0286613
546.526 .0286704
547.333 .0286897
548.139 .0287229
548.945 .0287671
549.750 .0288217
550.555 .0288842
551.359 .0289468
552.162 .0290068
552.965 .0290588
553.768 .0291039
554.569 .0291458
555.371 .0291797
556.171 .0292080
556.972 .0292357
557.771 .0292623
558.570 .0292889
559.369 .0293188
560.167 .0293507
560.964 .0293869
561.761 .0294277
562.558 .0294749
563.354 .0295253
564.149 .0295798
564.944 .0296364
565.738 .0296940
566.532 .0297517
567.325 .0298100
568.118 .0298658
568.910 .0299267
569.702 .0299884
570.494 .0300537
571.285 .0301211
572.075 .0301920
572.865 .0302640
573.654 .0303360
574.443 .0304044
575.232 .0304687
576.020 .0305266
576.807 .0305823
577.594 .0306349
578.381 .0306879
579.167 .0307384
579.952 .0307902
580.738 .0308426
581.522 .0308959
582.307 .0309461
583.091 .0309953
583.874 .0310396
584.657 .0310777
585.440 .0311107
586.222 .0311375
587.004 .0311613
587.785 .0311847
588.566 .0312081
589.346 .0312336
590.126 .0312587
590.906 .0312844
591.685 .0313080
592.464 .0313300
593.242 .0313484
594.020 .0313610
594.797 .0313698
595.575 .0313760
596.351 .0313798
597.128 .0313830
597.904 .0313847
598.679 .0313864
599.454 .0313864
600.229 .0313839
601.004 .0313771
601.778 .0313660
602.551 .0313499
603.325 .0313303
604.097 .0313074
604.870 .0312838
605.642 .0312607
606.414 .0312398
607.185 .0312208
607.956 .0312043
608.727 .0311889
609.497 .0311742
610.267 .0311581
611.037 .0311412
611.806 .0311219
612.575 .0311011
613.344 .0310791
614.112 .0310568
614.880 .0310342
615.647 .0310122
616.414 .0309898
617.181 .0309670
617.948 .0309427
618.714 .0309169
619.480 .0308890
620.245 .0308606
621.011 .0308314
621.775 .0308023
622.540 .0307735
623.304 .0307464
624.068 .0307209
624.832 .0306969
625.595 .0306742
626.358 .0306525
627.120 .0306311
627.883 .0306100
628.645 .0305889
629.406 .0305680
630.168 .0305471
630.929 .0305267
631.689 .0305060
632.450 .0304849
633.210 .0304628
633.970 .0304396
634.729 .0304149
635.489 .0303886
636.248 .0303606
637.006 .0303311
637.765 .0303014
638.523 .0302713
639.280 .0302409
640.038 .0302114
640.795 .0301827
641.552 .0301542
642.309 .0301263
643.065 .0300994
643.821 .0300727
644.577 .0300456
645.332 .0300190
646.088 .0299921
646.843 .0299656
647.597 .0299399
648.352 .0299151
649.106 .0298928
649.860 .0298736
650.613 .0298563
651.367 .0298422
652.120 .0298316
652.872 .0298232
653.625 .0298160
654.377 .0298105
655.129 .0298056
655.881 .0298007
656.632 .0297960
657.384 .0297915
658.135 .0297872
658.885 .0297836
659.636 .0297796
660.386 .0297752
661.136 .0297707
661.885 .0297651
662.635 .0297579
663.384 .0297495
664.133 .0297388
664.881 .0297253
665.630 .0297095
666.378 .0296916
667.126 .0296717
667.874 .0296507
668.621 .0296294
669.368 .0296089
670.115 .0295893
670.862 .0295709
671.608 .0295541
672.354 .0295391
673.100 .0295249
673.846 .0295115
674.591 .0294985
675.337 .0294858
676.082 .0294733
676.826 .0294611
677.571 .0294496
678.315 .0294395
679.059 .0294309
679.803 .0294229
680.547 .0294158
681.290 .0294090
682.033 .0294009
682.776 .0293919
683.518 .0293815
684.261 .0293692
685.003 .0293557
685.745 .0293412
686.487 .0293257
687.228 .0293097
687.969 .0292935
688.710 .0292769
689.451 .0292597
690.192 .0292417
690.932 .0292227
691.672 .0292027
692.412 .0291823
693.152 .0291617
693.891 .0291410
694.630 .0291211
695.369 .0291020
696.108 .0290831
696.846 .0290639
697.585 .0290447
698.323 .0290252
699.061 .0290053
699.798 .0289850
700.536 .0289645
701.273 .0289445
702.010 .0289251
702.746 .0289062
703.483 .0288876
704.219 .0288695
704.955 .0288513
705.691 .0288324
706.427 .0288124
707.162 .0287912
707.897 .0287691
708.632 .0287463
709.367 .0287228
710.101 .0286985
710.835 .0286739
711.569 .0286491
712.303 .0286238
713.037 .0285986
713.770 .0285730
714.503 .0285475
715.236 .0285223
715.969 .0284976
716.702 .0284732
717.434 .0284498
718.166 .0284271
718.898 .0284049
719.629 .0283832
720.361 .0283618
721.092 .0283406
721.823 .0283199
722.554 .0282990
723.284 .0282783
724.014 .0282567
724.744 .0282348
725.474 .0282114
726.204 .0281872
726.933 .0281618
727.662 .0281354
728.391 .0281087
729.120 .0280813
729.849 .0280540
730.577 .0280274
731.305 .0280018
732.033 .0279774
732.760 .0279538
733.488 .0279308
734.215 .0279085
734.942 .0278872
735.669 .0278662
736.395 .0278463
737.122 .0278277
737.848 .0278101
738.573 .0277936
739.299 .0277775
740.024 .0277621
740.750 .0277469
741.474 .0277322
742.199 .0277167
742.924 .0277005
743.648 .0276842
744.372 .0276676
745.096 .0276512
745.819 .0276356
746.543 .0276202
747.266 .0276062
747.989 .0275932
748.711 .0275812
749.434 .0275696
750.156 .0275592
750.878 .0275500
751.599 .0275422
752.321 .0275352
753.042 .0275295
753.763 .0275246
754.484 .0275216
755.205 .0275193
755.925 .0275174
756.645 .0275154
757.365 .0275129
758.085 .0275096
758.804 .0275050
759.523 .0274982
760.242 .0274900
760.961 .0274805
761.679 .0274703
762.397 .0274586
763.115 .0274458
763.833 .0274319
764.551 .0274173
765.268 .0274012
765.985 .0273839
766.702 .0273653
767.418 .0273465
768.134 .0273275
768.850 .0273086
769.566 .0272908
770.282 .0272745
770.997 .0272600
771.712 .0272471
772.427 .0272351
773.142 .0272238
773.856 .0272126
774.570 .0272017
775.284 .0271909
775.998 .0271802
776.711 .0271698
777.424 .0271600
778.137 .0271506
778.849 .0271415
779.562 .0271327
780.274 .0271233
780.986 .0271134
781.697 .0271024
782.409 .0270908
783.120 .0270787
783.831 .0270672
784.541 .0270570
785.252 .0270482
785.962 .0270412
786.671 .0270357
787.381 .0270310
788.090 .0270268
788.799 .0270224
789.508 .0270176
790.217 .0270120
790.925 .0270059
791.633 .0269988
792.341 .0269917
793.048 .0269849
793.755 .0269782
794.462 .0269713
795.169 .0269644
795.875 .0269567
796.581 .0269482
797.287 .0269384
797.993 .0269273
798.698 .0269156
799.403 .0269034
800.108 .0268908
800.812 .0268785
801.517 .0268663
802.221 .0268548
802.924 .0268438
803.628 .0268334
804.331 .0268236
805.034 .0268141
805.736 .0268045
806.439 .0267948
807.141 .0267852
807.843 .0267757
808.544 .0267658
809.245 .0267558
809.946 .0267451
810.647 .0267339
811.347 .0267226
812.047 .0267110
812.747 .0266995
813.447 .0266883
814.146 .0266773
814.845 .0266666
815.543 .0266559
816.242 .0266454
816.940 .0266345
817.638 .0266234
818.335 .0266117
819.032 .0265989
819.729 .0265856
820.426 .0265716
821.122 .0265569
821.818 .0265413
822.514 .0265246
823.209 .0265071
823.905 .0264885
824.599 .0264693
825.294 .0264492
825.988 .0264289
826.682 .0264084
827.376 .0263883
828.069 .0263688
828.762 .0263497
829.455 .0263306
830.147 .0263116
830.840 .0262923
831.531 .0262727
832.223 .0262529
832.914 .0262327
833.605 .0262127
834.296 .0261935
834.986 .0261744
835.676 .0261561
836.366 .0261386
837.055 .0261217
837.744 .0261050
838.433 .0260881
839.121 .0260705
839.809 .0260518
840.497 .0260325
841.185 .0260124
841.872 .0259921
842.559 .0259721
843.245 .0259521
843.932 .0259330
844.617 .0259150
845.303 .0258979
845.988 .0258813
846.673 .0258655
847.358 .0258505
848.042 .0258359
848.726 .0258215
849.410 .0258072
850.093 .0257928
850.776 .0257790
851.459 .0257652
852.141 .0257512
852.823 .0257377
853.505 .0257250
854.186 .0257124
854.867 .0257006
855.548 .0256887
856.228 .0256768
856.908 .0256645
857.588 .0256516
858.267 .0256374
858.946 .0256220
859.625 .0256053
860.303 .0255877
860.981 .0255696
861.659 .0255520
862.336 .0255340
863.013 .0255167
863.690 .0255002
864.366 .0254841
865.042 .0254678
865.718 .0254521
866.393 .0254368
867.068 .0254218
867.743 .0254074
868.417 .0253937
869.091 .0253808
869.765 .0253689
870.438 .0253575
871.111 .0253459
871.783 .0253340
872.456 .0253209
873.127 .0253064
873.799 .0252910
874.470 .0252747
875.141 .0252574
875.811 .0252400
876.481 .0252222
877.151 .0252041
877.820 .0251852
878.489 .0251658
879.158 .0251455
879.826 .0251248
880.494 .0251035
881.162 .0250820
881.829 .0250612
882.496 .0250415
883.163 .0250230
883.829 .0250065
884.495 .0249917
885.160 .0249785
885.825 .0249669
886.490 .0249570
887.154 .0249485
887.818 .0249411
888.482 .0249348
889.145 .0249294
889.808 .0249248
890.471 .0249209
891.133 .0249177
891.795 .0249152
892.456 .0249136
893.117 .0249121
893.778 .0249112
894.439 .0249108
895.099 .0249104
895.758 .0249095
896.417 .0249076
897.076 .0249042
897.735 .0248997
898.393 .0248939
899.051 .0248879
899.708 .0248818
900.365 .0248762
901.022 .0248711
901.678 .0248672
902.334 .0248643
902.990 .0248620
903.645 .0248595
904.300 .0248568
904.954 .0248531
905.608 .0248486
906.262 .0248435
906.915 .0248387
907.568 .0248345
908.221 .0248312
908.873 .0248286
909.525 .0248269
910.176 .0248256
910.828 .0248244
911.478 .0248227
912.129 .0248200
912.778 .0248158
913.428 .0248100
914.077 .0248030
914.726 .0247956
915.375 .0247882
916.023 .0247814
916.670 .0247753
917.318 .0247700
917.964 .0247659
918.611 .0247623
919.257 .0247593
919.903 .0247566
920.548 .0247538
921.193 .0247509
921.838 .0247482
922.482 .0247464
923.126 .0247459
923.770 .0247467
924.413 .0247490
925.056 .0247525
925.698 .0247573
926.340 .0247627
926.982 .0247685
927.623 .0247744
928.264 .0247802
928.904 .0247846
929.544 .0247879
930.184 .0247901
930.823 .0247912
931.462 .0247908
932.101 .0247890
932.739 .0247853
933.377 .0247801
934.014 .0247727
934.651 .0247637
935.288 .0247527
935.924 .0247408
936.560 .0247273
937.196 .0247133
937.831 .0246989
938.466 .0246846
939.100 .0246703
939.734 .0246566
940.368 .0246435
941.001 .0246309
941.634 .0246191
942.266 .0246083
942.899 .0245980
943.530 .0245889
944.162 .0245800
944.793 .0245722
945.423 .0245646
946.053 .0245575
946.683 .0245499
947.313 .0245419
947.942 .0245330
948.571 .0245228
949.199 .0245112
949.827 .0244981
950.455 .0244835
951.082 .0244682
951.709 .0244524
952.335 .0244370
952.961 .0244224
953.587 .0244094
954.212 .0243971
954.837 .0243860
955.462 .0243753
956.086 .0243647
956.710 .0243544
957.334 .0243443
957.957 .0243344
958.579 .0243249
959.202 .0243162
959.824 .0243079
960.445 .0243001
961.067 .0242930
961.688 .0242862
962.308 .0242791
962.928 .0242713
963.548 .0242626
964.168 .0242525
964.787 .0242413
965.406 .0242291
966.024 .0242167
966.642 .0242051
967.260 .0241940
967.877 .0241841
968.494 .0241754
969.110 .0241683
969.727 .0241618
970.342 .0241556
970.958 .0241496
971.573 .0241435
972.188 .0241376
972.802 .0241320
973.416 .0241275
974.030 .0241238
974.643 .0241212
975.256 .0241193
975.869 .0241176
976.481 .0241160
977.093 .0241137
977.705 .0241115
978.316 .0241092
978.927 .0241066
979.538 .0241036
980.148 .0241004
980.758 .0240975
981.367 .0240943
981.977 .0240910
982.586 .0240872
983.194 .0240831
983.802 .0240789
984.410 .0240739
985.018 .0240684
985.625 .0240625
986.232 .0240569
986.838 .0240513
987.445 .0240461
988.050 .0240406
988.656 .0240356
989.261 .0240305
989.866 .0240249
990.471 .0240191
991.075 .0240131
991.679 .0240071
992.282 .0240014
992.886 .0239957
993.489 .0239905
994.091 .0239856
994.694 .0239816
995.296 .0239778
995.897 .0239742
996.499 .0239699
997.100 .0239642
997.701 .0239580
998.301 .0239508
998.901 .0239422
999.501 .0239328
1000.101 .0239231
1000.700 .0239132
1001.299 .0239032
1001.898 .0238927
1002.496 .0238822
1003.094 .0238719
1003.692 .0238608
1004.289 .0238488
1004.887 .0238360
1005.484 .0238226
1006.080 .0238095
1006.677 .0237964
1007.273 .0237841
1007.868 .0237722
1008.464 .0237619
1009.059 .0237527
1009.654 .0237453
1010.249 .0237390
1010.843 .0237339
1011.437 .0237300
1012.031 .0237268
1012.625 .0237238
1013.218 .0237205
1013.811 .0237172
1014.404 .0237141
1014.997 .0237110
1015.589 .0237081
1016.181 .0237049
1016.773 .0237026
1017.365 .0236998
1017.956 .0236962
1018.547 .0236909
1019.138 .0236839
1019.728 .0236748
1020.319 .0236643
1020.909 .0236518
1021.499 .0236382
1022.088 .0236250
1022.678 .0236117
1023.267 .0235989
1023.856 .0235872
1024.445 .0235758
1025.033 .0235650
1025.621 .0235545
1026.209 .0235445
1026.797 .0235344
1027.385 .0235258
1027.972 .0235184
1028.560 .0235126
1029.147 .0235088
1029.734 .0235067
1030.320 .0235058
1030.907 .0235057
1031.493 .0235052
1032.079 .0235035
1032.665 .0235008
1033.250 .0234969
1033.836 .0234914
1034.421 .0234850
1035.006 .0234781
1035.591 .0234708
1036.176 .0234635
1036.761 .0234555
1037.345 .0234466
1037.929 .0234360
1038.514 .0234234
1039.097 .0234092
1039.681 .0233935
1040.265 .0233769
1040.848 .0233611
1041.432 .0233460
1042.015 .0233326
1042.598 .0233204
1043.181 .0233100
1043.764 .0233004
1044.346 .0232917
1044.929 .0232826
1045.511 .0232731
1046.094 .0232629
1046.676 .0232529
1047.258 .0232426
1047.840 .0232332
1048.422 .0232246
1049.003 .0232160
1049.585 .0232073
1050.166 .0231987
1050.748 .0231904
1051.329 .0231826
1051.910 .0231748
1052.491 .0231681
1053.072 .0231614
1053.653 .0231558
1054.234 .0231510
1054.815 .0231463
1055.396 .0231418
1055.976 .0231369
1056.557 .0231318
1057.138 .0231260
1057.718 .0231212
1058.298 .0231173
1058.879 .0231141
1059.459 .0231116
1060.039 .0231090
1060.620 .0231042
1061.200 .0230976
1061.780 .0230891
1062.360 .0230777
1062.940 .0230643
1063.520 .0230506
1064.101 .0230359
1064.681 .0230227
1065.261 .0230116
1065.841 .0230024
1066.421 .0229953
1067.001 .0229911
1067.581 .0229872
1068.161 .0229825
1068.741 .0229780
1069.321 .0229724
1069.901 .0229659
1070.482 .0229603
1071.062 .0229558
1071.642 .0229521
1072.222 .0229503
1072.803 .0229507
1073.383 .0229502
1073.963 .0229490
1074.544 .0229454
1075.124 .0229382
1075.705 .0229275
1076.286 .0229128
1076.866 .0228964
1077.447 .0228794
1078.028 .0228654
1078.609 .0228538
1079.190 .0228468
1079.771 .0228445
1080.352 .0228444
1080.934 .0228435
1081.515 .0228419
1082.097 .0228391
1082.679 .0228330
1083.260 .0228233
1083.842 .0228124
1084.424 .0228005
1085.007 .0227895
1085.589 .0227793
1086.172 .0227717
1086.754 .0227646
1087.337 .0227589
1087.920 .0227520
1088.503 .0227456
1089.087 .0227386
1089.670 .0227303
1090.254 .0227206
1090.838 .0227130
1091.422 .0227059
1092.006 .0226986
1092.590 .0226944
1093.175 .0226940
1093.760 .0226960
1094.345 .0227002
1094.930 .0227049
1095.516 .0227103
1096.102 .0227137
1096.688 .0227145
1097.274 .0227104
1097.860 .0227028
1098.447 .0226918
1099.034 .0226782
1099.622 .0226636
1100.209 .0226501
1100.797 .0226364
1101.385 .0226244
1101.973 .0226140
1102.562 .0226027
1103.151 .0225910
1103.740 .0225795
1104.330 .0225702
1104.920 .0225627
1105.510 .0225583
1106.101 .0225602
1106.691 .0225651
1107.283 .0225749
1107.874 .0225853
1108.466 .0225950
1109.058 .0226035
1109.651 .0226114
1110.244 .0226184
1110.837 .0226260
1111.431 .0226356
1112.025 .0226474
1112.620 .0226615
1113.215 .0226791
1113.810 .0226967
1114.406 .0227130
1115.002 .0227274
1115.599 .0227373
1116.196 .0227404
1116.793 .0227413
1117.391 .0227420
1117.989 .0227440
1118.588 .0227493
1119.187 .0227577
1119.787 .0227692
1120.387 .0227844
1120.988 .0228021
1121.589 .0228209
1122.190 .0228405
1122.793 .0228598
1123.395 .0228776
1123.998 .0228953
1124.602 .0229161
1125.206 .0229385
1125.811 .0229677
1126.416 .0230042
1127.022 .0230462
1127.628 .0230891
1128.235 .0231333
1128.843 .0231767
1129.451 .0232193
1130.059 .0232579
1130.669 .0232898
1131.278 .0233163
1131.889 .0233389
1132.500 .0233575
1133.112 .0233724
1133.724 .0233892
1134.337 .0234116
1134.950 .0234329
1135.564 .0234590
1136.179 .0234864
1136.795 .0235156
1137.411 .0235522
1138.028 .0235941
1138.645 .0236435
1139.263 .0236977
1139.882 .0237631
1140.502 .0238407
1141.122 .0239346
1141.743 .0240510
1142.365 .0241955
1142.987 .0242245
1143.611 .0244510
1144.235 .0246697
1144.859 .0249288
1145.485 .0254041
