Measurement Sequence started on: 10-20-44-796
Integration time: 35
Scans to Average: 2 
>>>>>Begin Spectral Data<<<<<
432.953 .0366385
433.882 .0400071
434.810 .0407308
435.737 .0429269
436.662 .0409753
437.586 .0410283
438.509 .0410736
439.431 .0409201
440.351 .0407110
441.269 .0404454
442.187 .0402450
443.103 .0400517
444.018 .0398981
444.932 .0397763
445.844 .0397058
446.756 .0396442
447.666 .0396023
448.575 .0395716
449.482 .0395647
450.388 .0395623
451.294 .0395692
452.198 .0395806
453.100 .0395825
454.002 .0395869
454.902 .0395922
455.801 .0395997
456.699 .0396050
457.596 .0395994
458.492 .0395849
459.387 .0395645
460.280 .0395388
461.172 .0395055
462.064 .0394687
462.954 .0394277
463.843 .0393803
464.730 .0393270
465.617 .0392659
466.503 .0392050
467.387 .0391378
468.271 .0390715
469.153 .0390057
470.035 .0389424
470.915 .0388828
471.794 .0388299
472.673 .0387863
473.550 .0387514
474.426 .0387215
475.301 .0386919
476.175 .0386599
477.048 .0386265
477.920 .0385873
478.791 .0385428
479.661 .0384937
480.530 .0384484
481.398 .0384021
482.266 .0383635
483.132 .0383304
483.997 .0383016
484.861 .0382767
485.724 .0382531
486.587 .0382268
487.448 .0381978
488.308 .0381632
489.168 .0381269
490.026 .0380868
490.884 .0380452
491.741 .0379999
492.597 .0379529
493.452 .0379041
494.306 .0378495
495.159 .0377844
496.011 .0377140
496.862 .0376347
497.713 .0375497
498.562 .0374593
499.411 .0373660
500.259 .0372730
501.106 .0371774
501.952 .0370767
502.798 .0369753
503.642 .0368711
504.486 .0367625
505.329 .0366492
506.171 .0365332
507.012 .0364140
507.852 .0362932
508.692 .0361720
509.531 .0360491
510.369 .0359225
511.206 .0357906
512.043 .0356494
512.878 .0354979
513.713 .0353403
514.547 .0351722
515.381 .0350042
516.213 .0348373
517.045 .0346683
517.876 .0345002
518.706 .0343384
519.536 .0341876
520.365 .0340425
521.193 .0339030
522.020 .0337682
522.847 .0336443
523.673 .0335350
524.498 .0334359
525.323 .0333512
526.146 .0332813
526.969 .0332257
527.792 .0331637
528.614 .0330970
529.435 .0330242
530.255 .0329420
531.075 .0328442
531.894 .0327266
532.712 .0325952
533.530 .0324525
534.347 .0323082
535.163 .0321686
535.979 .0320417
536.794 .0319380
537.608 .0318513
538.422 .0317845
539.235 .0317346
540.048 .0317008
540.860 .0316704
541.671 .0316475
542.481 .0316261
543.292 .0315968
544.101 .0315648
544.910 .0315385
545.718 .0315239
546.526 .0315211
547.333 .0315318
548.139 .0315511
548.945 .0315803
549.750 .0316122
550.555 .0316378
551.359 .0316623
552.162 .0316841
552.965 .0316983
553.768 .0317034
554.569 .0317118
555.371 .0317254
556.171 .0317471
556.972 .0317821
557.771 .0318230
558.570 .0318693
559.369 .0319161
560.167 .0319562
560.964 .0319923
561.761 .0320246
562.558 .0320535
563.354 .0320814
564.149 .0321121
564.944 .0321455
565.738 .0321820
566.532 .0322265
567.325 .0322760
568.118 .0323260
568.910 .0323788
569.702 .0324322
570.494 .0324875
571.285 .0325487
572.075 .0326119
572.865 .0326768
573.654 .0327467
574.443 .0328155
575.232 .0328816
576.020 .0329437
576.807 .0330032
577.594 .0330563
578.381 .0331033
579.167 .0331480
579.952 .0331907
580.738 .0332356
581.522 .0332830
582.307 .0333290
583.091 .0333749
583.874 .0334152
584.657 .0334488
585.440 .0334727
586.222 .0334880
587.004 .0334936
587.785 .0334925
588.566 .0334896
589.346 .0334875
590.126 .0334869
590.906 .0334900
591.685 .0334965
592.464 .0335035
593.242 .0335104
594.020 .0335144
594.797 .0335148
595.575 .0335123
596.351 .0335054
597.128 .0334959
597.904 .0334838
598.679 .0334718
599.454 .0334590
600.229 .0334469
601.004 .0334359
601.778 .0334228
602.551 .0334074
603.325 .0333889
604.097 .0333662
604.870 .0333402
605.642 .0333121
606.414 .0332833
607.185 .0332537
607.956 .0332256
608.727 .0331984
609.497 .0331740
610.267 .0331517
611.037 .0331306
611.806 .0331092
612.575 .0330881
613.344 .0330660
614.112 .0330424
614.880 .0330186
615.647 .0329949
616.414 .0329715
617.181 .0329495
617.948 .0329280
618.714 .0329075
619.480 .0328870
620.245 .0328666
621.011 .0328446
621.775 .0328207
622.540 .0327945
623.304 .0327659
624.068 .0327359
624.832 .0327054
625.595 .0326743
626.358 .0326436
627.120 .0326139
627.883 .0325852
628.645 .0325571
629.406 .0325295
630.168 .0325012
630.929 .0324729
631.689 .0324440
632.450 .0324148
633.210 .0323853
633.970 .0323556
634.729 .0323261
635.489 .0322962
636.248 .0322666
637.006 .0322375
637.765 .0322080
638.523 .0321789
639.280 .0321500
640.038 .0321214
640.795 .0320933
641.552 .0320662
642.309 .0320401
643.065 .0320148
643.821 .0319895
644.577 .0319628
645.332 .0319342
646.088 .0319041
646.843 .0318727
647.597 .0318399
648.352 .0318073
649.106 .0317760
649.860 .0317459
650.613 .0317186
651.367 .0316935
652.120 .0316702
652.872 .0316473
653.625 .0316248
654.377 .0316016
655.129 .0315783
655.881 .0315551
656.632 .0315327
657.384 .0315112
658.135 .0314914
658.885 .0314724
659.636 .0314541
660.386 .0314366
661.136 .0314194
661.885 .0314012
662.635 .0313828
663.384 .0313642
664.133 .0313458
664.881 .0313273
665.630 .0313097
666.378 .0312925
667.126 .0312758
667.874 .0312585
668.621 .0312410
669.368 .0312231
670.115 .0312059
670.862 .0311889
671.608 .0311729
672.354 .0311584
673.100 .0311453
673.846 .0311330
674.591 .0311214
675.337 .0311095
676.082 .0310971
676.826 .0310839
677.571 .0310703
678.315 .0310559
679.059 .0310411
679.803 .0310262
680.547 .0310118
681.290 .0309974
682.033 .0309821
682.776 .0309659
683.518 .0309487
684.261 .0309300
685.003 .0309102
685.745 .0308892
686.487 .0308677
687.228 .0308460
687.969 .0308242
688.710 .0308022
689.451 .0307802
690.192 .0307584
690.932 .0307367
691.672 .0307147
692.412 .0306924
693.152 .0306694
693.891 .0306460
694.630 .0306225
695.369 .0305985
696.108 .0305744
696.846 .0305509
697.585 .0305278
698.323 .0305053
699.061 .0304837
699.798 .0304632
700.536 .0304433
701.273 .0304242
702.010 .0304050
702.746 .0303852
703.483 .0303649
704.219 .0303443
704.955 .0303235
705.691 .0303030
706.427 .0302832
707.162 .0302644
707.897 .0302466
708.632 .0302296
709.367 .0302128
710.101 .0301959
710.835 .0301783
711.569 .0301597
712.303 .0301398
713.037 .0301196
713.770 .0300990
714.503 .0300785
715.236 .0300583
715.969 .0300387
716.702 .0300194
717.434 .0300005
718.166 .0299816
718.898 .0299626
719.629 .0299435
720.361 .0299244
721.092 .0299047
721.823 .0298850
722.554 .0298650
723.284 .0298452
724.014 .0298250
724.744 .0298043
725.474 .0297832
726.204 .0297617
726.933 .0297398
727.662 .0297172
728.391 .0296941
729.120 .0296706
729.849 .0296471
730.577 .0296231
731.305 .0295982
732.033 .0295732
732.760 .0295481
733.488 .0295232
734.215 .0294983
734.942 .0294737
735.669 .0294492
736.395 .0294256
737.122 .0294026
737.848 .0293793
738.573 .0293561
739.299 .0293336
740.024 .0293117
740.750 .0292904
741.474 .0292700
742.199 .0292505
742.924 .0292323
743.648 .0292155
744.372 .0291989
745.096 .0291827
745.819 .0291670
746.543 .0291513
747.266 .0291361
747.989 .0291212
748.711 .0291067
749.434 .0290932
750.156 .0290813
750.878 .0290707
751.599 .0290614
752.321 .0290536
753.042 .0290469
753.763 .0290402
754.484 .0290332
755.205 .0290248
755.925 .0290149
756.645 .0290034
757.365 .0289903
758.085 .0289761
758.804 .0289609
759.523 .0289452
760.242 .0289291
760.961 .0289128
761.679 .0288957
762.397 .0288770
763.115 .0288560
763.833 .0288329
764.551 .0288072
765.268 .0287787
765.985 .0287484
766.702 .0287178
767.418 .0286877
768.134 .0286594
768.850 .0286339
769.566 .0286114
770.282 .0285917
770.997 .0285742
771.712 .0285580
772.427 .0285424
773.142 .0285267
773.856 .0285105
774.570 .0284936
775.284 .0284765
775.998 .0284597
776.711 .0284440
777.424 .0284303
778.137 .0284190
778.849 .0284089
779.562 .0284000
780.274 .0283916
780.986 .0283831
781.697 .0283736
782.409 .0283630
783.120 .0283519
783.831 .0283406
784.541 .0283295
785.252 .0283198
785.962 .0283117
786.671 .0283061
787.381 .0283021
788.090 .0282990
788.799 .0282959
789.508 .0282922
790.217 .0282871
790.925 .0282797
791.633 .0282706
792.341 .0282595
793.048 .0282463
793.755 .0282319
794.462 .0282166
795.169 .0282008
795.875 .0281850
796.581 .0281696
797.287 .0281543
797.993 .0281397
798.698 .0281254
799.403 .0281116
800.108 .0280984
800.812 .0280861
801.517 .0280741
802.221 .0280629
802.924 .0280528
803.628 .0280434
804.331 .0280349
805.034 .0280276
805.736 .0280205
806.439 .0280139
807.141 .0280073
807.843 .0280006
808.544 .0279927
809.245 .0279840
809.946 .0279742
810.647 .0279635
811.347 .0279524
812.047 .0279411
812.747 .0279298
813.447 .0279190
814.146 .0279086
814.845 .0278994
815.543 .0278913
816.242 .0278843
816.940 .0278785
817.638 .0278742
818.335 .0278706
819.032 .0278673
819.729 .0278640
820.426 .0278606
821.122 .0278568
821.818 .0278521
822.514 .0278463
823.209 .0278397
823.905 .0278324
824.599 .0278235
825.294 .0278133
825.988 .0278018
826.682 .0277882
827.376 .0277729
828.069 .0277560
828.762 .0277377
829.455 .0277188
830.147 .0277002
830.840 .0276823
831.531 .0276654
832.223 .0276502
832.914 .0276359
833.605 .0276228
834.296 .0276107
834.986 .0275990
835.676 .0275874
836.366 .0275766
837.055 .0275665
837.744 .0275572
838.433 .0275490
839.121 .0275421
839.809 .0275361
840.497 .0275312
841.185 .0275266
841.872 .0275220
842.559 .0275169
843.245 .0275116
843.932 .0275052
844.617 .0274981
845.303 .0274904
845.988 .0274824
846.673 .0274741
847.358 .0274662
848.042 .0274582
848.726 .0274505
849.410 .0274430
850.093 .0274353
850.776 .0274274
851.459 .0274192
852.141 .0274098
852.823 .0273995
853.505 .0273880
854.186 .0273761
854.867 .0273635
855.548 .0273512
856.228 .0273391
856.908 .0273272
857.588 .0273157
858.267 .0273044
858.946 .0272931
859.625 .0272821
860.303 .0272708
860.981 .0272596
861.659 .0272490
862.336 .0272389
863.013 .0272293
863.690 .0272206
864.366 .0272123
865.042 .0272040
865.718 .0271953
866.393 .0271860
867.068 .0271759
867.743 .0271653
868.417 .0271542
869.091 .0271427
869.765 .0271317
870.438 .0271208
871.111 .0271097
871.783 .0270985
872.456 .0270865
873.127 .0270732
873.799 .0270587
874.470 .0270431
875.141 .0270265
875.811 .0270096
876.481 .0269929
877.151 .0269772
877.820 .0269627
878.489 .0269498
879.158 .0269383
879.826 .0269282
880.494 .0269187
881.162 .0269091
881.829 .0268996
882.496 .0268900
883.163 .0268800
883.829 .0268702
884.495 .0268606
885.160 .0268518
885.825 .0268437
886.490 .0268364
887.154 .0268297
887.818 .0268234
888.482 .0268173
889.145 .0268105
889.808 .0268029
890.471 .0267943
891.133 .0267846
891.795 .0267740
892.456 .0267626
893.117 .0267511
893.778 .0267395
894.439 .0267280
895.099 .0267167
895.758 .0267054
896.417 .0266940
897.076 .0266825
897.735 .0266711
898.393 .0266597
899.051 .0266483
899.708 .0266369
900.365 .0266256
901.022 .0266150
901.678 .0266052
902.334 .0265955
902.990 .0265863
903.645 .0265773
904.300 .0265678
904.954 .0265578
905.608 .0265471
906.262 .0265359
906.915 .0265244
907.568 .0265119
908.221 .0264989
908.873 .0264855
909.525 .0264718
910.176 .0264576
910.828 .0264426
911.478 .0264276
912.129 .0264114
912.778 .0263939
913.428 .0263760
914.077 .0263576
914.726 .0263395
915.375 .0263217
916.023 .0263052
916.670 .0262904
917.318 .0262771
917.964 .0262654
918.611 .0262546
919.257 .0262444
919.903 .0262340
920.548 .0262228
921.193 .0262110
921.838 .0261993
922.482 .0261870
923.126 .0261749
923.770 .0261633
924.413 .0261519
925.056 .0261406
925.698 .0261288
926.340 .0261167
926.982 .0261040
927.623 .0260902
928.264 .0260755
928.904 .0260597
929.544 .0260436
930.184 .0260270
930.823 .0260102
931.462 .0259933
932.101 .0259764
932.739 .0259599
933.377 .0259436
934.014 .0259271
934.651 .0259107
935.288 .0258944
935.924 .0258779
936.560 .0258611
937.196 .0258439
937.831 .0258264
938.466 .0258084
939.100 .0257902
939.734 .0257721
940.368 .0257535
941.001 .0257354
941.634 .0257174
942.266 .0256998
942.899 .0256823
943.530 .0256645
944.162 .0256462
944.793 .0256277
945.423 .0256086
946.053 .0255884
946.683 .0255679
947.313 .0255476
947.942 .0255275
948.571 .0255071
949.199 .0254866
949.827 .0254656
950.455 .0254438
951.082 .0254219
951.709 .0253991
952.335 .0253761
952.961 .0253529
953.587 .0253299
954.212 .0253076
954.837 .0252864
955.462 .0252662
956.086 .0252470
956.710 .0252290
957.334 .0252117
957.957 .0251948
958.579 .0251783
959.202 .0251625
959.824 .0251470
960.445 .0251319
961.067 .0251172
961.688 .0251030
962.308 .0250894
962.928 .0250766
963.548 .0250649
964.168 .0250539
964.787 .0250431
965.406 .0250322
966.024 .0250214
966.642 .0250102
967.260 .0249990
967.877 .0249872
968.494 .0249748
969.110 .0249620
969.727 .0249486
970.342 .0249352
970.958 .0249219
971.573 .0249095
972.188 .0248973
972.802 .0248859
973.416 .0248756
974.030 .0248654
974.643 .0248558
975.256 .0248469
975.869 .0248381
976.481 .0248295
977.093 .0248214
977.705 .0248142
978.316 .0248080
978.927 .0248036
979.538 .0248001
980.148 .0247975
980.758 .0247956
981.367 .0247942
981.977 .0247932
982.586 .0247924
983.194 .0247917
983.802 .0247911
984.410 .0247906
985.018 .0247900
985.625 .0247889
986.232 .0247872
986.838 .0247848
987.445 .0247815
988.050 .0247772
988.656 .0247726
989.261 .0247680
989.866 .0247632
990.471 .0247586
991.075 .0247541
991.679 .0247494
992.282 .0247442
992.886 .0247387
993.489 .0247329
994.091 .0247265
994.694 .0247203
995.296 .0247138
995.897 .0247075
996.499 .0247021
997.100 .0246975
997.701 .0246935
998.301 .0246904
998.901 .0246881
999.501 .0246859
1000.101 .0246837
1000.700 .0246821
1001.299 .0246803
1001.898 .0246790
1002.496 .0246787
1003.094 .0246791
1003.692 .0246804
1004.289 .0246830
1004.887 .0246859
1005.484 .0246892
1006.080 .0246925
1006.677 .0246951
1007.273 .0246962
1007.868 .0246963
1008.464 .0246953
1009.059 .0246934
1009.654 .0246916
1010.249 .0246914
1010.843 .0246923
1011.437 .0246955
1012.031 .0247000
1012.625 .0247060
1013.218 .0247129
1013.811 .0247196
1014.404 .0247255
1014.997 .0247306
1015.589 .0247344
1016.181 .0247373
1016.773 .0247392
1017.365 .0247414
1017.956 .0247439
1018.547 .0247469
1019.138 .0247495
1019.728 .0247521
1020.319 .0247544
1020.909 .0247556
1021.499 .0247553
1022.088 .0247539
1022.678 .0247502
1023.267 .0247456
1023.856 .0247401
1024.445 .0247343
1025.033 .0247291
1025.621 .0247251
1026.209 .0247229
1026.797 .0247231
1027.385 .0247254
1027.972 .0247299
1028.560 .0247365
1029.147 .0247453
1029.734 .0247552
1030.320 .0247661
1030.907 .0247777
1031.493 .0247890
1032.079 .0247995
1032.665 .0248100
1033.250 .0248193
1033.836 .0248282
1034.421 .0248364
1035.006 .0248443
1035.591 .0248524
1036.176 .0248599
1036.761 .0248666
1037.345 .0248727
1037.929 .0248776
1038.514 .0248804
1039.097 .0248809
1039.681 .0248797
1040.265 .0248768
1040.848 .0248731
1041.432 .0248690
1042.015 .0248654
1042.598 .0248629
1043.181 .0248619
1043.764 .0248626
1044.346 .0248657
1044.929 .0248707
1045.511 .0248770
1046.094 .0248853
1046.676 .0248950
1047.258 .0249050
1047.840 .0249159
1048.422 .0249276
1049.003 .0249397
1049.585 .0249524
1050.166 .0249652
1050.748 .0249777
1051.329 .0249909
1051.910 .0250039
1052.491 .0250156
1053.072 .0250264
1053.653 .0250353
1054.234 .0250407
1054.815 .0250423
1055.396 .0250410
1055.976 .0250366
1056.557 .0250306
1057.138 .0250242
1057.718 .0250179
1058.298 .0250123
1058.879 .0250091
1059.459 .0250064
1060.039 .0250034
1060.620 .0249999
1061.200 .0249951
1061.780 .0249882
1062.360 .0249790
1062.940 .0249686
1063.520 .0249579
1064.101 .0249474
1064.681 .0249375
1065.261 .0249258
1065.841 .0249127
1066.421 .0248984
1067.001 .0248824
1067.581 .0248640
1068.161 .0248451
1068.741 .0248264
1069.321 .0248089
1069.901 .0247939
1070.482 .0247813
1071.062 .0247717
1071.642 .0247649
1072.222 .0247603
1072.803 .0247561
1073.383 .0247524
1073.963 .0247505
1074.544 .0247508
1075.124 .0247545
1075.705 .0247617
1076.286 .0247718
1076.866 .0247845
1077.447 .0247986
1078.028 .0248128
1078.609 .0248254
1079.190 .0248364
1079.771 .0248460
1080.352 .0248539
1080.934 .0248609
1081.515 .0248694
1082.097 .0248800
1082.679 .0248943
1083.260 .0249101
1083.842 .0249271
1084.424 .0249431
1085.007 .0249580
1085.589 .0249701
1086.172 .0249805
1086.754 .0249899
1087.337 .0249987
1087.920 .0250089
1088.503 .0250204
1089.087 .0250309
1089.670 .0250422
1090.254 .0250519
1090.838 .0250583
1091.422 .0250597
1092.006 .0250575
1092.590 .0250494
1093.175 .0250388
1093.760 .0250259
1094.345 .0250106
1094.930 .0249944
1095.516 .0249790
1096.102 .0249619
1096.688 .0249436
1097.274 .0249256
1097.860 .0249068
1098.447 .0248874
1099.034 .0248702
1099.622 .0248523
1100.209 .0248362
1100.797 .0248217
1101.385 .0248087
1101.973 .0247967
1102.562 .0247863
1103.151 .0247782
1103.740 .0247705
1104.330 .0247663
1104.920 .0247646
1105.510 .0247633
1106.101 .0247642
1106.691 .0247658
1107.283 .0247670
1107.874 .0247671
1108.466 .0247663
1109.058 .0247670
1109.651 .0247703
1110.244 .0247773
1110.837 .0247866
1111.431 .0247997
1112.025 .0248168
1112.620 .0248370
1113.215 .0248580
1113.810 .0248817
1114.406 .0249071
1115.002 .0249339
1115.599 .0249598
1116.196 .0249842
1116.793 .0250068
1117.391 .0250243
1117.989 .0250341
1118.588 .0250367
1119.187 .0250305
1119.787 .0250162
1120.387 .0249965
1120.988 .0249740
1121.589 .0249532
1122.190 .0249346
1122.793 .0249217
1123.395 .0249143
1123.998 .0249171
1124.602 .0249266
1125.206 .0249416
1125.811 .0249645
1126.416 .0249957
1127.022 .0250290
1127.628 .0250654
1128.235 .0251020
1128.843 .0251421
1129.451 .0251810
1130.059 .0252179
1130.669 .0252526
1131.278 .0252875
1131.889 .0253200
1132.500 .0253474
1133.112 .0253673
1133.724 .0253836
1134.337 .0253893
1134.950 .0253855
1135.564 .0253761
1136.179 .0253652
1136.795 .0253557
1137.411 .0253512
1138.028 .0253566
1138.645 .0253725
1139.263 .0254017
1139.882 .0254390
1140.502 .0254857
1141.122 .0255411
1141.743 .0256095
1142.365 .0256648
1142.987 .0256586
1143.611 .0258519
1144.235 .0259035
1144.859 .0261665
1145.485 .0256482
