Measurement Sequence started on: 10-20-44-796
Integration time: 35
Scans to Average: 2 
>>>>>Begin Spectral Data<<<<<
432.953 .0125908
433.882 .0170166
434.810 .0209803
435.737 .0251962
436.662 .0273301
437.586 .0276201
438.509 .0293497
439.431 .0306701
440.351 .0316513
441.269 .0323591
442.187 .0329083
443.103 .0333392
444.018 .0336708
444.932 .0339534
445.844 .0341776
446.756 .0343333
447.666 .0344461
448.575 .0345002
449.482 .0345245
450.388 .0345418
451.294 .0345603
452.198 .0345796
453.100 .0346085
454.002 .0346520
454.902 .0347031
455.801 .0347540
456.699 .0348039
457.596 .0348483
458.492 .0348780
459.387 .0348886
460.280 .0348913
461.172 .0348836
462.064 .0348729
462.954 .0348515
463.843 .0348178
464.730 .0347829
465.617 .0347435
466.503 .0347007
467.387 .0346554
468.271 .0346090
469.153 .0345584
470.035 .0345010
470.915 .0344389
471.794 .0343703
472.673 .0342981
473.550 .0342260
474.426 .0341578
475.301 .0340921
476.175 .0340365
477.048 .0339879
477.920 .0339509
478.791 .0339235
479.661 .0338989
480.530 .0338781
481.398 .0338565
482.266 .0338365
483.132 .0338186
483.997 .0338033
484.861 .0337965
485.724 .0337974
486.587 .0338063
487.448 .0338221
488.308 .0338439
489.168 .0338679
490.026 .0338915
490.884 .0339110
491.741 .0339235
492.597 .0339282
493.452 .0339276
494.306 .0339209
495.159 .0339066
496.011 .0338868
496.862 .0338617
497.713 .0338271
498.562 .0337829
499.411 .0337222
500.259 .0336495
501.106 .0335643
501.952 .0334636
502.798 .0333513
503.642 .0332333
504.486 .0331150
505.329 .0330005
506.171 .0328912
507.012 .0327896
507.852 .0326941
508.692 .0326063
509.531 .0325167
510.369 .0324260
511.206 .0323290
512.043 .0322257
512.878 .0321127
513.713 .0319986
514.547 .0318772
515.381 .0317528
516.213 .0316276
517.045 .0314985
517.876 .0313594
518.706 .0312091
519.536 .0310454
520.365 .0308711
521.193 .0306832
522.020 .0304872
522.847 .0302819
523.673 .0300790
524.498 .0298816
525.323 .0296860
526.146 .0294984
526.969 .0293235
527.792 .0291562
528.614 .0289942
529.435 .0288410
530.255 .0287002
531.075 .0285681
531.894 .0284497
532.712 .0283427
533.530 .0282428
534.347 .0281529
535.163 .0280601
535.979 .0279662
536.794 .0278705
537.608 .0277726
538.422 .0276690
539.235 .0275687
540.048 .0274737
540.860 .0273888
541.671 .0273208
542.481 .0272774
543.292 .0272555
544.101 .0272576
544.910 .0272755
545.718 .0273069
546.526 .0273473
547.333 .0273925
548.139 .0274314
548.945 .0274761
549.750 .0275196
550.555 .0275714
551.359 .0276313
552.162 .0277100
552.965 .0278077
553.768 .0279247
554.569 .0280528
555.371 .0281837
556.171 .0283118
556.972 .0284327
557.771 .0285374
558.570 .0286295
559.369 .0287067
560.167 .0287757
560.964 .0288366
561.761 .0289003
562.558 .0289658
563.354 .0290385
564.149 .0291120
564.944 .0291888
565.738 .0292633
566.532 .0293321
567.325 .0293937
568.118 .0294480
568.910 .0294980
569.702 .0295466
570.494 .0295948
571.285 .0296495
572.075 .0297121
572.865 .0297851
573.654 .0298625
574.443 .0299431
575.232 .0300220
576.020 .0300963
576.807 .0301642
577.594 .0302267
578.381 .0302827
579.167 .0303338
579.952 .0303848
580.738 .0304363
581.522 .0304907
582.307 .0305471
583.091 .0306061
583.874 .0306651
584.657 .0307216
585.440 .0307723
586.222 .0308151
587.004 .0308529
587.785 .0308852
588.566 .0309127
589.346 .0309359
590.126 .0309543
590.906 .0309689
591.685 .0309799
592.464 .0309868
593.242 .0309883
594.020 .0309857
594.797 .0309802
595.575 .0309718
596.351 .0309623
597.128 .0309514
597.904 .0309404
598.679 .0309293
599.454 .0309174
600.229 .0309041
601.004 .0308907
601.778 .0308766
602.551 .0308617
603.325 .0308473
604.097 .0308333
604.870 .0308195
605.642 .0308076
606.414 .0307961
607.185 .0307844
607.956 .0307727
608.727 .0307601
609.497 .0307456
610.267 .0307297
611.037 .0307120
611.806 .0306922
612.575 .0306718
613.344 .0306499
614.112 .0306269
614.880 .0306034
615.647 .0305799
616.414 .0305553
617.181 .0305294
617.948 .0305027
618.714 .0304748
619.480 .0304475
620.245 .0304208
621.011 .0303948
621.775 .0303704
622.540 .0303479
623.304 .0303271
624.068 .0303076
624.832 .0302898
625.595 .0302731
626.358 .0302574
627.120 .0302427
627.883 .0302282
628.645 .0302147
629.406 .0302016
630.168 .0301901
630.929 .0301788
631.689 .0301679
632.450 .0301564
633.210 .0301449
633.970 .0301323
634.729 .0301190
635.489 .0301035
636.248 .0300864
637.006 .0300681
637.765 .0300481
638.523 .0300257
639.280 .0300019
640.038 .0299767
640.795 .0299509
641.552 .0299236
642.309 .0298970
643.065 .0298706
643.821 .0298459
644.577 .0298218
645.332 .0297989
646.088 .0297767
646.843 .0297552
647.597 .0297330
648.352 .0297109
649.106 .0296893
649.860 .0296685
650.613 .0296491
651.367 .0296326
652.120 .0296190
652.872 .0296086
653.625 .0296002
654.377 .0295935
655.129 .0295871
655.881 .0295802
656.632 .0295708
657.384 .0295594
658.135 .0295458
658.885 .0295304
659.636 .0295138
660.386 .0294975
661.136 .0294825
661.885 .0294692
662.635 .0294571
663.384 .0294465
664.133 .0294367
664.881 .0294276
665.630 .0294175
666.378 .0294074
667.126 .0293967
667.874 .0293856
668.621 .0293743
669.368 .0293635
670.115 .0293532
670.862 .0293431
671.608 .0293335
672.354 .0293240
673.100 .0293144
673.846 .0293045
674.591 .0292939
675.337 .0292831
676.082 .0292719
676.826 .0292598
677.571 .0292467
678.315 .0292338
679.059 .0292202
679.803 .0292059
680.547 .0291911
681.290 .0291759
682.033 .0291597
682.776 .0291430
683.518 .0291255
684.261 .0291074
685.003 .0290890
685.745 .0290705
686.487 .0290513
687.228 .0290320
687.969 .0290118
688.710 .0289911
689.451 .0289698
690.192 .0289483
690.932 .0289259
691.672 .0289032
692.412 .0288806
693.152 .0288586
693.891 .0288367
694.630 .0288157
695.369 .0287953
696.108 .0287751
696.846 .0287548
697.585 .0287341
698.323 .0287129
699.061 .0286917
699.798 .0286700
700.536 .0286481
701.273 .0286256
702.010 .0286037
702.746 .0285817
703.483 .0285603
704.219 .0285395
704.955 .0285194
705.691 .0284995
706.427 .0284799
707.162 .0284607
707.897 .0284418
708.632 .0284234
709.367 .0284055
710.101 .0283876
710.835 .0283702
711.569 .0283525
712.303 .0283346
713.037 .0283163
713.770 .0282979
714.503 .0282784
715.236 .0282584
715.969 .0282377
716.702 .0282165
717.434 .0281949
718.166 .0281724
718.898 .0281495
719.629 .0281263
720.361 .0281027
721.092 .0280788
721.823 .0280548
722.554 .0280309
723.284 .0280069
724.014 .0279827
724.744 .0279578
725.474 .0279327
726.204 .0279081
726.933 .0278832
727.662 .0278586
728.391 .0278347
729.120 .0278114
729.849 .0277889
730.577 .0277678
731.305 .0277476
732.033 .0277283
732.760 .0277093
733.488 .0276904
734.215 .0276714
734.942 .0276525
735.669 .0276338
736.395 .0276153
737.122 .0275978
737.848 .0275806
738.573 .0275638
739.299 .0275480
740.024 .0275324
740.750 .0275175
741.474 .0275024
742.199 .0274875
742.924 .0274726
743.648 .0274581
744.372 .0274438
745.096 .0274308
745.819 .0274190
746.543 .0274080
747.266 .0273981
747.989 .0273890
748.711 .0273807
749.434 .0273733
750.156 .0273673
750.878 .0273620
751.599 .0273580
752.321 .0273551
753.042 .0273529
753.763 .0273520
754.484 .0273517
755.205 .0273514
755.925 .0273515
756.645 .0273511
757.365 .0273498
758.085 .0273471
758.804 .0273435
759.523 .0273379
760.242 .0273308
760.961 .0273218
761.679 .0273113
762.397 .0272992
763.115 .0272859
763.833 .0272709
764.551 .0272545
765.268 .0272370
765.985 .0272179
766.702 .0271978
767.418 .0271768
768.134 .0271549
768.850 .0271328
769.566 .0271110
770.282 .0270902
770.997 .0270707
771.712 .0270529
772.427 .0270368
773.142 .0270222
773.856 .0270086
774.570 .0269957
775.284 .0269829
775.998 .0269700
776.711 .0269573
777.424 .0269443
778.137 .0269312
778.849 .0269182
779.562 .0269056
780.274 .0268939
780.986 .0268827
781.697 .0268724
782.409 .0268625
783.120 .0268532
783.831 .0268448
784.541 .0268367
785.252 .0268294
785.962 .0268226
786.671 .0268158
787.381 .0268093
788.090 .0268032
788.799 .0267968
789.508 .0267903
790.217 .0267839
790.925 .0267777
791.633 .0267714
792.341 .0267650
793.048 .0267581
793.755 .0267505
794.462 .0267422
795.169 .0267324
795.875 .0267213
796.581 .0267094
797.287 .0266968
797.993 .0266843
798.698 .0266725
799.403 .0266612
800.108 .0266509
800.812 .0266417
801.517 .0266330
802.221 .0266244
802.924 .0266153
803.628 .0266061
804.331 .0265968
805.034 .0265874
805.736 .0265775
806.439 .0265685
807.141 .0265607
807.843 .0265539
808.544 .0265476
809.245 .0265418
809.946 .0265357
810.647 .0265295
811.347 .0265224
812.047 .0265142
812.747 .0265048
813.447 .0264946
814.146 .0264835
814.845 .0264725
815.543 .0264617
816.242 .0264518
816.940 .0264429
817.638 .0264353
818.335 .0264283
819.032 .0264215
819.729 .0264144
820.426 .0264074
821.122 .0263996
821.818 .0263905
822.514 .0263800
823.209 .0263688
823.905 .0263567
824.599 .0263441
825.294 .0263309
825.988 .0263173
826.682 .0263032
827.376 .0262883
828.069 .0262720
828.762 .0262543
829.455 .0262359
830.147 .0262165
830.840 .0261967
831.531 .0261775
832.223 .0261592
832.914 .0261422
833.605 .0261271
834.296 .0261139
834.986 .0261022
835.676 .0260922
836.366 .0260835
837.055 .0260758
837.744 .0260691
838.433 .0260630
839.121 .0260577
839.809 .0260531
840.497 .0260497
841.185 .0260465
841.872 .0260435
842.559 .0260404
843.245 .0260370
843.932 .0260330
844.617 .0260281
845.303 .0260225
845.988 .0260160
846.673 .0260087
847.358 .0260007
848.042 .0259923
848.726 .0259837
849.410 .0259750
850.093 .0259654
850.776 .0259549
851.459 .0259435
852.141 .0259308
852.823 .0259171
853.505 .0259029
854.186 .0258877
854.867 .0258720
855.548 .0258560
856.228 .0258407
856.908 .0258255
857.588 .0258116
858.267 .0257985
858.946 .0257862
859.625 .0257750
860.303 .0257645
860.981 .0257542
861.659 .0257451
862.336 .0257362
863.013 .0257270
863.690 .0257180
864.366 .0257090
865.042 .0257000
865.718 .0256912
866.393 .0256825
867.068 .0256739
867.743 .0256649
868.417 .0256555
869.091 .0256450
869.765 .0256340
870.438 .0256221
871.111 .0256088
871.783 .0255951
872.456 .0255812
873.127 .0255668
873.799 .0255527
874.470 .0255386
875.141 .0255247
875.811 .0255113
876.481 .0254979
877.151 .0254850
877.820 .0254724
878.489 .0254604
879.158 .0254492
879.826 .0254388
880.494 .0254297
881.162 .0254211
881.829 .0254132
882.496 .0254056
883.163 .0253980
883.829 .0253902
884.495 .0253821
885.160 .0253745
885.825 .0253676
886.490 .0253612
887.154 .0253556
887.818 .0253507
888.482 .0253462
889.145 .0253417
889.808 .0253367
890.471 .0253308
891.133 .0253242
891.795 .0253167
892.456 .0253086
893.117 .0253002
893.778 .0252923
894.439 .0252850
895.099 .0252786
895.758 .0252729
896.417 .0252678
897.076 .0252631
897.735 .0252588
898.393 .0252544
899.051 .0252499
899.708 .0252454
900.365 .0252409
901.022 .0252364
901.678 .0252322
902.334 .0252282
902.990 .0252247
903.645 .0252214
904.300 .0252185
904.954 .0252152
905.608 .0252113
906.262 .0252067
906.915 .0252014
907.568 .0251948
908.221 .0251873
908.873 .0251789
909.525 .0251698
910.176 .0251603
910.828 .0251503
911.478 .0251398
912.129 .0251288
912.778 .0251172
913.428 .0251049
914.077 .0250919
914.726 .0250789
915.375 .0250656
916.023 .0250528
916.670 .0250413
917.318 .0250302
917.964 .0250198
918.611 .0250100
919.257 .0250004
919.903 .0249901
920.548 .0249791
921.193 .0249676
921.838 .0249560
922.482 .0249445
923.126 .0249339
923.770 .0249241
924.413 .0249155
925.056 .0249079
925.698 .0249009
926.340 .0248939
926.982 .0248868
927.623 .0248791
928.264 .0248706
928.904 .0248615
929.544 .0248521
930.184 .0248422
930.823 .0248329
931.462 .0248244
932.101 .0248166
932.739 .0248096
933.377 .0248031
934.014 .0247964
934.651 .0247896
935.288 .0247822
935.924 .0247738
936.560 .0247641
937.196 .0247535
937.831 .0247412
938.466 .0247270
939.100 .0247118
939.734 .0246956
940.368 .0246786
941.001 .0246617
941.634 .0246448
942.266 .0246281
942.899 .0246112
943.530 .0245941
944.162 .0245758
944.793 .0245570
945.423 .0245368
946.053 .0245151
946.683 .0244924
947.313 .0244697
947.942 .0244471
948.571 .0244254
949.199 .0244053
949.827 .0243864
950.455 .0243686
951.082 .0243520
951.709 .0243357
952.335 .0243198
952.961 .0243039
953.587 .0242878
954.212 .0242714
954.837 .0242554
955.462 .0242395
956.086 .0242243
956.710 .0242103
957.334 .0241971
957.957 .0241847
958.579 .0241728
959.202 .0241612
959.824 .0241495
960.445 .0241381
961.067 .0241268
961.688 .0241156
962.308 .0241052
962.928 .0240951
963.548 .0240851
964.168 .0240751
964.787 .0240645
965.406 .0240531
966.024 .0240412
966.642 .0240285
967.260 .0240148
967.877 .0240007
968.494 .0239863
969.110 .0239719
969.727 .0239573
970.342 .0239430
970.958 .0239286
971.573 .0239148
972.188 .0239016
972.802 .0238884
973.416 .0238760
974.030 .0238648
974.643 .0238543
975.256 .0238448
975.869 .0238360
976.481 .0238278
977.093 .0238202
977.705 .0238133
978.316 .0238066
978.927 .0238003
979.538 .0237944
980.148 .0237887
980.758 .0237825
981.367 .0237767
981.977 .0237708
982.586 .0237647
983.194 .0237589
983.802 .0237533
984.410 .0237476
985.018 .0237424
985.625 .0237377
986.232 .0237341
986.838 .0237315
987.445 .0237300
988.050 .0237288
988.656 .0237281
989.261 .0237279
989.866 .0237269
990.471 .0237252
991.075 .0237234
991.679 .0237202
992.282 .0237161
992.886 .0237109
993.489 .0237054
994.091 .0236996
994.694 .0236944
995.296 .0236893
995.897 .0236842
996.499 .0236793
997.100 .0236735
997.701 .0236670
998.301 .0236608
998.901 .0236542
999.501 .0236473
1000.101 .0236413
1000.700 .0236363
1001.299 .0236323
1001.898 .0236301
1002.496 .0236296
1003.094 .0236297
1003.692 .0236303
1004.289 .0236303
1004.887 .0236292
1005.484 .0236272
1006.080 .0236246
1006.677 .0236208
1007.273 .0236173
1007.868 .0236139
1008.464 .0236110
1009.059 .0236091
1009.654 .0236083
1010.249 .0236083
1010.843 .0236087
1011.437 .0236087
1012.031 .0236083
1012.625 .0236073
1013.218 .0236056
1013.811 .0236036
1014.404 .0236015
1014.997 .0236001
1015.589 .0236001
1016.181 .0236020
1016.773 .0236052
1017.365 .0236099
1017.956 .0236157
1018.547 .0236211
1019.138 .0236261
1019.728 .0236302
1020.319 .0236332
1020.909 .0236358
1021.499 .0236381
1022.088 .0236398
1022.678 .0236409
1023.267 .0236424
1023.856 .0236435
1024.445 .0236448
1025.033 .0236457
1025.621 .0236462
1026.209 .0236470
1026.797 .0236477
1027.385 .0236480
1027.972 .0236483
1028.560 .0236482
1029.147 .0236478
1029.734 .0236463
1030.320 .0236444
1030.907 .0236422
1031.493 .0236408
1032.079 .0236401
1032.665 .0236404
1033.250 .0236416
1033.836 .0236433
1034.421 .0236447
1035.006 .0236457
1035.591 .0236455
1036.176 .0236436
1036.761 .0236404
1037.345 .0236361
1037.929 .0236301
1038.514 .0236242
1039.097 .0236190
1039.681 .0236149
1040.265 .0236114
1040.848 .0236085
1041.432 .0236055
1042.015 .0236025
1042.598 .0235984
1043.181 .0235933
1043.764 .0235876
1044.346 .0235825
1044.929 .0235772
1045.511 .0235733
1046.094 .0235704
1046.676 .0235695
1047.258 .0235704
1047.840 .0235729
1048.422 .0235763
1049.003 .0235806
1049.585 .0235848
1050.166 .0235892
1050.748 .0235932
1051.329 .0235970
1051.910 .0236009
1052.491 .0236061
1053.072 .0236119
1053.653 .0236184
1054.234 .0236253
1054.815 .0236314
1055.396 .0236358
1055.976 .0236388
1056.557 .0236385
1057.138 .0236354
1057.718 .0236310
1058.298 .0236250
1058.879 .0236181
1059.459 .0236112
1060.039 .0236047
1060.620 .0235971
1061.200 .0235888
1061.780 .0235786
1062.360 .0235656
1062.940 .0235515
1063.520 .0235364
1064.101 .0235207
1064.681 .0235065
1065.261 .0234944
1065.841 .0234833
1066.421 .0234733
1067.001 .0234642
1067.581 .0234558
1068.161 .0234476
1068.741 .0234401
1069.321 .0234331
1069.901 .0234279
1070.482 .0234253
1071.062 .0234256
1071.642 .0234292
1072.222 .0234356
1072.803 .0234435
1073.383 .0234521
1073.963 .0234597
1074.544 .0234663
1075.124 .0234704
1075.705 .0234713
1076.286 .0234692
1076.866 .0234640
1077.447 .0234561
1078.028 .0234462
1078.609 .0234353
1079.190 .0234241
1079.771 .0234128
1080.352 .0234026
1080.934 .0233934
1081.515 .0233851
1082.097 .0233789
1082.679 .0233723
1083.260 .0233672
1083.842 .0233622
1084.424 .0233572
1085.007 .0233519
1085.589 .0233464
1086.172 .0233395
1086.754 .0233318
1087.337 .0233223
1087.920 .0233123
1088.503 .0233004
1089.087 .0232896
1089.670 .0232774
1090.254 .0232659
1090.838 .0232549
1091.422 .0232465
1092.006 .0232406
1092.590 .0232388
1093.175 .0232392
1093.760 .0232430
1094.345 .0232484
1094.930 .0232560
1095.516 .0232661
1096.102 .0232808
1096.688 .0232996
1097.274 .0233216
1097.860 .0233457
1098.447 .0233722
1099.034 .0233979
1099.622 .0234223
1100.209 .0234426
1100.797 .0234572
1101.385 .0234645
1101.973 .0234640
1102.562 .0234573
1103.151 .0234458
1103.740 .0234311
1104.330 .0234139
1104.920 .0233953
1105.510 .0233779
1106.101 .0233612
1106.691 .0233466
1107.283 .0233357
1107.874 .0233280
1108.466 .0233217
1109.058 .0233176
1109.651 .0233159
1110.244 .0233148
1110.837 .0233160
1111.431 .0233177
1112.025 .0233223
1112.620 .0233294
1113.215 .0233386
1113.810 .0233492
1114.406 .0233633
1115.002 .0233791
1115.599 .0233928
1116.196 .0234040
1116.793 .0234125
1117.391 .0234161
1117.989 .0234155
1118.588 .0234129
1119.187 .0234083
1119.787 .0234040
1120.387 .0234023
1120.988 .0234013
1121.589 .0234041
1122.190 .0234055
1122.793 .0234060
1123.395 .0234068
1123.998 .0234089
1124.602 .0234132
1125.206 .0234215
1125.811 .0234371
1126.416 .0234597
1127.022 .0234859
1127.628 .0235152
1128.235 .0235475
1128.843 .0235834
1129.451 .0236193
1130.059 .0236560
1130.669 .0236957
1131.278 .0237384
1131.889 .0237821
1132.500 .0238278
1133.112 .0238725
1133.724 .0239138
1134.337 .0239485
1134.950 .0239713
1135.564 .0239843
1136.179 .0239935
1136.795 .0239994
1137.411 .0240121
1138.028 .0240340
1138.645 .0240624
1139.263 .0240994
1139.882 .0241447
1140.502 .0242029
1141.122 .0242705
1141.743 .0243675
1142.365 .0244793
1142.987 .0243752
1143.611 .0246557
1144.235 .0247985
1144.859 .0254466
1145.485 .0253446
