Measurement Sequence started on: 10-20-44-796
Integration time: 35
Scans to Average: 2 
>>>>>Begin Spectral Data<<<<<
432.953 .0177633
433.882 .0287805
434.810 .0293571
435.737 .0308353
436.662 .0302272
437.586 .0304560
438.509 .0311293
439.431 .0313551
440.351 .0315188
441.269 .0316268
442.187 .0317510
443.103 .0318583
444.018 .0319835
444.932 .0321316
445.844 .0322929
446.756 .0324410
447.666 .0325935
448.575 .0327181
449.482 .0328325
450.388 .0329471
451.294 .0330553
452.198 .0331571
453.100 .0332544
454.002 .0333489
454.902 .0334298
455.801 .0334948
456.699 .0335326
457.596 .0335489
458.492 .0335411
459.387 .0335103
460.280 .0334715
461.172 .0334338
462.064 .0334026
462.954 .0333786
463.843 .0333603
464.730 .0333487
465.617 .0333374
466.503 .0333257
467.387 .0333089
468.271 .0332896
469.153 .0332691
470.035 .0332424
470.915 .0332209
471.794 .0332058
472.673 .0331906
473.550 .0331802
474.426 .0331743
475.301 .0331691
476.175 .0331626
477.048 .0331511
477.920 .0331330
478.791 .0331124
479.661 .0330852
480.530 .0330505
481.398 .0330120
482.266 .0329736
483.132 .0329342
483.997 .0328932
484.861 .0328586
485.724 .0328272
486.587 .0328026
487.448 .0327829
488.308 .0327628
489.168 .0327454
490.026 .0327246
490.884 .0326999
491.741 .0326711
492.597 .0326382
493.452 .0326003
494.306 .0325585
495.159 .0325171
496.011 .0324736
496.862 .0324314
497.713 .0323890
498.562 .0323435
499.411 .0322949
500.259 .0322409
501.106 .0321798
501.952 .0321135
502.798 .0320469
503.642 .0319772
504.486 .0319072
505.329 .0318376
506.171 .0317706
507.012 .0317047
507.852 .0316377
508.692 .0315698
509.531 .0314960
510.369 .0314201
511.206 .0313380
512.043 .0312521
512.878 .0311633
513.713 .0310735
514.547 .0309836
515.381 .0308894
516.213 .0307917
517.045 .0306831
517.876 .0305584
518.706 .0304167
519.536 .0302540
520.365 .0300777
521.193 .0298891
522.020 .0296998
522.847 .0295101
523.673 .0293220
524.498 .0291368
525.323 .0289520
526.146 .0287683
526.969 .0285840
527.792 .0283976
528.614 .0282101
529.435 .0280301
530.255 .0278658
531.075 .0277130
531.894 .0275760
532.712 .0274495
533.530 .0273311
534.347 .0272093
535.163 .0270774
535.979 .0269406
536.794 .0268041
537.608 .0266790
538.422 .0265606
539.235 .0264580
540.048 .0263744
540.860 .0263123
541.671 .0262688
542.481 .0262348
543.292 .0262087
544.101 .0261846
544.910 .0261642
545.718 .0261436
546.526 .0261256
547.333 .0261196
548.139 .0261231
548.945 .0261430
549.750 .0261698
550.555 .0262072
551.359 .0262527
552.162 .0263101
552.965 .0263792
553.768 .0264528
554.569 .0265374
555.371 .0266257
556.171 .0267195
556.972 .0268163
557.771 .0269132
558.570 .0270121
559.369 .0271152
560.167 .0272255
560.964 .0273387
561.761 .0274569
562.558 .0275816
563.354 .0277093
564.149 .0278357
564.944 .0279564
565.738 .0280693
566.532 .0281717
567.325 .0282697
568.118 .0283609
568.910 .0284499
569.702 .0285389
570.494 .0286268
571.285 .0287111
572.075 .0287937
572.865 .0288737
573.654 .0289483
574.443 .0290212
575.232 .0290921
576.020 .0291602
576.807 .0292310
577.594 .0293015
578.381 .0293727
579.167 .0294435
579.952 .0295136
580.738 .0295799
581.522 .0296435
582.307 .0297032
583.091 .0297582
583.874 .0298102
584.657 .0298597
585.440 .0299041
586.222 .0299450
587.004 .0299831
587.785 .0300173
588.566 .0300471
589.346 .0300725
590.126 .0300916
590.906 .0301059
591.685 .0301157
592.464 .0301202
593.242 .0301201
594.020 .0301170
594.797 .0301108
595.575 .0301014
596.351 .0300903
597.128 .0300776
597.904 .0300631
598.679 .0300486
599.454 .0300335
600.229 .0300172
601.004 .0300004
601.778 .0299836
602.551 .0299667
603.325 .0299495
604.097 .0299326
604.870 .0299155
605.642 .0298987
606.414 .0298826
607.185 .0298660
607.956 .0298491
608.727 .0298334
609.497 .0298177
610.267 .0298016
611.037 .0297857
611.806 .0297706
612.575 .0297559
613.344 .0297423
614.112 .0297294
614.880 .0297172
615.647 .0297054
616.414 .0296943
617.181 .0296825
617.948 .0296705
618.714 .0296581
619.480 .0296449
620.245 .0296308
621.011 .0296152
621.775 .0295981
622.540 .0295796
623.304 .0295606
624.068 .0295411
624.832 .0295202
625.595 .0294988
626.358 .0294771
627.120 .0294549
627.883 .0294318
628.645 .0294087
629.406 .0293856
630.168 .0293631
630.929 .0293410
631.689 .0293199
632.450 .0292997
633.210 .0292811
633.970 .0292640
634.729 .0292480
635.489 .0292330
636.248 .0292179
637.006 .0292021
637.765 .0291862
638.523 .0291693
639.280 .0291517
640.038 .0291338
640.795 .0291170
641.552 .0291009
642.309 .0290863
643.065 .0290729
643.821 .0290614
644.577 .0290506
645.332 .0290400
646.088 .0290284
646.843 .0290163
647.597 .0290026
648.352 .0289875
649.106 .0289727
649.860 .0289582
650.613 .0289442
651.367 .0289317
652.120 .0289203
652.872 .0289104
653.625 .0289007
654.377 .0288907
655.129 .0288799
655.881 .0288689
656.632 .0288568
657.384 .0288431
658.135 .0288295
658.885 .0288162
659.636 .0288030
660.386 .0287910
661.136 .0287799
661.885 .0287697
662.635 .0287607
663.384 .0287528
664.133 .0287451
664.881 .0287375
665.630 .0287293
666.378 .0287199
667.126 .0287091
667.874 .0286963
668.621 .0286815
669.368 .0286650
670.115 .0286486
670.862 .0286319
671.608 .0286163
672.354 .0286020
673.100 .0285892
673.846 .0285774
674.591 .0285659
675.337 .0285543
676.082 .0285422
676.826 .0285295
677.571 .0285165
678.315 .0285030
679.059 .0284905
679.803 .0284788
680.547 .0284692
681.290 .0284604
682.033 .0284525
682.776 .0284441
683.518 .0284349
684.261 .0284241
685.003 .0284121
685.745 .0283983
686.487 .0283836
687.228 .0283684
687.969 .0283528
688.710 .0283362
689.451 .0283191
690.192 .0283007
690.932 .0282806
691.672 .0282583
692.412 .0282343
693.152 .0282078
693.891 .0281801
694.630 .0281515
695.369 .0281228
696.108 .0280941
696.846 .0280659
697.585 .0280377
698.323 .0280101
699.061 .0279828
699.798 .0279557
700.536 .0279289
701.273 .0279031
702.010 .0278781
702.746 .0278543
703.483 .0278318
704.219 .0278111
704.955 .0277923
705.691 .0277750
706.427 .0277585
707.162 .0277428
707.897 .0277272
708.632 .0277113
709.367 .0276952
710.101 .0276785
710.835 .0276617
711.569 .0276448
712.303 .0276279
713.037 .0276112
713.770 .0275950
714.503 .0275791
715.236 .0275633
715.969 .0275474
716.702 .0275307
717.434 .0275132
718.166 .0274950
718.898 .0274762
719.629 .0274568
720.361 .0274370
721.092 .0274174
721.823 .0273979
722.554 .0273788
723.284 .0273601
724.014 .0273411
724.744 .0273219
725.474 .0273020
726.204 .0272812
726.933 .0272598
727.662 .0272378
728.391 .0272158
729.120 .0271939
729.849 .0271722
730.577 .0271513
731.305 .0271308
732.033 .0271112
732.760 .0270920
733.488 .0270731
734.215 .0270543
734.942 .0270352
735.669 .0270160
736.395 .0269971
737.122 .0269786
737.848 .0269604
738.573 .0269427
739.299 .0269254
740.024 .0269082
740.750 .0268913
741.474 .0268742
742.199 .0268575
742.924 .0268412
743.648 .0268260
744.372 .0268113
745.096 .0267984
745.819 .0267873
746.543 .0267774
747.266 .0267690
747.989 .0267620
748.711 .0267554
749.434 .0267497
750.156 .0267448
750.878 .0267410
751.599 .0267382
752.321 .0267369
753.042 .0267370
753.763 .0267389
754.484 .0267420
755.205 .0267454
755.925 .0267486
756.645 .0267519
757.365 .0267544
758.085 .0267552
758.804 .0267547
759.523 .0267531
760.242 .0267498
760.961 .0267450
761.679 .0267386
762.397 .0267302
763.115 .0267198
763.833 .0267072
764.551 .0266926
765.268 .0266761
765.985 .0266583
766.702 .0266395
767.418 .0266207
768.134 .0266021
768.850 .0265839
769.566 .0265660
770.282 .0265490
770.997 .0265329
771.712 .0265173
772.427 .0265025
773.142 .0264890
773.856 .0264765
774.570 .0264653
775.284 .0264547
775.998 .0264452
776.711 .0264361
777.424 .0264274
778.137 .0264185
778.849 .0264091
779.562 .0263992
780.274 .0263890
780.986 .0263789
781.697 .0263694
782.409 .0263607
783.120 .0263530
783.831 .0263467
784.541 .0263413
785.252 .0263365
785.962 .0263322
786.671 .0263280
787.381 .0263241
788.090 .0263202
788.799 .0263163
789.508 .0263124
790.217 .0263086
790.925 .0263051
791.633 .0263010
792.341 .0262963
793.048 .0262904
793.755 .0262824
794.462 .0262726
795.169 .0262608
795.875 .0262474
796.581 .0262329
797.287 .0262180
797.993 .0262031
798.698 .0261889
799.403 .0261756
800.108 .0261627
800.812 .0261506
801.517 .0261391
802.221 .0261277
802.924 .0261163
803.628 .0261060
804.331 .0260970
805.034 .0260893
805.736 .0260835
806.439 .0260795
807.141 .0260766
807.843 .0260742
808.544 .0260713
809.245 .0260670
809.946 .0260606
810.647 .0260520
811.347 .0260412
812.047 .0260288
812.747 .0260162
813.447 .0260028
814.146 .0259897
814.845 .0259777
815.543 .0259660
816.242 .0259544
816.940 .0259429
817.638 .0259311
818.335 .0259188
819.032 .0259060
819.729 .0258934
820.426 .0258811
821.122 .0258697
821.818 .0258590
822.514 .0258490
823.209 .0258399
823.905 .0258311
824.599 .0258215
825.294 .0258115
825.988 .0258004
826.682 .0257879
827.376 .0257739
828.069 .0257582
828.762 .0257410
829.455 .0257224
830.147 .0257023
830.840 .0256812
831.531 .0256595
832.223 .0256380
832.914 .0256167
833.605 .0255963
834.296 .0255771
834.986 .0255589
835.676 .0255424
836.366 .0255270
837.055 .0255125
837.744 .0254988
838.433 .0254854
839.121 .0254724
839.809 .0254598
840.497 .0254481
841.185 .0254375
841.872 .0254280
842.559 .0254200
843.245 .0254127
843.932 .0254058
844.617 .0253985
845.303 .0253906
845.988 .0253821
846.673 .0253723
847.358 .0253615
848.042 .0253500
848.726 .0253385
849.410 .0253274
850.093 .0253164
850.776 .0253057
851.459 .0252947
852.141 .0252827
852.823 .0252696
853.505 .0252553
854.186 .0252398
854.867 .0252238
855.548 .0252074
856.228 .0251910
856.908 .0251751
857.588 .0251595
858.267 .0251447
858.946 .0251301
859.625 .0251160
860.303 .0251016
860.981 .0250871
861.659 .0250729
862.336 .0250588
863.013 .0250447
863.690 .0250310
864.366 .0250171
865.042 .0250035
865.718 .0249895
866.393 .0249753
867.068 .0249607
867.743 .0249462
868.417 .0249314
869.091 .0249165
869.765 .0249016
870.438 .0248868
871.111 .0248717
871.783 .0248563
872.456 .0248404
873.127 .0248239
873.799 .0248068
874.470 .0247898
875.141 .0247726
875.811 .0247560
876.481 .0247400
877.151 .0247250
877.820 .0247110
878.489 .0246980
879.158 .0246858
879.826 .0246741
880.494 .0246628
881.162 .0246514
881.829 .0246396
882.496 .0246275
883.163 .0246154
883.829 .0246034
884.495 .0245913
885.160 .0245799
885.825 .0245691
886.490 .0245593
887.154 .0245505
887.818 .0245422
888.482 .0245344
889.145 .0245265
889.808 .0245185
890.471 .0245098
891.133 .0245007
891.795 .0244909
892.456 .0244805
893.117 .0244697
893.778 .0244590
894.439 .0244483
895.099 .0244377
895.758 .0244275
896.417 .0244180
897.076 .0244087
897.735 .0243998
898.393 .0243913
899.051 .0243835
899.708 .0243760
900.365 .0243691
901.022 .0243623
901.678 .0243560
902.334 .0243501
902.990 .0243447
903.645 .0243398
904.300 .0243360
904.954 .0243333
905.608 .0243310
906.262 .0243295
906.915 .0243288
907.568 .0243280
908.221 .0243272
908.873 .0243261
909.525 .0243242
910.176 .0243211
910.828 .0243174
911.478 .0243126
912.129 .0243068
912.778 .0243004
913.428 .0242929
914.077 .0242847
914.726 .0242761
915.375 .0242670
916.023 .0242574
916.670 .0242476
917.318 .0242373
917.964 .0242259
918.611 .0242135
919.257 .0242002
919.903 .0241856
920.548 .0241698
921.193 .0241535
921.838 .0241371
922.482 .0241206
923.126 .0241049
923.770 .0240903
924.413 .0240772
925.056 .0240653
925.698 .0240546
926.340 .0240450
926.982 .0240358
927.623 .0240273
928.264 .0240194
928.904 .0240119
929.544 .0240054
930.184 .0239990
930.823 .0239932
931.462 .0239875
932.101 .0239820
932.739 .0239763
933.377 .0239702
934.014 .0239631
934.651 .0239552
935.288 .0239463
935.924 .0239372
936.560 .0239274
937.196 .0239168
937.831 .0239057
938.466 .0238939
939.100 .0238812
939.734 .0238679
940.368 .0238539
941.001 .0238401
941.634 .0238264
942.266 .0238132
942.899 .0238003
943.530 .0237879
944.162 .0237766
944.793 .0237664
945.423 .0237566
946.053 .0237474
946.683 .0237383
947.313 .0237294
947.942 .0237206
948.571 .0237117
949.199 .0237027
949.827 .0236933
950.455 .0236840
951.082 .0236741
951.709 .0236633
952.335 .0236528
952.961 .0236420
953.587 .0236310
954.212 .0236201
954.837 .0236086
955.462 .0235967
956.086 .0235848
956.710 .0235726
957.334 .0235600
957.957 .0235471
958.579 .0235340
959.202 .0235207
959.824 .0235071
960.445 .0234936
961.067 .0234803
961.688 .0234679
962.308 .0234569
962.928 .0234467
963.548 .0234379
964.168 .0234301
964.787 .0234232
965.406 .0234169
966.024 .0234108
966.642 .0234050
967.260 .0233992
967.877 .0233931
968.494 .0233871
969.110 .0233813
969.727 .0233756
970.342 .0233707
970.958 .0233666
971.573 .0233633
972.188 .0233607
972.802 .0233586
973.416 .0233567
974.030 .0233546
974.643 .0233523
975.256 .0233494
975.869 .0233457
976.481 .0233417
977.093 .0233371
977.705 .0233330
978.316 .0233297
978.927 .0233273
979.538 .0233259
980.148 .0233252
980.758 .0233250
981.367 .0233247
981.977 .0233241
982.586 .0233231
983.194 .0233219
983.802 .0233204
984.410 .0233185
985.018 .0233164
985.625 .0233143
986.232 .0233120
986.838 .0233098
987.445 .0233078
988.050 .0233053
988.656 .0233028
989.261 .0233000
989.866 .0232971
990.471 .0232947
991.075 .0232932
991.679 .0232917
992.282 .0232905
992.886 .0232898
993.489 .0232888
994.091 .0232881
994.694 .0232887
995.296 .0232905
995.897 .0232936
996.499 .0232981
997.100 .0233037
997.701 .0233097
998.301 .0233166
998.901 .0233236
999.501 .0233302
1000.101 .0233362
1000.700 .0233412
1001.299 .0233449
1001.898 .0233488
1002.496 .0233521
1003.094 .0233549
1003.692 .0233576
1004.289 .0233602
1004.887 .0233623
1005.484 .0233641
1006.080 .0233656
1006.677 .0233674
1007.273 .0233687
1007.868 .0233695
1008.464 .0233697
1009.059 .0233702
1009.654 .0233707
1010.249 .0233713
1010.843 .0233725
1011.437 .0233738
1012.031 .0233746
1012.625 .0233757
1013.218 .0233766
1013.811 .0233776
1014.404 .0233793
1014.997 .0233814
1015.589 .0233842
1016.181 .0233880
1016.773 .0233923
1017.365 .0233969
1017.956 .0234021
1018.547 .0234068
1019.138 .0234104
1019.728 .0234133
1020.319 .0234160
1020.909 .0234179
1021.499 .0234200
1022.088 .0234230
1022.678 .0234263
1023.267 .0234305
1023.856 .0234353
1024.445 .0234397
1025.033 .0234439
1025.621 .0234466
1026.209 .0234483
1026.797 .0234483
1027.385 .0234471
1027.972 .0234456
1028.560 .0234444
1029.147 .0234435
1029.734 .0234437
1030.320 .0234444
1030.907 .0234458
1031.493 .0234479
1032.079 .0234496
1032.665 .0234506
1033.250 .0234512
1033.836 .0234517
1034.421 .0234512
1035.006 .0234502
1035.591 .0234494
1036.176 .0234475
1036.761 .0234452
1037.345 .0234428
1037.929 .0234396
1038.514 .0234358
1039.097 .0234320
1039.681 .0234282
1040.265 .0234244
1040.848 .0234213
1041.432 .0234189
1042.015 .0234173
1042.598 .0234165
1043.181 .0234159
1043.764 .0234145
1044.346 .0234131
1044.929 .0234106
1045.511 .0234062
1046.094 .0234010
1046.676 .0233956
1047.258 .0233898
1047.840 .0233842
1048.422 .0233803
1049.003 .0233777
1049.585 .0233763
1050.166 .0233756
1050.748 .0233754
1051.329 .0233752
1051.910 .0233740
1052.491 .0233730
1053.072 .0233710
1053.653 .0233697
1054.234 .0233688
1054.815 .0233686
1055.396 .0233705
1055.976 .0233736
1056.557 .0233779
1057.138 .0233830
1057.718 .0233879
1058.298 .0233912
1058.879 .0233926
1059.459 .0233911
1060.039 .0233868
1060.620 .0233789
1061.200 .0233685
1061.780 .0233570
1062.360 .0233434
1062.940 .0233305
1063.520 .0233168
1064.101 .0233039
1064.681 .0232911
1065.261 .0232772
1065.841 .0232632
1066.421 .0232477
1067.001 .0232308
1067.581 .0232122
1068.161 .0231924
1068.741 .0231723
1069.321 .0231518
1069.901 .0231330
1070.482 .0231150
1071.062 .0230977
1071.642 .0230818
1072.222 .0230676
1072.803 .0230538
1073.383 .0230418
1073.963 .0230306
1074.544 .0230228
1075.124 .0230179
1075.705 .0230160
1076.286 .0230162
1076.866 .0230189
1077.447 .0230223
1078.028 .0230259
1078.609 .0230287
1079.190 .0230319
1079.771 .0230355
1080.352 .0230409
1080.934 .0230471
1081.515 .0230561
1082.097 .0230668
1082.679 .0230790
1083.260 .0230907
1083.842 .0231005
1084.424 .0231053
1085.007 .0231063
1085.589 .0231017
1086.172 .0230936
1086.754 .0230830
1087.337 .0230716
1087.920 .0230583
1088.503 .0230456
1089.087 .0230319
1089.670 .0230160
1090.254 .0229977
1090.838 .0229775
1091.422 .0229526
1092.006 .0229247
1092.590 .0228938
1093.175 .0228622
1093.760 .0228319
1094.345 .0228044
1094.930 .0227781
1095.516 .0227581
1096.102 .0227425
1096.688 .0227310
1097.274 .0227241
1097.860 .0227234
1098.447 .0227251
1099.034 .0227299
1099.622 .0227358
1100.209 .0227413
1100.797 .0227470
1101.385 .0227535
1101.973 .0227600
1102.562 .0227679
1103.151 .0227764
1103.740 .0227848
1104.330 .0227929
1104.920 .0228022
1105.510 .0228074
1106.101 .0228114
1106.691 .0228144
1107.283 .0228157
1107.874 .0228174
1108.466 .0228192
1109.058 .0228250
1109.651 .0228340
1110.244 .0228467
1110.837 .0228593
1111.431 .0228713
1112.025 .0228806
1112.620 .0228851
1113.215 .0228844
1113.810 .0228793
1114.406 .0228708
1115.002 .0228604
1115.599 .0228483
1116.196 .0228352
1116.793 .0228198
1117.391 .0228049
1117.989 .0227879
1118.588 .0227718
1119.187 .0227500
1119.787 .0227261
1120.387 .0226996
1120.988 .0226739
1121.589 .0226494
1122.190 .0226259
1122.793 .0226073
1123.395 .0225946
1123.998 .0225879
1124.602 .0225860
1125.206 .0225889
1125.811 .0225983
1126.416 .0226101
1127.022 .0226232
1127.628 .0226359
1128.235 .0226476
1128.843 .0226611
1129.451 .0226789
1130.059 .0227024
1130.669 .0227334
1131.278 .0227714
1131.889 .0228148
1132.500 .0228638
1133.112 .0229119
1133.724 .0229582
1134.337 .0229989
1134.950 .0230368
1135.564 .0230686
1136.179 .0230997
1136.795 .0231354
1137.411 .0231788
1138.028 .0232305
1138.645 .0232914
1139.263 .0233545
1139.882 .0234181
1140.502 .0234853
1141.122 .0235603
1141.743 .0236414
1142.365 .0237218
1142.987 .0236221
1143.611 .0238750
1144.235 .0241582
1144.859 .0242744
1145.485 .0240675
