Measurement Sequence started on: 10-20-44-796
Integration time: 35
Scans to Average: 2 
>>>>>Begin Spectral Data<<<<<
432.953 .0368055
433.882 .0340572
434.810 .0313253
435.737 .0318915
436.662 .0314557
437.586 .0321427
438.509 .0320139
439.431 .0320610
440.351 .0322204
441.269 .0323622
442.187 .0325129
443.103 .0326436
444.018 .0327609
444.932 .0328481
445.844 .0329230
446.756 .0329927
447.666 .0330589
448.575 .0331229
449.482 .0331767
450.388 .0332143
451.294 .0332394
452.198 .0332348
453.100 .0332056
454.002 .0331669
454.902 .0331119
455.801 .0330568
456.699 .0330079
457.596 .0329745
458.492 .0329607
459.387 .0329604
460.280 .0329644
461.172 .0329671
462.064 .0329608
462.954 .0329396
463.843 .0329001
464.730 .0328512
465.617 .0327940
466.503 .0327359
467.387 .0326795
468.271 .0326235
469.153 .0325709
470.035 .0325229
470.915 .0324753
471.794 .0324281
472.673 .0323796
473.550 .0323283
474.426 .0322771
475.301 .0322297
476.175 .0321868
477.048 .0321521
477.920 .0321258
478.791 .0321051
479.661 .0320900
480.530 .0320792
481.398 .0320682
482.266 .0320589
483.132 .0320532
483.997 .0320436
484.861 .0320297
485.724 .0320149
486.587 .0319985
487.448 .0319762
488.308 .0319530
489.168 .0319251
490.026 .0318937
490.884 .0318582
491.741 .0318163
492.597 .0317693
493.452 .0317186
494.306 .0316623
495.159 .0316014
496.011 .0315391
496.862 .0314785
497.713 .0314145
498.562 .0313541
499.411 .0312946
500.259 .0312328
501.106 .0311660
501.952 .0310949
502.798 .0310147
503.642 .0309306
504.486 .0308402
505.329 .0307467
506.171 .0306517
507.012 .0305599
507.852 .0304709
508.692 .0303866
509.531 .0303029
510.369 .0302203
511.206 .0301318
512.043 .0300394
512.878 .0299373
513.713 .0298289
514.547 .0297158
515.381 .0296005
516.213 .0294813
517.045 .0293592
517.876 .0292312
518.706 .0291016
519.536 .0289655
520.365 .0288239
521.193 .0286748
522.020 .0285191
522.847 .0283554
523.673 .0281877
524.498 .0280094
525.323 .0278233
526.146 .0276326
526.969 .0274362
527.792 .0272313
528.614 .0270141
529.435 .0267895
530.255 .0265624
531.075 .0263365
531.894 .0261204
532.712 .0259113
533.530 .0257235
534.347 .0255579
535.163 .0254078
535.979 .0252844
536.794 .0251870
537.608 .0251154
538.422 .0250662
539.235 .0250400
540.048 .0250371
540.860 .0250557
541.671 .0250998
542.481 .0251665
543.292 .0252519
544.101 .0253564
544.910 .0254743
545.718 .0256007
546.526 .0257352
547.333 .0258695
548.139 .0259994
548.945 .0261238
549.750 .0262357
550.555 .0263312
551.359 .0264089
552.162 .0264737
552.965 .0265251
553.768 .0265590
554.569 .0265845
555.371 .0266023
556.171 .0266144
556.972 .0266253
557.771 .0266360
558.570 .0266517
559.369 .0266705
560.167 .0266909
560.964 .0267111
561.761 .0267317
562.558 .0267544
563.354 .0267787
564.149 .0268086
564.944 .0268494
565.738 .0269019
566.532 .0269700
567.325 .0270548
568.118 .0271504
568.910 .0272537
569.702 .0273623
570.494 .0274726
571.285 .0275807
572.075 .0276846
572.865 .0277830
573.654 .0278769
574.443 .0279689
575.232 .0280608
576.020 .0281515
576.807 .0282425
577.594 .0283309
578.381 .0284150
579.167 .0284923
579.952 .0285627
580.738 .0286262
581.522 .0286842
582.307 .0287364
583.091 .0287830
583.874 .0288258
584.657 .0288653
585.440 .0289016
586.222 .0289331
587.004 .0289599
587.785 .0289818
588.566 .0289987
589.346 .0290122
590.126 .0290232
590.906 .0290323
591.685 .0290405
592.464 .0290482
593.242 .0290557
594.020 .0290613
594.797 .0290655
595.575 .0290676
596.351 .0290678
597.128 .0290656
597.904 .0290616
598.679 .0290570
599.454 .0290531
600.229 .0290496
601.004 .0290478
601.778 .0290467
602.551 .0290457
603.325 .0290439
604.097 .0290409
604.870 .0290362
605.642 .0290292
606.414 .0290199
607.185 .0290085
607.956 .0289963
608.727 .0289846
609.497 .0289733
610.267 .0289638
611.037 .0289555
611.806 .0289477
612.575 .0289401
613.344 .0289324
614.112 .0289241
614.880 .0289155
615.647 .0289060
616.414 .0288961
617.181 .0288863
617.948 .0288767
618.714 .0288674
619.480 .0288594
620.245 .0288517
621.011 .0288438
621.775 .0288352
622.540 .0288259
623.304 .0288157
624.068 .0288054
624.832 .0287942
625.595 .0287823
626.358 .0287701
627.120 .0287565
627.883 .0287409
628.645 .0287240
629.406 .0287053
630.168 .0286845
630.929 .0286619
631.689 .0286380
632.450 .0286131
633.210 .0285882
633.970 .0285637
634.729 .0285395
635.489 .0285154
636.248 .0284907
637.006 .0284651
637.765 .0284385
638.523 .0284108
639.280 .0283824
640.038 .0283542
640.795 .0283273
641.552 .0283025
642.309 .0282803
643.065 .0282612
643.821 .0282450
644.577 .0282315
645.332 .0282193
646.088 .0282080
646.843 .0281967
647.597 .0281854
648.352 .0281734
649.106 .0281613
649.860 .0281494
650.613 .0281377
651.367 .0281265
652.120 .0281156
652.872 .0281039
653.625 .0280920
654.377 .0280795
655.129 .0280658
655.881 .0280512
656.632 .0280366
657.384 .0280210
658.135 .0280053
658.885 .0279899
659.636 .0279750
660.386 .0279606
661.136 .0279467
661.885 .0279327
662.635 .0279187
663.384 .0279052
664.133 .0278917
664.881 .0278781
665.630 .0278653
666.378 .0278527
667.126 .0278400
667.874 .0278278
668.621 .0278159
669.368 .0278035
670.115 .0277907
670.862 .0277773
671.608 .0277637
672.354 .0277499
673.100 .0277361
673.846 .0277234
674.591 .0277124
675.337 .0277032
676.082 .0276957
676.826 .0276901
677.571 .0276859
678.315 .0276822
679.059 .0276785
679.803 .0276739
680.547 .0276681
681.290 .0276611
682.033 .0276524
682.776 .0276430
683.518 .0276329
684.261 .0276222
685.003 .0276109
685.745 .0275997
686.487 .0275882
687.228 .0275757
687.969 .0275627
688.710 .0275489
689.451 .0275341
690.192 .0275189
690.932 .0275029
691.672 .0274869
692.412 .0274714
693.152 .0274565
693.891 .0274420
694.630 .0274283
695.369 .0274155
696.108 .0274034
696.846 .0273916
697.585 .0273798
698.323 .0273677
699.061 .0273551
699.798 .0273422
700.536 .0273283
701.273 .0273139
702.010 .0272994
702.746 .0272845
703.483 .0272700
704.219 .0272553
704.955 .0272408
705.691 .0272263
706.427 .0272119
707.162 .0271980
707.897 .0271839
708.632 .0271701
709.367 .0271567
710.101 .0271439
710.835 .0271314
711.569 .0271192
712.303 .0271072
713.037 .0270951
713.770 .0270828
714.503 .0270695
715.236 .0270554
715.969 .0270407
716.702 .0270253
717.434 .0270096
718.166 .0269934
718.898 .0269774
719.629 .0269612
720.361 .0269448
721.092 .0269282
721.823 .0269107
722.554 .0268920
723.284 .0268720
724.014 .0268501
724.744 .0268268
725.474 .0268023
726.204 .0267776
726.933 .0267526
727.662 .0267279
728.391 .0267036
729.120 .0266793
729.849 .0266552
730.577 .0266312
731.305 .0266067
732.033 .0265822
732.760 .0265573
733.488 .0265324
734.215 .0265079
734.942 .0264843
735.669 .0264613
736.395 .0264398
737.122 .0264192
737.848 .0263997
738.573 .0263806
739.299 .0263627
740.024 .0263453
740.750 .0263281
741.474 .0263117
742.199 .0262954
742.924 .0262793
743.648 .0262635
744.372 .0262477
745.096 .0262325
745.819 .0262176
746.543 .0262032
747.266 .0261893
747.989 .0261764
748.711 .0261645
749.434 .0261532
750.156 .0261433
750.878 .0261345
751.599 .0261269
752.321 .0261203
753.042 .0261150
753.763 .0261110
754.484 .0261081
755.205 .0261063
755.925 .0261052
756.645 .0261045
757.365 .0261041
758.085 .0261033
758.804 .0261019
759.523 .0260995
760.242 .0260960
760.961 .0260905
761.679 .0260837
762.397 .0260744
763.115 .0260638
763.833 .0260514
764.551 .0260376
765.268 .0260222
765.985 .0260055
766.702 .0259882
767.418 .0259700
768.134 .0259514
768.850 .0259331
769.566 .0259146
770.282 .0258969
770.997 .0258796
771.712 .0258635
772.427 .0258482
773.142 .0258342
773.856 .0258210
774.570 .0258085
775.284 .0257962
775.998 .0257842
776.711 .0257724
777.424 .0257612
778.137 .0257507
778.849 .0257405
779.562 .0257309
780.274 .0257221
780.986 .0257133
781.697 .0257053
782.409 .0256977
783.120 .0256913
783.831 .0256860
784.541 .0256823
785.252 .0256802
785.962 .0256799
786.671 .0256813
787.381 .0256835
788.090 .0256860
788.799 .0256877
789.508 .0256878
790.217 .0256862
790.925 .0256827
791.633 .0256776
792.341 .0256711
793.048 .0256635
793.755 .0256549
794.462 .0256451
795.169 .0256341
795.875 .0256216
796.581 .0256079
797.287 .0255933
797.993 .0255774
798.698 .0255610
799.403 .0255447
800.108 .0255286
800.812 .0255136
801.517 .0254999
802.221 .0254873
802.924 .0254758
803.628 .0254655
804.331 .0254564
805.034 .0254486
805.736 .0254419
806.439 .0254366
807.141 .0254323
807.843 .0254290
808.544 .0254258
809.245 .0254221
809.946 .0254184
810.647 .0254138
811.347 .0254082
812.047 .0254017
812.747 .0253947
813.447 .0253875
814.146 .0253806
814.845 .0253744
815.543 .0253685
816.242 .0253632
816.940 .0253574
817.638 .0253502
818.335 .0253414
819.032 .0253305
819.729 .0253176
820.426 .0253027
821.122 .0252864
821.818 .0252686
822.514 .0252506
823.209 .0252329
823.905 .0252155
824.599 .0251983
825.294 .0251813
825.988 .0251635
826.682 .0251450
827.376 .0251256
828.069 .0251050
828.762 .0250838
829.455 .0250624
830.147 .0250411
830.840 .0250204
831.531 .0250004
832.223 .0249817
832.914 .0249642
833.605 .0249477
834.296 .0249314
834.986 .0249151
835.676 .0248992
836.366 .0248832
837.055 .0248670
837.744 .0248507
838.433 .0248346
839.121 .0248188
839.809 .0248033
840.497 .0247879
841.185 .0247728
841.872 .0247578
842.559 .0247432
843.245 .0247291
843.932 .0247155
844.617 .0247024
845.303 .0246900
845.988 .0246784
846.673 .0246669
847.358 .0246556
848.042 .0246447
848.726 .0246339
849.410 .0246232
850.093 .0246124
850.776 .0246015
851.459 .0245905
852.141 .0245793
852.823 .0245677
853.505 .0245560
854.186 .0245435
854.867 .0245305
855.548 .0245166
856.228 .0245020
856.908 .0244866
857.588 .0244710
858.267 .0244553
858.946 .0244397
859.625 .0244243
860.303 .0244093
860.981 .0243950
861.659 .0243815
862.336 .0243685
863.013 .0243558
863.690 .0243436
864.366 .0243321
865.042 .0243206
865.718 .0243096
866.393 .0242986
867.068 .0242875
867.743 .0242760
868.417 .0242641
869.091 .0242515
869.765 .0242381
870.438 .0242241
871.111 .0242096
871.783 .0241945
872.456 .0241789
873.127 .0241631
873.799 .0241478
874.470 .0241328
875.141 .0241188
875.811 .0241057
876.481 .0240938
877.151 .0240830
877.820 .0240733
878.489 .0240642
879.158 .0240556
879.826 .0240474
880.494 .0240395
881.162 .0240320
881.829 .0240250
882.496 .0240184
883.163 .0240123
883.829 .0240069
884.495 .0240016
885.160 .0239963
885.825 .0239912
886.490 .0239855
887.154 .0239797
887.818 .0239736
888.482 .0239678
889.145 .0239625
889.808 .0239586
890.471 .0239555
891.133 .0239538
891.795 .0239528
892.456 .0239522
893.117 .0239515
893.778 .0239505
894.439 .0239488
895.099 .0239462
895.758 .0239432
896.417 .0239401
897.076 .0239368
897.735 .0239341
898.393 .0239315
899.051 .0239293
899.708 .0239270
900.365 .0239247
901.022 .0239223
901.678 .0239200
902.334 .0239180
902.990 .0239163
903.645 .0239151
904.300 .0239147
904.954 .0239148
905.608 .0239154
906.262 .0239162
906.915 .0239174
907.568 .0239183
908.221 .0239191
908.873 .0239198
909.525 .0239208
910.176 .0239218
910.828 .0239227
911.478 .0239231
912.129 .0239222
912.778 .0239201
913.428 .0239166
914.077 .0239120
914.726 .0239069
915.375 .0239020
916.023 .0238982
916.670 .0238961
917.318 .0238960
917.964 .0238970
918.611 .0238987
919.257 .0239006
919.903 .0239016
920.548 .0239015
921.193 .0239004
921.838 .0238992
922.482 .0238984
923.126 .0238987
923.770 .0239003
924.413 .0239029
925.056 .0239062
925.698 .0239094
926.340 .0239112
926.982 .0239115
927.623 .0239099
928.264 .0239066
928.904 .0239024
929.544 .0238982
930.184 .0238940
930.823 .0238904
931.462 .0238872
932.101 .0238841
932.739 .0238796
933.377 .0238742
934.014 .0238672
934.651 .0238591
935.288 .0238498
935.924 .0238402
936.560 .0238311
937.196 .0238222
937.831 .0238132
938.466 .0238035
939.100 .0237929
939.734 .0237809
940.368 .0237671
941.001 .0237519
941.634 .0237358
942.266 .0237197
942.899 .0237037
943.530 .0236886
944.162 .0236748
944.793 .0236623
945.423 .0236503
946.053 .0236382
946.683 .0236264
947.313 .0236143
947.942 .0236024
948.571 .0235906
949.199 .0235787
949.827 .0235670
950.455 .0235554
951.082 .0235445
951.709 .0235333
952.335 .0235224
952.961 .0235109
953.587 .0234985
954.212 .0234853
954.837 .0234711
955.462 .0234561
956.086 .0234407
956.710 .0234258
957.334 .0234103
957.957 .0233948
958.579 .0233798
959.202 .0233652
959.824 .0233514
960.445 .0233379
961.067 .0233251
961.688 .0233124
962.308 .0233005
962.928 .0232890
963.548 .0232773
964.168 .0232657
964.787 .0232538
965.406 .0232410
966.024 .0232275
966.642 .0232133
967.260 .0231983
967.877 .0231830
968.494 .0231674
969.110 .0231514
969.727 .0231351
970.342 .0231195
970.958 .0231042
971.573 .0230893
972.188 .0230756
972.802 .0230627
973.416 .0230510
974.030 .0230407
974.643 .0230315
975.256 .0230236
975.869 .0230162
976.481 .0230092
977.093 .0230017
977.705 .0229943
978.316 .0229869
978.927 .0229791
979.538 .0229707
980.148 .0229620
980.758 .0229527
981.367 .0229433
981.977 .0229340
982.586 .0229249
983.194 .0229154
983.802 .0229055
984.410 .0228951
985.018 .0228842
985.625 .0228731
986.232 .0228627
986.838 .0228525
987.445 .0228429
988.050 .0228341
988.656 .0228251
989.261 .0228166
989.866 .0228081
990.471 .0227991
991.075 .0227885
991.679 .0227764
992.282 .0227626
992.886 .0227471
993.489 .0227308
994.091 .0227140
994.694 .0226965
995.296 .0226795
995.897 .0226625
996.499 .0226455
997.100 .0226291
997.701 .0226138
998.301 .0225991
998.901 .0225861
999.501 .0225746
1000.101 .0225645
1000.700 .0225561
1001.299 .0225499
1001.898 .0225447
1002.496 .0225405
1003.094 .0225370
1003.692 .0225338
1004.289 .0225301
1004.887 .0225270
1005.484 .0225242
1006.080 .0225214
1006.677 .0225189
1007.273 .0225162
1007.868 .0225130
1008.464 .0225091
1009.059 .0225043
1009.654 .0224987
1010.249 .0224929
1010.843 .0224873
1011.437 .0224819
1012.031 .0224767
1012.625 .0224729
1013.218 .0224696
1013.811 .0224664
1014.404 .0224636
1014.997 .0224598
1015.589 .0224549
1016.181 .0224493
1016.773 .0224424
1017.365 .0224353
1017.956 .0224276
1018.547 .0224205
1019.138 .0224132
1019.728 .0224059
1020.319 .0223991
1020.909 .0223924
1021.499 .0223856
1022.088 .0223791
1022.678 .0223719
1023.267 .0223647
1023.856 .0223573
1024.445 .0223499
1025.033 .0223432
1025.621 .0223373
1026.209 .0223324
1026.797 .0223288
1027.385 .0223256
1027.972 .0223240
1028.560 .0223228
1029.147 .0223221
1029.734 .0223215
1030.320 .0223200
1030.907 .0223175
1031.493 .0223147
1032.079 .0223121
1032.665 .0223103
1033.250 .0223096
1033.836 .0223115
1034.421 .0223157
1035.006 .0223213
1035.591 .0223276
1036.176 .0223339
1036.761 .0223394
1037.345 .0223435
1037.929 .0223444
1038.514 .0223432
1039.097 .0223403
1039.681 .0223371
1040.265 .0223334
1040.848 .0223297
1041.432 .0223259
1042.015 .0223217
1042.598 .0223157
1043.181 .0223080
1043.764 .0222985
1044.346 .0222882
1044.929 .0222775
1045.511 .0222678
1046.094 .0222597
1046.676 .0222551
1047.258 .0222538
1047.840 .0222564
1048.422 .0222621
1049.003 .0222702
1049.585 .0222793
1050.166 .0222891
1050.748 .0222998
1051.329 .0223117
1051.910 .0223232
1052.491 .0223359
1053.072 .0223491
1053.653 .0223621
1054.234 .0223735
1054.815 .0223829
1055.396 .0223898
1055.976 .0223933
1056.557 .0223937
1057.138 .0223920
1057.718 .0223895
1058.298 .0223869
1058.879 .0223851
1059.459 .0223838
1060.039 .0223838
1060.620 .0223831
1061.200 .0223812
1061.780 .0223788
1062.360 .0223738
1062.940 .0223672
1063.520 .0223591
1064.101 .0223507
1064.681 .0223431
1065.261 .0223352
1065.841 .0223289
1066.421 .0223224
1067.001 .0223147
1067.581 .0223053
1068.161 .0222934
1068.741 .0222805
1069.321 .0222658
1069.901 .0222507
1070.482 .0222375
1071.062 .0222255
1071.642 .0222162
1072.222 .0222108
1072.803 .0222076
1073.383 .0222070
1073.963 .0222075
1074.544 .0222088
1075.124 .0222114
1075.705 .0222143
1076.286 .0222184
1076.866 .0222234
1077.447 .0222301
1078.028 .0222386
1078.609 .0222466
1079.190 .0222562
1079.771 .0222650
1080.352 .0222719
1080.934 .0222765
1081.515 .0222787
1082.097 .0222795
1082.679 .0222806
1083.260 .0222819
1083.842 .0222850
1084.424 .0222896
1085.007 .0222970
1085.589 .0223044
1086.172 .0223123
1086.754 .0223216
1087.337 .0223317
1087.920 .0223419
1088.503 .0223541
1089.087 .0223679
1089.670 .0223846
1090.254 .0224020
1090.838 .0224206
1091.422 .0224371
1092.006 .0224506
1092.590 .0224597
1093.175 .0224632
1093.760 .0224625
1094.345 .0224577
1094.930 .0224489
1095.516 .0224392
1096.102 .0224302
1096.688 .0224217
1097.274 .0224142
1097.860 .0224099
1098.447 .0224075
1099.034 .0224042
1099.622 .0224004
1100.209 .0223977
1100.797 .0223954
1101.385 .0223937
1101.973 .0223947
1102.562 .0223973
1103.151 .0224033
1103.740 .0224114
1104.330 .0224234
1104.920 .0224385
1105.510 .0224568
1106.101 .0224762
1106.691 .0224959
1107.283 .0225157
1107.874 .0225329
1108.466 .0225454
1109.058 .0225570
1109.651 .0225674
1110.244 .0225767
1110.837 .0225862
1111.431 .0226015
1112.025 .0226212
1112.620 .0226464
1113.215 .0226749
1113.810 .0227070
1114.406 .0227392
1115.002 .0227686
1115.599 .0227929
1116.196 .0228112
1116.793 .0228229
1117.391 .0228283
1117.989 .0228292
1118.588 .0228296
1119.187 .0228295
1119.787 .0228304
1120.387 .0228311
1120.988 .0228356
1121.589 .0228379
1122.190 .0228361
1122.793 .0228300
1123.395 .0228194
1123.998 .0228039
1124.602 .0227848
1125.206 .0227657
1125.811 .0227492
1126.416 .0227364
1127.022 .0227282
1127.628 .0227208
1128.235 .0227161
1128.843 .0227105
1129.451 .0227043
1130.059 .0226949
1130.669 .0226842
1131.278 .0226692
1131.889 .0226541
1132.500 .0226408
1133.112 .0226308
1133.724 .0226262
1134.337 .0226283
1134.950 .0226361
1135.564 .0226498
1136.179 .0226701
1136.795 .0226990
1137.411 .0227351
1138.028 .0227815
1138.645 .0228338
1139.263 .0228948
1139.882 .0229650
1140.502 .0230449
1141.122 .0231359
1141.743 .0232452
1142.365 .0233636
1142.987 .0234248
1143.611 .0235905
1144.235 .0237482
1144.859 .0240861
1145.485 .0240681
