Measurement Sequence started on: 10-20-44-796
Integration time: 35
Scans to Average: 2 
>>>>>Begin Spectral Data<<<<<
432.953 .0210591
433.882 .0296271
434.810 .0290001
435.737 .0270877
436.662 .0285277
437.586 .0296860
438.509 .0303603
439.431 .0307178
440.351 .0310396
441.269 .0313350
442.187 .0315107
443.103 .0315877
444.018 .0316400
444.932 .0316628
445.844 .0316557
446.756 .0316314
447.666 .0315996
448.575 .0315484
449.482 .0314925
450.388 .0314306
451.294 .0313642
452.198 .0313085
453.100 .0312630
454.002 .0312225
454.902 .0311926
455.801 .0311729
456.699 .0311527
457.596 .0311433
458.492 .0311467
459.387 .0311578
460.280 .0311748
461.172 .0311914
462.064 .0312024
462.954 .0311998
463.843 .0311895
464.730 .0311689
465.617 .0311381
466.503 .0311063
467.387 .0310677
468.271 .0310286
469.153 .0309911
470.035 .0309598
470.915 .0309333
471.794 .0309106
472.673 .0308916
473.550 .0308675
474.426 .0308405
475.301 .0308150
476.175 .0307905
477.048 .0307683
477.920 .0307500
478.791 .0307373
479.661 .0307268
480.530 .0307208
481.398 .0307176
482.266 .0307165
483.132 .0307163
483.997 .0307145
484.861 .0307081
485.724 .0306996
486.587 .0306945
487.448 .0306907
488.308 .0306904
489.168 .0306939
490.026 .0306968
490.884 .0306973
491.741 .0306936
492.597 .0306827
493.452 .0306610
494.306 .0306271
495.159 .0305815
496.011 .0305235
496.862 .0304581
497.713 .0303866
498.562 .0303126
499.411 .0302350
500.259 .0301541
501.106 .0300666
501.952 .0299735
502.798 .0298761
503.642 .0297746
504.486 .0296693
505.329 .0295638
506.171 .0294586
507.012 .0293597
507.852 .0292670
508.692 .0291878
509.531 .0291179
510.369 .0290539
511.206 .0289969
512.043 .0289443
512.878 .0288899
513.713 .0288326
514.547 .0287671
515.381 .0286925
516.213 .0286036
517.045 .0284995
517.876 .0283784
518.706 .0282453
519.536 .0281011
520.365 .0279464
521.193 .0277817
522.020 .0276151
522.847 .0274380
523.673 .0272564
524.498 .0270717
525.323 .0268773
526.146 .0266725
526.969 .0264624
527.792 .0262498
528.614 .0260327
529.435 .0258142
530.255 .0256031
531.075 .0253978
531.894 .0252051
532.712 .0250229
533.530 .0248540
534.347 .0247012
535.163 .0245598
535.979 .0244305
536.794 .0243185
537.608 .0242300
538.422 .0241611
539.235 .0241125
540.048 .0240873
540.860 .0240833
541.671 .0240951
542.481 .0241218
543.292 .0241644
544.101 .0242195
544.910 .0242829
545.718 .0243539
546.526 .0244356
547.333 .0245267
548.139 .0246236
548.945 .0247274
549.750 .0248312
550.555 .0249318
551.359 .0250264
552.162 .0251147
552.965 .0251991
553.768 .0252755
554.569 .0253476
555.371 .0254157
556.171 .0254854
556.972 .0255544
557.771 .0256198
558.570 .0256838
559.369 .0257447
560.167 .0258012
560.964 .0258528
561.761 .0258998
562.558 .0259493
563.354 .0260039
564.149 .0260663
564.944 .0261331
565.738 .0262083
566.532 .0262877
567.325 .0263689
568.118 .0264464
568.910 .0265202
569.702 .0265925
570.494 .0266645
571.285 .0267381
572.075 .0268188
572.865 .0269058
573.654 .0269995
574.443 .0270932
575.232 .0271873
576.020 .0272768
576.807 .0273581
577.594 .0274300
578.381 .0274944
579.167 .0275542
579.952 .0276114
580.738 .0276676
581.522 .0277275
582.307 .0277911
583.091 .0278551
583.874 .0279176
584.657 .0279762
585.440 .0280285
586.222 .0280740
587.004 .0281110
587.785 .0281431
588.566 .0281716
589.346 .0281976
590.126 .0282227
590.906 .0282469
591.685 .0282731
592.464 .0282970
593.242 .0283192
594.020 .0283384
594.797 .0283529
595.575 .0283631
596.351 .0283688
597.128 .0283702
597.904 .0283693
598.679 .0283675
599.454 .0283644
600.229 .0283608
601.004 .0283575
601.778 .0283529
602.551 .0283477
603.325 .0283412
604.097 .0283342
604.870 .0283249
605.642 .0283155
606.414 .0283060
607.185 .0282974
607.956 .0282906
608.727 .0282855
609.497 .0282821
610.267 .0282805
611.037 .0282792
611.806 .0282768
612.575 .0282733
613.344 .0282686
614.112 .0282613
614.880 .0282520
615.647 .0282404
616.414 .0282278
617.181 .0282142
617.948 .0282011
618.714 .0281884
619.480 .0281761
620.245 .0281641
621.011 .0281512
621.775 .0281374
622.540 .0281225
623.304 .0281065
624.068 .0280903
624.832 .0280739
625.595 .0280580
626.358 .0280431
627.120 .0280298
627.883 .0280179
628.645 .0280070
629.406 .0279963
630.168 .0279850
630.929 .0279723
631.689 .0279579
632.450 .0279417
633.210 .0279247
633.970 .0279077
634.729 .0278910
635.489 .0278744
636.248 .0278578
637.006 .0278410
637.765 .0278243
638.523 .0278069
639.280 .0277889
640.038 .0277705
640.795 .0277522
641.552 .0277340
642.309 .0277162
643.065 .0276993
643.821 .0276831
644.577 .0276676
645.332 .0276522
646.088 .0276365
646.843 .0276208
647.597 .0276049
648.352 .0275895
649.106 .0275752
649.860 .0275620
650.613 .0275498
651.367 .0275388
652.120 .0275291
652.872 .0275200
653.625 .0275112
654.377 .0275033
655.129 .0274956
655.881 .0274875
656.632 .0274791
657.384 .0274698
658.135 .0274601
658.885 .0274499
659.636 .0274389
660.386 .0274271
661.136 .0274152
661.885 .0274031
662.635 .0273908
663.384 .0273793
664.133 .0273684
664.881 .0273575
665.630 .0273467
666.378 .0273360
667.126 .0273252
667.874 .0273143
668.621 .0273037
669.368 .0272939
670.115 .0272851
670.862 .0272770
671.608 .0272701
672.354 .0272646
673.100 .0272600
673.846 .0272560
674.591 .0272524
675.337 .0272488
676.082 .0272451
676.826 .0272408
677.571 .0272359
678.315 .0272309
679.059 .0272257
679.803 .0272198
680.547 .0272135
681.290 .0272065
682.033 .0271982
682.776 .0271890
683.518 .0271792
684.261 .0271684
685.003 .0271567
685.745 .0271442
686.487 .0271310
687.228 .0271175
687.969 .0271035
688.710 .0270890
689.451 .0270750
690.192 .0270610
690.932 .0270466
691.672 .0270322
692.412 .0270181
693.152 .0270043
693.891 .0269909
694.630 .0269781
695.369 .0269651
696.108 .0269520
696.846 .0269382
697.585 .0269234
698.323 .0269083
699.061 .0268924
699.798 .0268754
700.536 .0268576
701.273 .0268391
702.010 .0268202
702.746 .0268007
703.483 .0267815
704.219 .0267624
704.955 .0267431
705.691 .0267238
706.427 .0267044
707.162 .0266852
707.897 .0266669
708.632 .0266492
709.367 .0266325
710.101 .0266160
710.835 .0266000
711.569 .0265840
712.303 .0265681
713.037 .0265525
713.770 .0265369
714.503 .0265213
715.236 .0265059
715.969 .0264903
716.702 .0264748
717.434 .0264595
718.166 .0264442
718.898 .0264287
719.629 .0264127
720.361 .0263959
721.092 .0263783
721.823 .0263599
722.554 .0263414
723.284 .0263222
724.014 .0263026
724.744 .0262827
725.474 .0262622
726.204 .0262410
726.933 .0262197
727.662 .0261980
728.391 .0261762
729.120 .0261542
729.849 .0261325
730.577 .0261108
731.305 .0260895
732.033 .0260683
732.760 .0260470
733.488 .0260259
734.215 .0260053
734.942 .0259842
735.669 .0259635
736.395 .0259436
737.122 .0259244
737.848 .0259059
738.573 .0258885
739.299 .0258715
740.024 .0258551
740.750 .0258391
741.474 .0258236
742.199 .0258080
742.924 .0257930
743.648 .0257786
744.372 .0257647
745.096 .0257523
745.819 .0257408
746.543 .0257299
747.266 .0257203
747.989 .0257115
748.711 .0257030
749.434 .0256947
750.156 .0256871
750.878 .0256801
751.599 .0256738
752.321 .0256685
753.042 .0256640
753.763 .0256609
754.484 .0256589
755.205 .0256572
755.925 .0256561
756.645 .0256555
757.365 .0256549
758.085 .0256544
758.804 .0256535
759.523 .0256520
760.242 .0256494
760.961 .0256460
761.679 .0256416
762.397 .0256352
763.115 .0256272
763.833 .0256179
764.551 .0256070
765.268 .0255946
765.985 .0255807
766.702 .0255656
767.418 .0255504
768.134 .0255347
768.850 .0255182
769.566 .0255012
770.282 .0254840
770.997 .0254666
771.712 .0254491
772.427 .0254317
773.142 .0254149
773.856 .0253986
774.570 .0253837
775.284 .0253695
775.998 .0253558
776.711 .0253431
777.424 .0253310
778.137 .0253191
778.849 .0253067
779.562 .0252938
780.274 .0252808
780.986 .0252676
781.697 .0252544
782.409 .0252417
783.120 .0252294
783.831 .0252182
784.541 .0252082
785.252 .0251993
785.962 .0251918
786.671 .0251852
787.381 .0251795
788.090 .0251740
788.799 .0251684
789.508 .0251624
790.217 .0251558
790.925 .0251490
791.633 .0251417
792.341 .0251334
793.048 .0251246
793.755 .0251153
794.462 .0251055
795.169 .0250955
795.875 .0250850
796.581 .0250739
797.287 .0250622
797.993 .0250495
798.698 .0250362
799.403 .0250222
800.108 .0250079
800.812 .0249934
801.517 .0249788
802.221 .0249644
802.924 .0249501
803.628 .0249361
804.331 .0249224
805.034 .0249085
805.736 .0248943
806.439 .0248800
807.141 .0248658
807.843 .0248521
808.544 .0248386
809.245 .0248255
809.946 .0248124
810.647 .0247991
811.347 .0247858
812.047 .0247718
812.747 .0247577
813.447 .0247433
814.146 .0247288
814.845 .0247151
815.543 .0247019
816.242 .0246901
816.940 .0246795
817.638 .0246697
818.335 .0246600
819.032 .0246496
819.729 .0246381
820.426 .0246253
821.122 .0246111
821.818 .0245957
822.514 .0245798
823.209 .0245641
823.905 .0245488
824.599 .0245337
825.294 .0245187
825.988 .0245030
826.682 .0244862
827.376 .0244682
828.069 .0244485
828.762 .0244275
829.455 .0244057
830.147 .0243833
830.840 .0243615
831.531 .0243404
832.223 .0243204
832.914 .0243016
833.605 .0242840
834.296 .0242672
834.986 .0242508
835.676 .0242350
836.366 .0242195
837.055 .0242045
837.744 .0241896
838.433 .0241747
839.121 .0241599
839.809 .0241452
840.497 .0241307
841.185 .0241168
841.872 .0241034
842.559 .0240908
843.245 .0240788
843.932 .0240676
844.617 .0240565
845.303 .0240458
845.988 .0240349
846.673 .0240236
847.358 .0240119
848.042 .0240002
848.726 .0239886
849.410 .0239781
850.093 .0239693
850.776 .0239620
851.459 .0239561
852.141 .0239510
852.823 .0239459
853.505 .0239403
854.186 .0239334
854.867 .0239246
855.548 .0239137
856.228 .0239019
856.908 .0238892
857.588 .0238761
858.267 .0238639
858.946 .0238523
859.625 .0238417
860.303 .0238320
860.981 .0238227
861.659 .0238133
862.336 .0238035
863.013 .0237929
863.690 .0237815
864.366 .0237701
865.042 .0237586
865.718 .0237479
866.393 .0237390
867.068 .0237315
867.743 .0237252
868.417 .0237200
869.091 .0237155
869.765 .0237105
870.438 .0237051
871.111 .0236986
871.783 .0236904
872.456 .0236812
873.127 .0236706
873.799 .0236592
874.470 .0236476
875.141 .0236363
875.811 .0236251
876.481 .0236145
877.151 .0236049
877.820 .0235959
878.489 .0235879
879.158 .0235809
879.826 .0235743
880.494 .0235684
881.162 .0235626
881.829 .0235572
882.496 .0235520
883.163 .0235473
883.829 .0235432
884.495 .0235394
885.160 .0235368
885.825 .0235352
886.490 .0235347
887.154 .0235352
887.818 .0235366
888.482 .0235382
889.145 .0235392
889.808 .0235403
890.471 .0235407
891.133 .0235407
891.795 .0235406
892.456 .0235403
893.117 .0235400
893.778 .0235398
894.439 .0235397
895.099 .0235389
895.758 .0235381
896.417 .0235364
897.076 .0235338
897.735 .0235305
898.393 .0235267
899.051 .0235221
899.708 .0235170
900.365 .0235119
901.022 .0235063
901.678 .0235001
902.334 .0234935
902.990 .0234861
903.645 .0234783
904.300 .0234699
904.954 .0234613
905.608 .0234527
906.262 .0234451
906.915 .0234384
907.568 .0234328
908.221 .0234283
908.873 .0234250
909.525 .0234221
910.176 .0234195
910.828 .0234171
911.478 .0234144
912.129 .0234113
912.778 .0234080
913.428 .0234043
914.077 .0234006
914.726 .0233972
915.375 .0233940
916.023 .0233913
916.670 .0233892
917.318 .0233871
917.964 .0233850
918.611 .0233825
919.257 .0233794
919.903 .0233752
920.548 .0233703
921.193 .0233646
921.838 .0233584
922.482 .0233520
923.126 .0233462
923.770 .0233415
924.413 .0233377
925.056 .0233350
925.698 .0233330
926.340 .0233313
926.982 .0233298
927.623 .0233280
928.264 .0233255
928.904 .0233226
929.544 .0233192
930.184 .0233148
930.823 .0233097
931.462 .0233040
932.101 .0232974
932.739 .0232899
933.377 .0232811
934.014 .0232709
934.651 .0232594
935.288 .0232468
935.924 .0232332
936.560 .0232189
937.196 .0232043
937.831 .0231891
938.466 .0231734
939.100 .0231576
939.734 .0231413
940.368 .0231247
941.001 .0231081
941.634 .0230920
942.266 .0230764
942.899 .0230614
943.530 .0230467
944.162 .0230320
944.793 .0230172
945.423 .0230014
946.053 .0229842
946.683 .0229662
947.313 .0229475
947.942 .0229278
948.571 .0229080
949.199 .0228885
949.827 .0228692
950.455 .0228501
951.082 .0228318
951.709 .0228136
952.335 .0227951
952.961 .0227761
953.587 .0227564
954.212 .0227361
954.837 .0227161
955.462 .0226957
956.086 .0226756
956.710 .0226562
957.334 .0226373
957.957 .0226186
958.579 .0226005
959.202 .0225825
959.824 .0225639
960.445 .0225447
961.067 .0225251
961.688 .0225047
962.308 .0224847
962.928 .0224654
963.548 .0224467
964.168 .0224295
964.787 .0224133
965.406 .0223977
966.024 .0223834
966.642 .0223701
967.260 .0223573
967.877 .0223446
968.494 .0223324
969.110 .0223198
969.727 .0223066
970.342 .0222934
970.958 .0222797
971.573 .0222659
972.188 .0222521
972.802 .0222381
973.416 .0222244
974.030 .0222112
974.643 .0221982
975.256 .0221853
975.869 .0221732
976.481 .0221614
977.093 .0221503
977.705 .0221404
978.316 .0221319
978.927 .0221244
979.538 .0221177
980.148 .0221120
980.758 .0221065
981.367 .0221017
981.977 .0220970
982.586 .0220923
983.194 .0220881
983.802 .0220838
984.410 .0220792
985.018 .0220748
985.625 .0220702
986.232 .0220648
986.838 .0220582
987.445 .0220505
988.050 .0220417
988.656 .0220321
989.261 .0220214
989.866 .0220102
990.471 .0219991
991.075 .0219885
991.679 .0219778
992.282 .0219675
992.886 .0219580
993.489 .0219484
994.091 .0219387
994.694 .0219290
995.296 .0219186
995.897 .0219081
996.499 .0218970
997.100 .0218858
997.701 .0218744
998.301 .0218639
998.901 .0218544
999.501 .0218461
1000.101 .0218393
1000.700 .0218339
1001.299 .0218288
1001.898 .0218241
1002.496 .0218190
1003.094 .0218133
1003.692 .0218068
1004.289 .0217996
1004.887 .0217929
1005.484 .0217876
1006.080 .0217838
1006.677 .0217820
1007.273 .0217820
1007.868 .0217832
1008.464 .0217847
1009.059 .0217857
1009.654 .0217863
1010.249 .0217867
1010.843 .0217869
1011.437 .0217872
1012.031 .0217880
1012.625 .0217901
1013.218 .0217933
1013.811 .0217973
1014.404 .0218028
1014.997 .0218081
1015.589 .0218135
1016.181 .0218186
1016.773 .0218235
1017.365 .0218281
1017.956 .0218321
1018.547 .0218351
1019.138 .0218372
1019.728 .0218379
1020.319 .0218370
1020.909 .0218341
1021.499 .0218307
1022.088 .0218269
1022.678 .0218231
1023.267 .0218196
1023.856 .0218174
1024.445 .0218162
1025.033 .0218162
1025.621 .0218157
1026.209 .0218150
1026.797 .0218134
1027.385 .0218113
1027.972 .0218087
1028.560 .0218060
1029.147 .0218040
1029.734 .0218034
1030.320 .0218042
1030.907 .0218062
1031.493 .0218091
1032.079 .0218123
1032.665 .0218150
1033.250 .0218160
1033.836 .0218149
1034.421 .0218116
1035.006 .0218067
1035.591 .0218016
1036.176 .0217968
1036.761 .0217931
1037.345 .0217916
1037.929 .0217913
1038.514 .0217928
1039.097 .0217949
1039.681 .0217980
1040.265 .0218007
1040.848 .0218038
1041.432 .0218063
1042.015 .0218092
1042.598 .0218127
1043.181 .0218174
1043.764 .0218229
1044.346 .0218295
1044.929 .0218363
1045.511 .0218420
1046.094 .0218465
1046.676 .0218500
1047.258 .0218514
1047.840 .0218522
1048.422 .0218521
1049.003 .0218521
1049.585 .0218521
1050.166 .0218537
1050.748 .0218562
1051.329 .0218602
1051.910 .0218654
1052.491 .0218714
1053.072 .0218776
1053.653 .0218847
1054.234 .0218918
1054.815 .0218990
1055.396 .0219069
1055.976 .0219149
1056.557 .0219220
1057.138 .0219290
1057.718 .0219353
1058.298 .0219410
1058.879 .0219459
1059.459 .0219493
1060.039 .0219509
1060.620 .0219510
1061.200 .0219500
1061.780 .0219471
1062.360 .0219430
1062.940 .0219404
1063.520 .0219385
1064.101 .0219378
1064.681 .0219396
1065.261 .0219431
1065.841 .0219489
1066.421 .0219562
1067.001 .0219636
1067.581 .0219721
1068.161 .0219811
1068.741 .0219909
1069.321 .0220008
1069.901 .0220122
1070.482 .0220239
1071.062 .0220345
1071.642 .0220457
1072.222 .0220548
1072.803 .0220611
1073.383 .0220648
1073.963 .0220662
1074.544 .0220665
1075.124 .0220674
1075.705 .0220687
1076.286 .0220718
1076.866 .0220777
1077.447 .0220849
1078.028 .0220919
1078.609 .0220979
1079.190 .0221020
1079.771 .0221024
1080.352 .0220986
1080.934 .0220918
1081.515 .0220822
1082.097 .0220726
1082.679 .0220627
1083.260 .0220528
1083.842 .0220434
1084.424 .0220342
1085.007 .0220259
1085.589 .0220169
1086.172 .0220070
1086.754 .0219967
1087.337 .0219856
1087.920 .0219742
1088.503 .0219642
1089.087 .0219560
1089.670 .0219489
1090.254 .0219446
1090.838 .0219431
1091.422 .0219437
1092.006 .0219468
1092.590 .0219536
1093.175 .0219632
1093.760 .0219761
1094.345 .0219911
1094.930 .0220050
1095.516 .0220194
1096.102 .0220330
1096.688 .0220437
1097.274 .0220526
1097.860 .0220612
1098.447 .0220706
1099.034 .0220812
1099.622 .0220940
1100.209 .0221083
1100.797 .0221234
1101.385 .0221370
1101.973 .0221482
1102.562 .0221557
1103.151 .0221583
1103.740 .0221562
1104.330 .0221506
1104.920 .0221417
1105.510 .0221305
1106.101 .0221206
1106.691 .0221090
1107.283 .0220965
1107.874 .0220840
1108.466 .0220689
1109.058 .0220528
1109.651 .0220393
1110.244 .0220274
1110.837 .0220189
1111.431 .0220147
1112.025 .0220141
1112.620 .0220153
1113.215 .0220219
1113.810 .0220295
1114.406 .0220371
1115.002 .0220445
1115.599 .0220507
1116.196 .0220512
1116.793 .0220491
1117.391 .0220426
1117.989 .0220322
1118.588 .0220185
1119.187 .0220023
1119.787 .0219822
1120.387 .0219620
1120.988 .0219395
1121.589 .0219183
1122.190 .0218973
1122.793 .0218782
1123.395 .0218599
1123.998 .0218451
1124.602 .0218332
1125.206 .0218262
1125.811 .0218228
1126.416 .0218252
1127.022 .0218324
1127.628 .0218447
1128.235 .0218574
1128.843 .0218737
1129.451 .0218929
1130.059 .0219129
1130.669 .0219347
1131.278 .0219599
1131.889 .0219807
1132.500 .0220020
1133.112 .0220197
1133.724 .0220339
1134.337 .0220468
1134.950 .0220580
1135.564 .0220679
1136.179 .0220801
1136.795 .0220980
1137.411 .0221218
1138.028 .0221521
1138.645 .0221937
1139.263 .0222414
1139.882 .0222929
1140.502 .0223543
1141.122 .0224211
1141.743 .0225002
1142.365 .0226055
1142.987 .0225343
1143.611 .0228146
1144.235 .0228698
1144.859 .0230976
1145.485 .0236391
