Measurement Sequence started on: 10-20-44-796
Integration time: 35
Scans to Average: 2 
>>>>>Begin Spectral Data<<<<<
432.953 .0574365
433.882 .0448755
434.810 .0391011
435.737 .0398201
436.662 .0389065
437.586 .0400689
438.509 .0393158
439.431 .0392008
440.351 .0393462
441.269 .0395270
442.187 .0397580
443.103 .0400060
444.018 .0402122
444.932 .0403979
445.844 .0405303
446.756 .0406023
447.666 .0406028
448.575 .0405421
449.482 .0404282
450.388 .0402826
451.294 .0401181
452.198 .0399508
453.100 .0397802
454.002 .0396403
454.902 .0395265
455.801 .0394465
456.699 .0394165
457.596 .0394144
458.492 .0394345
459.387 .0394552
460.280 .0394682
461.172 .0394630
462.064 .0394478
462.954 .0394249
463.843 .0393961
464.730 .0393784
465.617 .0393842
466.503 .0394044
467.387 .0394441
468.271 .0394903
469.153 .0395323
470.035 .0395516
470.915 .0395455
471.794 .0395102
472.673 .0394553
473.550 .0393906
474.426 .0393324
475.301 .0392895
476.175 .0392688
477.048 .0392655
477.920 .0392756
478.791 .0392941
479.661 .0393136
480.530 .0393232
481.398 .0393184
482.266 .0393013
483.132 .0392728
483.997 .0392343
484.861 .0391934
485.724 .0391627
486.587 .0391354
487.448 .0391130
488.308 .0390896
489.168 .0390664
490.026 .0390336
490.884 .0389893
491.741 .0389256
492.597 .0388485
493.452 .0387575
494.306 .0386570
495.159 .0385462
496.011 .0384394
496.862 .0383339
497.713 .0382318
498.562 .0381318
499.411 .0380414
500.259 .0379459
501.106 .0378526
501.952 .0377550
502.798 .0376585
503.642 .0375603
504.486 .0374659
505.329 .0373751
506.171 .0372941
507.012 .0372169
507.852 .0371407
508.692 .0370611
509.531 .0369820
510.369 .0368932
511.206 .0367974
512.043 .0366969
512.878 .0365882
513.713 .0364644
514.547 .0363352
515.381 .0361955
516.213 .0360462
517.045 .0358818
517.876 .0357008
518.706 .0355107
519.536 .0353186
520.365 .0351311
521.193 .0349535
522.020 .0347988
522.847 .0346642
523.673 .0345380
524.498 .0344219
525.323 .0343072
526.146 .0341854
526.969 .0340605
527.792 .0339307
528.614 .0337914
529.435 .0336516
530.255 .0335214
531.075 .0334028
531.894 .0333017
532.712 .0332154
533.530 .0331438
534.347 .0330831
535.163 .0330315
535.979 .0329809
536.794 .0329256
537.608 .0328789
538.422 .0328284
539.235 .0327649
540.048 .0326943
540.860 .0326100
541.671 .0325121
542.481 .0324115
543.292 .0323116
544.101 .0322134
544.910 .0321265
545.718 .0320557
546.526 .0319988
547.333 .0319607
548.139 .0319401
548.945 .0319258
549.750 .0319219
550.555 .0319230
551.359 .0319216
552.162 .0319292
552.965 .0319518
553.768 .0319816
554.569 .0320248
555.371 .0320782
556.171 .0321380
556.972 .0321934
557.771 .0322420
558.570 .0322756
559.369 .0322952
560.167 .0322984
560.964 .0322843
561.761 .0322602
562.558 .0322386
563.354 .0322203
564.149 .0322119
564.944 .0322203
565.738 .0322460
566.532 .0322829
567.325 .0323341
568.118 .0323909
568.910 .0324566
569.702 .0325298
570.494 .0326113
571.285 .0327024
572.075 .0328065
572.865 .0329202
573.654 .0330386
574.443 .0331620
575.232 .0332827
576.020 .0333916
576.807 .0334912
577.594 .0335771
578.381 .0336492
579.167 .0337090
579.952 .0337619
580.738 .0338102
581.522 .0338565
582.307 .0339018
583.091 .0339429
583.874 .0339802
584.657 .0340131
585.440 .0340367
586.222 .0340500
587.004 .0340577
587.785 .0340566
588.566 .0340481
589.346 .0340360
590.126 .0340214
590.906 .0340056
591.685 .0339909
592.464 .0339747
593.242 .0339568
594.020 .0339380
594.797 .0339183
595.575 .0338931
596.351 .0338673
597.128 .0338404
597.904 .0338102
598.679 .0337806
599.454 .0337519
600.229 .0337223
601.004 .0336952
601.778 .0336706
602.551 .0336465
603.325 .0336215
604.097 .0335972
604.870 .0335702
605.642 .0335422
606.414 .0335140
607.185 .0334830
607.956 .0334503
608.727 .0334189
609.497 .0333864
610.267 .0333520
611.037 .0333178
611.806 .0332836
612.575 .0332485
613.344 .0332144
614.112 .0331813
614.880 .0331494
615.647 .0331216
616.414 .0330986
617.181 .0330784
617.948 .0330618
618.714 .0330478
619.480 .0330345
620.245 .0330210
621.011 .0330072
621.775 .0329912
622.540 .0329733
623.304 .0329571
624.068 .0329424
624.832 .0329294
625.595 .0329188
626.358 .0329108
627.120 .0329029
627.883 .0328946
628.645 .0328838
629.406 .0328693
630.168 .0328515
630.929 .0328313
631.689 .0328089
632.450 .0327856
633.210 .0327637
633.970 .0327436
634.729 .0327248
635.489 .0327089
636.248 .0326926
637.006 .0326762
637.765 .0326590
638.523 .0326412
639.280 .0326213
640.038 .0325991
640.795 .0325755
641.552 .0325506
642.309 .0325251
643.065 .0324992
643.821 .0324722
644.577 .0324451
645.332 .0324181
646.088 .0323905
646.843 .0323618
647.597 .0323328
648.352 .0323036
649.106 .0322743
649.860 .0322448
650.613 .0322151
651.367 .0321863
652.120 .0321593
652.872 .0321345
653.625 .0321106
654.377 .0320878
655.129 .0320650
655.881 .0320416
656.632 .0320173
657.384 .0319915
658.135 .0319644
658.885 .0319358
659.636 .0319066
660.386 .0318776
661.136 .0318478
661.885 .0318193
662.635 .0317906
663.384 .0317622
664.133 .0317333
664.881 .0317031
665.630 .0316726
666.378 .0316420
667.126 .0316117
667.874 .0315809
668.621 .0315504
669.368 .0315214
670.115 .0314929
670.862 .0314654
671.608 .0314389
672.354 .0314133
673.100 .0313881
673.846 .0313627
674.591 .0313362
675.337 .0313092
676.082 .0312815
676.826 .0312529
677.571 .0312241
678.315 .0311952
679.059 .0311671
679.803 .0311398
680.547 .0311146
681.290 .0310914
682.033 .0310688
682.776 .0310472
683.518 .0310256
684.261 .0310046
685.003 .0309835
685.745 .0309624
686.487 .0309423
687.228 .0309227
687.969 .0309044
688.710 .0308864
689.451 .0308688
690.192 .0308520
690.932 .0308347
691.672 .0308165
692.412 .0307971
693.152 .0307765
693.891 .0307552
694.630 .0307343
695.369 .0307141
696.108 .0306944
696.846 .0306756
697.585 .0306572
698.323 .0306397
699.061 .0306231
699.798 .0306076
700.536 .0305925
701.273 .0305788
702.010 .0305662
702.746 .0305537
703.483 .0305421
704.219 .0305311
704.955 .0305206
705.691 .0305102
706.427 .0304993
707.162 .0304880
707.897 .0304763
708.632 .0304645
709.367 .0304520
710.101 .0304395
710.835 .0304264
711.569 .0304128
712.303 .0303983
713.037 .0303841
713.770 .0303697
714.503 .0303552
715.236 .0303405
715.969 .0303254
716.702 .0303106
717.434 .0302955
718.166 .0302802
718.898 .0302651
719.629 .0302499
720.361 .0302353
721.092 .0302202
721.823 .0302060
722.554 .0301919
723.284 .0301783
724.014 .0301643
724.744 .0301503
725.474 .0301349
726.204 .0301189
726.933 .0301028
727.662 .0300865
728.391 .0300704
729.120 .0300545
729.849 .0300396
730.577 .0300260
731.305 .0300135
732.033 .0300011
732.760 .0299875
733.488 .0299739
734.215 .0299578
734.942 .0299402
735.669 .0299209
736.395 .0299005
737.122 .0298796
737.848 .0298584
738.573 .0298374
739.299 .0298162
740.024 .0297957
740.750 .0297748
741.474 .0297532
742.199 .0297305
742.924 .0297065
743.648 .0296816
744.372 .0296570
745.096 .0296336
745.819 .0296121
746.543 .0295928
747.266 .0295766
747.989 .0295630
748.711 .0295519
749.434 .0295421
750.156 .0295330
750.878 .0295236
751.599 .0295141
752.321 .0295041
753.042 .0294934
753.763 .0294828
754.484 .0294726
755.205 .0294623
755.925 .0294516
756.645 .0294399
757.365 .0294270
758.085 .0294122
758.804 .0293961
759.523 .0293773
760.242 .0293562
760.961 .0293329
761.679 .0293082
762.397 .0292823
763.115 .0292558
763.833 .0292283
764.551 .0291997
765.268 .0291706
765.985 .0291409
766.702 .0291102
767.418 .0290798
768.134 .0290499
768.850 .0290214
769.566 .0289937
770.282 .0289678
770.997 .0289429
771.712 .0289200
772.427 .0288988
773.142 .0288782
773.856 .0288578
774.570 .0288380
775.284 .0288175
775.998 .0287971
776.711 .0287771
777.424 .0287573
778.137 .0287376
778.849 .0287183
779.562 .0286985
780.274 .0286780
780.986 .0286565
781.697 .0286351
782.409 .0286129
783.120 .0285919
783.831 .0285717
784.541 .0285526
785.252 .0285361
785.962 .0285214
786.671 .0285080
787.381 .0284958
788.090 .0284840
788.799 .0284721
789.508 .0284598
790.217 .0284479
790.925 .0284360
791.633 .0284245
792.341 .0284135
793.048 .0284028
793.755 .0283915
794.462 .0283790
795.169 .0283641
795.875 .0283467
796.581 .0283271
797.287 .0283056
797.993 .0282826
798.698 .0282597
799.403 .0282386
800.108 .0282201
800.812 .0282048
801.517 .0281931
802.221 .0281843
802.924 .0281789
803.628 .0281758
804.331 .0281744
805.034 .0281747
805.736 .0281769
806.439 .0281807
807.141 .0281861
807.843 .0281928
808.544 .0282000
809.245 .0282071
809.946 .0282135
810.647 .0282182
811.347 .0282213
812.047 .0282221
812.747 .0282203
813.447 .0282165
814.146 .0282109
814.845 .0282034
815.543 .0281952
816.242 .0281867
816.940 .0281779
817.638 .0281688
818.335 .0281602
819.032 .0281521
819.729 .0281445
820.426 .0281379
821.122 .0281316
821.818 .0281262
822.514 .0281213
823.209 .0281158
823.905 .0281102
824.599 .0281038
825.294 .0280961
825.988 .0280868
826.682 .0280765
827.376 .0280655
828.069 .0280543
828.762 .0280439
829.455 .0280339
830.147 .0280247
830.840 .0280163
831.531 .0280086
832.223 .0280016
832.914 .0279951
833.605 .0279890
834.296 .0279839
834.986 .0279799
835.676 .0279765
836.366 .0279742
837.055 .0279735
837.744 .0279741
838.433 .0279753
839.121 .0279763
839.809 .0279770
840.497 .0279767
841.185 .0279757
841.872 .0279733
842.559 .0279709
843.245 .0279688
843.932 .0279663
844.617 .0279636
845.303 .0279612
845.988 .0279580
846.673 .0279543
847.358 .0279501
848.042 .0279455
848.726 .0279404
849.410 .0279359
850.093 .0279313
850.776 .0279276
851.459 .0279244
852.141 .0279213
852.823 .0279173
853.505 .0279129
854.186 .0279073
854.867 .0279005
855.548 .0278933
856.228 .0278864
856.908 .0278796
857.588 .0278734
858.267 .0278671
858.946 .0278611
859.625 .0278545
860.303 .0278470
860.981 .0278381
861.659 .0278280
862.336 .0278170
863.013 .0278052
863.690 .0277930
864.366 .0277809
865.042 .0277686
865.718 .0277565
866.393 .0277433
867.068 .0277289
867.743 .0277128
868.417 .0276943
869.091 .0276735
869.765 .0276505
870.438 .0276255
871.111 .0275989
871.783 .0275715
872.456 .0275437
873.127 .0275155
873.799 .0274881
874.470 .0274615
875.141 .0274360
875.811 .0274118
876.481 .0273886
877.151 .0273660
877.820 .0273450
878.489 .0273250
879.158 .0273060
879.826 .0272885
880.494 .0272727
881.162 .0272586
881.829 .0272457
882.496 .0272345
883.163 .0272243
883.829 .0272144
884.495 .0272052
885.160 .0271953
885.825 .0271847
886.490 .0271735
887.154 .0271614
887.818 .0271486
888.482 .0271348
889.145 .0271202
889.808 .0271053
890.471 .0270909
891.133 .0270771
891.795 .0270636
892.456 .0270514
893.117 .0270405
893.778 .0270300
894.439 .0270198
895.099 .0270098
895.758 .0269996
896.417 .0269890
897.076 .0269768
897.735 .0269636
898.393 .0269496
899.051 .0269349
899.708 .0269196
900.365 .0269035
901.022 .0268874
901.678 .0268707
902.334 .0268533
902.990 .0268354
903.645 .0268169
904.300 .0267980
904.954 .0267788
905.608 .0267587
906.262 .0267384
906.915 .0267178
907.568 .0266967
908.221 .0266757
908.873 .0266544
909.525 .0266328
910.176 .0266110
910.828 .0265886
911.478 .0265657
912.129 .0265421
912.778 .0265186
913.428 .0264952
914.077 .0264724
914.726 .0264502
915.375 .0264282
916.023 .0264076
916.670 .0263885
917.318 .0263699
917.964 .0263518
918.611 .0263342
919.257 .0263166
919.903 .0262989
920.548 .0262809
921.193 .0262634
921.838 .0262472
922.482 .0262327
923.126 .0262193
923.770 .0262069
924.413 .0261957
925.056 .0261851
925.698 .0261750
926.340 .0261649
926.982 .0261549
927.623 .0261444
928.264 .0261338
928.904 .0261227
929.544 .0261119
930.184 .0261014
930.823 .0260912
931.462 .0260818
932.101 .0260723
932.739 .0260621
933.377 .0260520
934.014 .0260407
934.651 .0260287
935.288 .0260154
935.924 .0260006
936.560 .0259843
937.196 .0259680
937.831 .0259504
938.466 .0259322
939.100 .0259143
939.734 .0258966
940.368 .0258775
941.001 .0258582
941.634 .0258383
942.266 .0258173
942.899 .0257966
943.530 .0257754
944.162 .0257532
944.793 .0257319
945.423 .0257103
946.053 .0256882
946.683 .0256655
947.313 .0256428
947.942 .0256190
948.571 .0255945
949.199 .0255697
949.827 .0255438
950.455 .0255182
951.082 .0254940
951.709 .0254707
952.335 .0254489
952.961 .0254293
953.587 .0254115
954.212 .0253953
954.837 .0253809
955.462 .0253678
956.086 .0253556
956.710 .0253448
957.334 .0253359
957.957 .0253280
958.579 .0253214
959.202 .0253160
959.824 .0253111
960.445 .0253070
961.067 .0253033
961.688 .0252992
962.308 .0252951
962.928 .0252916
963.548 .0252871
964.168 .0252813
964.787 .0252753
965.406 .0252685
966.024 .0252609
966.642 .0252532
967.260 .0252451
967.877 .0252361
968.494 .0252270
969.110 .0252176
969.727 .0252079
970.342 .0251991
970.958 .0251904
971.573 .0251823
972.188 .0251758
972.802 .0251705
973.416 .0251661
974.030 .0251642
974.643 .0251643
975.256 .0251658
975.869 .0251682
976.481 .0251711
977.093 .0251749
977.705 .0251797
978.316 .0251853
978.927 .0251914
979.538 .0251981
980.148 .0252060
980.758 .0252137
981.367 .0252220
981.977 .0252306
982.586 .0252396
983.194 .0252482
983.802 .0252566
984.410 .0252636
985.018 .0252694
985.625 .0252744
986.232 .0252794
986.838 .0252839
987.445 .0252886
988.050 .0252932
988.656 .0252977
989.261 .0253017
989.866 .0253048
990.471 .0253059
991.075 .0253061
991.679 .0253045
992.282 .0253018
992.886 .0252975
993.489 .0252936
994.091 .0252904
994.694 .0252888
995.296 .0252878
995.897 .0252869
996.499 .0252851
997.100 .0252822
997.701 .0252780
998.301 .0252731
998.901 .0252683
999.501 .0252648
1000.101 .0252632
1000.700 .0252648
1001.299 .0252685
1001.898 .0252759
1002.496 .0252847
1003.094 .0252951
1003.692 .0253058
1004.289 .0253151
1004.887 .0253239
1005.484 .0253331
1006.080 .0253429
1006.677 .0253537
1007.273 .0253652
1007.868 .0253771
1008.464 .0253888
1009.059 .0254013
1009.654 .0254132
1010.249 .0254253
1010.843 .0254374
1011.437 .0254482
1012.031 .0254582
1012.625 .0254684
1013.218 .0254778
1013.811 .0254870
1014.404 .0254972
1014.997 .0255064
1015.589 .0255142
1016.181 .0255205
1016.773 .0255254
1017.365 .0255291
1017.956 .0255310
1018.547 .0255306
1019.138 .0255279
1019.728 .0255242
1020.319 .0255198
1020.909 .0255152
1021.499 .0255126
1022.088 .0255112
1022.678 .0255103
1023.267 .0255096
1023.856 .0255092
1024.445 .0255073
1025.033 .0255042
1025.621 .0255017
1026.209 .0254999
1026.797 .0254991
1027.385 .0255008
1027.972 .0255056
1028.560 .0255151
1029.147 .0255272
1029.734 .0255409
1030.320 .0255533
1030.907 .0255652
1031.493 .0255744
1032.079 .0255796
1032.665 .0255834
1033.250 .0255857
1033.836 .0255867
1034.421 .0255878
1035.006 .0255894
1035.591 .0255909
1036.176 .0255921
1036.761 .0255936
1037.345 .0255930
1037.929 .0255914
1038.514 .0255880
1039.097 .0255834
1039.681 .0255785
1040.265 .0255743
1040.848 .0255693
1041.432 .0255653
1042.015 .0255628
1042.598 .0255603
1043.181 .0255592
1043.764 .0255589
1044.346 .0255577
1044.929 .0255556
1045.511 .0255514
1046.094 .0255446
1046.676 .0255360
1047.258 .0255263
1047.840 .0255165
1048.422 .0255085
1049.003 .0255034
1049.585 .0255004
1050.166 .0255007
1050.748 .0255029
1051.329 .0255046
1051.910 .0255050
1052.491 .0255015
1053.072 .0254925
1053.653 .0254802
1054.234 .0254659
1054.815 .0254518
1055.396 .0254401
1055.976 .0254328
1056.557 .0254282
1057.138 .0254276
1057.718 .0254274
1058.298 .0254242
1058.879 .0254186
1059.459 .0254092
1060.039 .0253963
1060.620 .0253812
1061.200 .0253664
1061.780 .0253526
1062.360 .0253433
1062.940 .0253409
1063.520 .0253411
1064.101 .0253454
1064.681 .0253497
1065.261 .0253511
1065.841 .0253481
1066.421 .0253399
1067.001 .0253259
1067.581 .0253058
1068.161 .0252815
1068.741 .0252516
1069.321 .0252197
1069.901 .0251889
1070.482 .0251581
1071.062 .0251305
1071.642 .0251056
1072.222 .0250820
1072.803 .0250583
1073.383 .0250344
1073.963 .0250103
1074.544 .0249869
1075.124 .0249638
1075.705 .0249408
1076.286 .0249195
1076.866 .0249014
1077.447 .0248888
1078.028 .0248826
1078.609 .0248830
1079.190 .0248891
1079.771 .0248988
1080.352 .0249104
1080.934 .0249206
1081.515 .0249306
1082.097 .0249382
1082.679 .0249436
1083.260 .0249479
1083.842 .0249496
1084.424 .0249529
1085.007 .0249596
1085.589 .0249684
1086.172 .0249804
1086.754 .0249958
1087.337 .0250111
1087.920 .0250241
1088.503 .0250355
1089.087 .0250402
1089.670 .0250365
1090.254 .0250254
1090.838 .0250051
1091.422 .0249782
1092.006 .0249466
1092.590 .0249118
1093.175 .0248731
1093.760 .0248339
1094.345 .0247901
1094.930 .0247417
1095.516 .0246922
1096.102 .0246398
1096.688 .0245853
1097.274 .0245323
1097.860 .0244825
1098.447 .0244386
1099.034 .0244016
1099.622 .0243737
1100.209 .0243540
1100.797 .0243427
1101.385 .0243378
1101.973 .0243387
1102.562 .0243450
1103.151 .0243568
1103.740 .0243706
1104.330 .0243864
1104.920 .0244031
1105.510 .0244178
1106.101 .0244286
1106.691 .0244331
1107.283 .0244321
1107.874 .0244207
1108.466 .0243984
1109.058 .0243706
1109.651 .0243365
1110.244 .0243028
1110.837 .0242724
1111.431 .0242452
1112.025 .0242261
1112.620 .0242132
1113.215 .0242068
1113.810 .0242100
1114.406 .0242246
1115.002 .0242462
1115.599 .0242752
1116.196 .0243130
1116.793 .0243555
1117.391 .0243988
1117.989 .0244453
1118.588 .0244890
1119.187 .0245296
1119.787 .0245678
1120.387 .0245997
1120.988 .0246299
1121.589 .0246624
1122.190 .0246907
1122.793 .0247201
1123.395 .0247516
1123.998 .0247823
1124.602 .0248076
1125.206 .0248381
1125.811 .0248704
1126.416 .0249052
1127.022 .0249436
1127.628 .0249878
1128.235 .0250386
1128.843 .0250946
1129.451 .0251516
1130.059 .0252067
1130.669 .0252634
1131.278 .0253177
1131.889 .0253616
1132.500 .0254059
1133.112 .0254481
1133.724 .0254906
1134.337 .0255323
1134.950 .0255758
1135.564 .0256168
1136.179 .0256524
1136.795 .0256844
1137.411 .0257131
1138.028 .0257371
1138.645 .0257643
1139.263 .0257952
1139.882 .0258305
1140.502 .0258674
1141.122 .0259003
1141.743 .0259250
1142.365 .0259413
1142.987 .0260435
1143.611 .0259566
1144.235 .0258680
1144.859 .0258627
1145.485 .0258369
