Measurement Sequence started on: 10-20-44-796
Integration time: 35
Scans to Average: 2 
>>>>>Begin Spectral Data<<<<<
432.953 .0166480
433.882 .0352519
434.810 .0379152
435.737 .0378975
436.662 .0358102
437.586 .0365643
438.509 .0374883
439.431 .0377498
440.351 .0379577
441.269 .0381965
442.187 .0384769
443.103 .0387126
444.018 .0389399
444.932 .0391391
445.844 .0393343
446.756 .0395139
447.666 .0396712
448.575 .0397856
449.482 .0398609
450.388 .0398869
451.294 .0398576
452.198 .0397899
453.100 .0396763
454.002 .0395278
454.902 .0393661
455.801 .0391945
456.699 .0390305
457.596 .0388722
458.492 .0387283
459.387 .0385876
460.280 .0384603
461.172 .0383281
462.064 .0381930
462.954 .0380643
463.843 .0379398
464.730 .0378242
465.617 .0377187
466.503 .0376301
467.387 .0375630
468.271 .0375233
469.153 .0375077
470.035 .0375123
470.915 .0375365
471.794 .0375699
472.673 .0376056
473.550 .0376465
474.426 .0376842
475.301 .0377119
476.175 .0377326
477.048 .0377431
477.920 .0377383
478.791 .0377232
479.661 .0376990
480.530 .0376719
481.398 .0376431
482.266 .0376116
483.132 .0375788
483.997 .0375477
484.861 .0375150
485.724 .0374805
486.587 .0374430
487.448 .0374017
488.308 .0373540
489.168 .0373010
490.026 .0372466
490.884 .0371923
491.741 .0371435
492.597 .0370986
493.452 .0370586
494.306 .0370239
495.159 .0369910
496.011 .0369571
496.862 .0369224
497.713 .0368828
498.562 .0368353
499.411 .0367788
500.259 .0367090
501.106 .0366264
501.952 .0365356
502.798 .0364367
503.642 .0363330
504.486 .0362257
505.329 .0361180
506.171 .0360100
507.012 .0359055
507.852 .0358071
508.692 .0357132
509.531 .0356209
510.369 .0355268
511.206 .0354305
512.043 .0353252
512.878 .0352108
513.713 .0350885
514.547 .0349687
515.381 .0348503
516.213 .0347363
517.045 .0346228
517.876 .0345119
518.706 .0344052
519.536 .0342867
520.365 .0341493
521.193 .0339966
522.020 .0338191
522.847 .0336132
523.673 .0333873
524.498 .0331562
525.323 .0329250
526.146 .0327125
526.969 .0325131
527.792 .0323248
528.614 .0321387
529.435 .0319448
530.255 .0317268
531.075 .0314892
531.894 .0312364
532.712 .0309674
533.530 .0307104
534.347 .0304693
535.163 .0302504
535.979 .0300778
536.794 .0299493
537.608 .0298616
538.422 .0298028
539.235 .0297654
540.048 .0297317
540.860 .0297125
541.671 .0297033
542.481 .0296984
543.292 .0297090
544.101 .0297345
544.910 .0297709
545.718 .0298224
546.526 .0298920
547.333 .0299829
548.139 .0300946
548.945 .0302230
549.750 .0303471
550.555 .0304749
551.359 .0305949
552.162 .0307047
552.965 .0308005
553.768 .0308761
554.569 .0309311
555.371 .0309739
556.171 .0310014
556.972 .0310297
557.771 .0310628
558.570 .0311029
559.369 .0311513
560.167 .0312097
560.964 .0312631
561.761 .0313103
562.558 .0313534
563.354 .0313926
564.149 .0314188
564.944 .0314406
565.738 .0314551
566.532 .0314693
567.325 .0314909
568.118 .0315178
568.910 .0315484
569.702 .0315911
570.494 .0316355
571.285 .0316829
572.075 .0317327
572.865 .0317798
573.654 .0318195
574.443 .0318530
575.232 .0318790
576.020 .0318967
576.807 .0319118
577.594 .0319337
578.381 .0319617
579.167 .0320028
579.952 .0320550
580.738 .0321167
581.522 .0321875
582.307 .0322628
583.091 .0323359
583.874 .0324048
584.657 .0324660
585.440 .0325218
586.222 .0325710
587.004 .0326170
587.785 .0326584
588.566 .0326980
589.346 .0327355
590.126 .0327693
590.906 .0327966
591.685 .0328195
592.464 .0328354
593.242 .0328460
594.020 .0328493
594.797 .0328482
595.575 .0328429
596.351 .0328359
597.128 .0328274
597.904 .0328183
598.679 .0328079
599.454 .0327972
600.229 .0327848
601.004 .0327727
601.778 .0327587
602.551 .0327435
603.325 .0327277
604.097 .0327116
604.870 .0326941
605.642 .0326758
606.414 .0326557
607.185 .0326343
607.956 .0326116
608.727 .0325880
609.497 .0325625
610.267 .0325357
611.037 .0325079
611.806 .0324780
612.575 .0324468
613.344 .0324145
614.112 .0323801
614.880 .0323445
615.647 .0323075
616.414 .0322694
617.181 .0322303
617.948 .0321919
618.714 .0321543
619.480 .0321179
620.245 .0320844
621.011 .0320529
621.775 .0320237
622.540 .0319979
623.304 .0319745
624.068 .0319534
624.832 .0319345
625.595 .0319169
626.358 .0318997
627.120 .0318841
627.883 .0318687
628.645 .0318537
629.406 .0318383
630.168 .0318226
630.929 .0318051
631.689 .0317859
632.450 .0317653
633.210 .0317418
633.970 .0317155
634.729 .0316867
635.489 .0316544
636.248 .0316193
637.006 .0315813
637.765 .0315410
638.523 .0314995
639.280 .0314573
640.038 .0314155
640.795 .0313757
641.552 .0313377
642.309 .0313034
643.065 .0312720
643.821 .0312439
644.577 .0312191
645.332 .0311967
646.088 .0311779
646.843 .0311613
647.597 .0311467
648.352 .0311338
649.106 .0311229
649.860 .0311146
650.613 .0311079
651.367 .0311029
652.120 .0310995
652.872 .0310960
653.625 .0310925
654.377 .0310878
655.129 .0310809
655.881 .0310710
656.632 .0310576
657.384 .0310410
658.135 .0310218
658.885 .0309993
659.636 .0309759
660.386 .0309527
661.136 .0309306
661.885 .0309092
662.635 .0308888
663.384 .0308710
664.133 .0308551
664.881 .0308398
665.630 .0308255
666.378 .0308118
667.126 .0307991
667.874 .0307868
668.621 .0307753
669.368 .0307649
670.115 .0307555
670.862 .0307465
671.608 .0307380
672.354 .0307289
673.100 .0307190
673.846 .0307075
674.591 .0306949
675.337 .0306814
676.082 .0306658
676.826 .0306491
677.571 .0306325
678.315 .0306157
679.059 .0305987
679.803 .0305816
680.547 .0305645
681.290 .0305470
682.033 .0305283
682.776 .0305087
683.518 .0304880
684.261 .0304668
685.003 .0304451
685.745 .0304225
686.487 .0304002
687.228 .0303779
687.969 .0303552
688.710 .0303322
689.451 .0303081
690.192 .0302820
690.932 .0302541
691.672 .0302249
692.412 .0301946
693.152 .0301644
693.891 .0301350
694.630 .0301071
695.369 .0300806
696.108 .0300551
696.846 .0300298
697.585 .0300052
698.323 .0299809
699.061 .0299560
699.798 .0299308
700.536 .0299061
701.273 .0298815
702.010 .0298577
702.746 .0298347
703.483 .0298122
704.219 .0297894
704.955 .0297661
705.691 .0297407
706.427 .0297146
707.162 .0296878
707.897 .0296610
708.632 .0296346
709.367 .0296094
710.101 .0295850
710.835 .0295617
711.569 .0295393
712.303 .0295172
713.037 .0294945
713.770 .0294721
714.503 .0294491
715.236 .0294257
715.969 .0294026
716.702 .0293807
717.434 .0293603
718.166 .0293418
718.898 .0293244
719.629 .0293082
720.361 .0292926
721.092 .0292771
721.823 .0292605
722.554 .0292430
723.284 .0292246
724.014 .0292048
724.744 .0291836
725.474 .0291616
726.204 .0291394
726.933 .0291169
727.662 .0290949
728.391 .0290735
729.120 .0290522
729.849 .0290311
730.577 .0290105
731.305 .0289899
732.033 .0289688
732.760 .0289476
733.488 .0289264
734.215 .0289055
734.942 .0288856
735.669 .0288665
736.395 .0288479
737.122 .0288304
737.848 .0288139
738.573 .0287967
739.299 .0287795
740.024 .0287623
740.750 .0287448
741.474 .0287273
742.199 .0287105
742.924 .0286948
743.648 .0286803
744.372 .0286673
745.096 .0286554
745.819 .0286438
746.543 .0286334
747.266 .0286228
747.989 .0286128
748.711 .0286044
749.434 .0285975
750.156 .0285918
750.878 .0285884
751.599 .0285878
752.321 .0285888
753.042 .0285912
753.763 .0285942
754.484 .0285960
755.205 .0285963
755.925 .0285945
756.645 .0285905
757.365 .0285853
758.085 .0285798
758.804 .0285733
759.523 .0285661
760.242 .0285584
760.961 .0285486
761.679 .0285370
762.397 .0285229
763.115 .0285055
763.833 .0284848
764.551 .0284625
765.268 .0284387
765.985 .0284151
766.702 .0283927
767.418 .0283717
768.134 .0283518
768.850 .0283335
769.566 .0283155
770.282 .0282981
770.997 .0282816
771.712 .0282658
772.427 .0282504
773.142 .0282364
773.856 .0282236
774.570 .0282125
775.284 .0282031
775.998 .0281948
776.711 .0281873
777.424 .0281806
778.137 .0281740
778.849 .0281672
779.562 .0281606
780.274 .0281540
780.986 .0281468
781.697 .0281393
782.409 .0281311
783.120 .0281225
783.831 .0281136
784.541 .0281048
785.252 .0280967
785.962 .0280892
786.671 .0280824
787.381 .0280766
788.090 .0280717
788.799 .0280674
789.508 .0280626
790.217 .0280569
790.925 .0280503
791.633 .0280430
792.341 .0280344
793.048 .0280250
793.755 .0280148
794.462 .0280038
795.169 .0279918
795.875 .0279791
796.581 .0279655
797.287 .0279514
797.993 .0279369
798.698 .0279223
799.403 .0279073
800.108 .0278925
800.812 .0278775
801.517 .0278629
802.221 .0278486
802.924 .0278343
803.628 .0278198
804.331 .0278060
805.034 .0277924
805.736 .0277794
806.439 .0277669
807.141 .0277549
807.843 .0277433
808.544 .0277320
809.245 .0277207
809.946 .0277094
810.647 .0276982
811.347 .0276870
812.047 .0276755
812.747 .0276634
813.447 .0276509
814.146 .0276378
814.845 .0276246
815.543 .0276108
816.242 .0275969
816.940 .0275834
817.638 .0275705
818.335 .0275578
819.032 .0275453
819.729 .0275322
820.426 .0275184
821.122 .0275024
821.818 .0274838
822.514 .0274624
823.209 .0274389
823.905 .0274138
824.599 .0273881
825.294 .0273628
825.988 .0273386
826.682 .0273162
827.376 .0272956
828.069 .0272761
828.762 .0272568
829.455 .0272371
830.147 .0272175
830.840 .0271973
831.531 .0271772
832.223 .0271583
832.914 .0271407
833.605 .0271250
834.296 .0271107
834.986 .0270969
835.676 .0270835
836.366 .0270697
837.055 .0270541
837.744 .0270357
838.433 .0270149
839.121 .0269918
839.809 .0269671
840.497 .0269422
841.185 .0269180
841.872 .0268943
842.559 .0268725
843.245 .0268521
843.932 .0268327
844.617 .0268142
845.303 .0267965
845.988 .0267792
846.673 .0267628
847.358 .0267478
848.042 .0267341
848.726 .0267225
849.410 .0267133
850.093 .0267060
850.776 .0267000
851.459 .0266948
852.141 .0266898
852.823 .0266839
853.505 .0266774
854.186 .0266696
854.867 .0266601
855.548 .0266493
856.228 .0266371
856.908 .0266240
857.588 .0266098
858.267 .0265954
858.946 .0265801
859.625 .0265641
860.303 .0265475
860.981 .0265305
861.659 .0265128
862.336 .0264942
863.013 .0264751
863.690 .0264555
864.366 .0264361
865.042 .0264170
865.718 .0263983
866.393 .0263808
867.068 .0263644
867.743 .0263498
868.417 .0263357
869.091 .0263226
869.765 .0263101
870.438 .0262965
871.111 .0262822
871.783 .0262670
872.456 .0262515
873.127 .0262358
873.799 .0262205
874.470 .0262060
875.141 .0261925
875.811 .0261803
876.481 .0261691
877.151 .0261580
877.820 .0261474
878.489 .0261363
879.158 .0261242
879.826 .0261115
880.494 .0260987
881.162 .0260858
881.829 .0260736
882.496 .0260619
883.163 .0260504
883.829 .0260388
884.495 .0260276
885.160 .0260162
885.825 .0260051
886.490 .0259940
887.154 .0259829
887.818 .0259718
888.482 .0259618
889.145 .0259528
889.808 .0259459
890.471 .0259405
891.133 .0259369
891.795 .0259348
892.456 .0259340
893.117 .0259344
893.778 .0259364
894.439 .0259403
895.099 .0259456
895.758 .0259521
896.417 .0259596
897.076 .0259674
897.735 .0259757
898.393 .0259833
899.051 .0259894
899.708 .0259940
900.365 .0259968
901.022 .0259973
901.678 .0259966
902.334 .0259952
902.990 .0259926
903.645 .0259892
904.300 .0259854
904.954 .0259805
905.608 .0259742
906.262 .0259668
906.915 .0259582
907.568 .0259484
908.221 .0259381
908.873 .0259273
909.525 .0259169
910.176 .0259075
910.828 .0258991
911.478 .0258922
912.129 .0258868
912.778 .0258827
913.428 .0258795
914.077 .0258769
914.726 .0258750
915.375 .0258733
916.023 .0258718
916.670 .0258711
917.318 .0258707
917.964 .0258708
918.611 .0258714
919.257 .0258724
919.903 .0258735
920.548 .0258743
921.193 .0258756
921.838 .0258766
922.482 .0258770
923.126 .0258761
923.770 .0258737
924.413 .0258700
925.056 .0258649
925.698 .0258583
926.340 .0258514
926.982 .0258441
927.623 .0258371
928.264 .0258304
928.904 .0258241
929.544 .0258187
930.184 .0258140
930.823 .0258096
931.462 .0258055
932.101 .0258013
932.739 .0257972
933.377 .0257923
934.014 .0257876
934.651 .0257821
935.288 .0257764
935.924 .0257707
936.560 .0257652
937.196 .0257596
937.831 .0257543
938.466 .0257489
939.100 .0257432
939.734 .0257367
940.368 .0257295
941.001 .0257209
941.634 .0257117
942.266 .0257019
942.899 .0256914
943.530 .0256803
944.162 .0256690
944.793 .0256571
945.423 .0256447
946.053 .0256316
946.683 .0256181
947.313 .0256039
947.942 .0255895
948.571 .0255751
949.199 .0255597
949.827 .0255441
950.455 .0255282
951.082 .0255120
951.709 .0254952
952.335 .0254776
952.961 .0254601
953.587 .0254420
954.212 .0254235
954.837 .0254046
955.462 .0253852
956.086 .0253665
956.710 .0253487
957.334 .0253315
957.957 .0253154
958.579 .0253009
959.202 .0252877
959.824 .0252757
960.445 .0252653
961.067 .0252558
961.688 .0252472
962.308 .0252389
962.928 .0252311
963.548 .0252232
964.168 .0252159
964.787 .0252086
965.406 .0252014
966.024 .0251952
966.642 .0251889
967.260 .0251820
967.877 .0251758
968.494 .0251696
969.110 .0251634
969.727 .0251569
970.342 .0251508
970.958 .0251444
971.573 .0251381
972.188 .0251311
972.802 .0251235
973.416 .0251148
974.030 .0251052
974.643 .0250935
975.256 .0250810
975.869 .0250684
976.481 .0250554
977.093 .0250434
977.705 .0250334
978.316 .0250241
978.927 .0250158
979.538 .0250071
980.148 .0249974
980.758 .0249863
981.367 .0249737
981.977 .0249598
982.586 .0249457
983.194 .0249326
983.802 .0249214
984.410 .0249120
985.018 .0249055
985.625 .0249014
986.232 .0248989
986.838 .0248980
987.445 .0248972
988.050 .0248962
988.656 .0248950
989.261 .0248934
989.866 .0248906
990.471 .0248874
991.075 .0248841
991.679 .0248802
992.282 .0248758
992.886 .0248712
993.489 .0248663
994.091 .0248613
994.694 .0248561
995.296 .0248503
995.897 .0248431
996.499 .0248349
997.100 .0248246
997.701 .0248125
998.301 .0247987
998.901 .0247839
999.501 .0247689
1000.101 .0247549
1000.700 .0247414
1001.299 .0247288
1001.898 .0247177
1002.496 .0247079
1003.094 .0246986
1003.692 .0246896
1004.289 .0246800
1004.887 .0246702
1005.484 .0246600
1006.080 .0246500
1006.677 .0246398
1007.273 .0246298
1007.868 .0246195
1008.464 .0246087
1009.059 .0245964
1009.654 .0245832
1010.249 .0245697
1010.843 .0245567
1011.437 .0245437
1012.031 .0245310
1012.625 .0245184
1013.218 .0245065
1013.811 .0244953
1014.404 .0244841
1014.997 .0244723
1015.589 .0244600
1016.181 .0244472
1016.773 .0244341
1017.365 .0244217
1017.956 .0244102
1018.547 .0243999
1019.138 .0243914
1019.728 .0243835
1020.319 .0243759
1020.909 .0243688
1021.499 .0243615
1022.088 .0243541
1022.678 .0243461
1023.267 .0243379
1023.856 .0243289
1024.445 .0243206
1025.033 .0243133
1025.621 .0243066
1026.209 .0243009
1026.797 .0242960
1027.385 .0242911
1027.972 .0242871
1028.560 .0242829
1029.147 .0242782
1029.734 .0242732
1030.320 .0242679
1030.907 .0242602
1031.493 .0242508
1032.079 .0242406
1032.665 .0242292
1033.250 .0242175
1033.836 .0242073
1034.421 .0241973
1035.006 .0241881
1035.591 .0241807
1036.176 .0241733
1036.761 .0241663
1037.345 .0241598
1037.929 .0241519
1038.514 .0241432
1039.097 .0241343
1039.681 .0241248
1040.265 .0241147
1040.848 .0241074
1041.432 .0241030
1042.015 .0240995
1042.598 .0240987
1043.181 .0240987
1043.764 .0240986
1044.346 .0240989
1044.929 .0240990
1045.511 .0240988
1046.094 .0240993
1046.676 .0241013
1047.258 .0241042
1047.840 .0241098
1048.422 .0241190
1049.003 .0241308
1049.585 .0241442
1050.166 .0241579
1050.748 .0241690
1051.329 .0241768
1051.910 .0241824
1052.491 .0241843
1053.072 .0241827
1053.653 .0241780
1054.234 .0241718
1054.815 .0241644
1055.396 .0241566
1055.976 .0241496
1056.557 .0241420
1057.138 .0241348
1057.718 .0241258
1058.298 .0241141
1058.879 .0241007
1059.459 .0240876
1060.039 .0240742
1060.620 .0240613
1061.200 .0240502
1061.780 .0240404
1062.360 .0240323
1062.940 .0240262
1063.520 .0240214
1064.101 .0240151
1064.681 .0240072
1065.261 .0239978
1065.841 .0239850
1066.421 .0239707
1067.001 .0239541
1067.581 .0239370
1068.161 .0239212
1068.741 .0239055
1069.321 .0238909
1069.901 .0238777
1070.482 .0238669
1071.062 .0238554
1071.642 .0238443
1072.222 .0238351
1072.803 .0238281
1073.383 .0238248
1073.963 .0238274
1074.544 .0238352
1075.124 .0238483
1075.705 .0238653
1076.286 .0238843
1076.866 .0239037
1077.447 .0239232
1078.028 .0239382
1078.609 .0239504
1079.190 .0239576
1079.771 .0239607
1080.352 .0239595
1080.934 .0239561
1081.515 .0239492
1082.097 .0239384
1082.679 .0239245
1083.260 .0239080
1083.842 .0238872
1084.424 .0238634
1085.007 .0238370
1085.589 .0238092
1086.172 .0237791
1086.754 .0237498
1087.337 .0237217
1087.920 .0237000
1088.503 .0236839
1089.087 .0236739
1089.670 .0236708
1090.254 .0236745
1090.838 .0236839
1091.422 .0236966
1092.006 .0237105
1092.590 .0237243
1093.175 .0237346
1093.760 .0237443
1094.345 .0237515
1094.930 .0237546
1095.516 .0237555
1096.102 .0237566
1096.688 .0237577
1097.274 .0237593
1097.860 .0237611
1098.447 .0237641
1099.034 .0237670
1099.622 .0237690
1100.209 .0237710
1100.797 .0237725
1101.385 .0237776
1101.973 .0237859
1102.562 .0237969
1103.151 .0238112
1103.740 .0238257
1104.330 .0238411
1104.920 .0238580
1105.510 .0238760
1106.101 .0238925
1106.691 .0239059
1107.283 .0239210
1107.874 .0239355
1108.466 .0239485
1109.058 .0239613
1109.651 .0239754
1110.244 .0239858
1110.837 .0239916
1111.431 .0239889
1112.025 .0239807
1112.620 .0239681
1113.215 .0239521
1113.810 .0239335
1114.406 .0239166
1115.002 .0239019
1115.599 .0238900
1116.196 .0238819
1116.793 .0238787
1117.391 .0238739
1117.989 .0238686
1118.588 .0238567
1119.187 .0238426
1119.787 .0238235
1120.387 .0238055
1120.988 .0237904
1121.589 .0237862
1122.190 .0237919
1122.793 .0238075
1123.395 .0238354
1123.998 .0238740
1124.602 .0239208
1125.206 .0239690
1125.811 .0240117
1126.416 .0240513
1127.022 .0240837
1127.628 .0241128
1128.235 .0241382
1128.843 .0241696
1129.451 .0242078
1130.059 .0242506
1130.669 .0242974
1131.278 .0243476
1131.889 .0243996
1132.500 .0244480
1133.112 .0244887
1133.724 .0245216
1134.337 .0245500
1134.950 .0245736
1135.564 .0245989
1136.179 .0246306
1136.795 .0246716
1137.411 .0247234
1138.028 .0247815
1138.645 .0248452
1139.263 .0249152
1139.882 .0249867
1140.502 .0250561
1141.122 .0251286
1141.743 .0252016
1142.365 .0252830
1142.987 .0253318
1143.611 .0253726
1144.235 .0255957
1144.859 .0256007
1145.485 .0259253
