Measurement Sequence started on: 10-20-44-796
Integration time: 35
Scans to Average: 2 
>>>>>Begin Spectral Data<<<<<
432.953 .0301211
433.882 .0368043
434.810 .0345208
435.737 .0326055
436.662 .0314260
437.586 .0319310
438.509 .0316236
439.431 .0311962
440.351 .0308977
441.269 .0306989
442.187 .0305391
443.103 .0303967
444.018 .0303191
444.932 .0302489
445.844 .0302310
446.756 .0302454
447.666 .0302943
448.575 .0303465
449.482 .0303921
450.388 .0304533
451.294 .0304998
452.198 .0305612
453.100 .0306335
454.002 .0307407
454.902 .0308694
455.801 .0310329
456.699 .0312105
457.596 .0313965
458.492 .0315771
459.387 .0317412
460.280 .0318679
461.172 .0319696
462.064 .0320400
462.954 .0320859
463.843 .0321139
464.730 .0321280
465.617 .0321293
466.503 .0321254
467.387 .0321122
468.271 .0320917
469.153 .0320561
470.035 .0320158
470.915 .0319671
471.794 .0319125
472.673 .0318507
473.550 .0317884
474.426 .0317246
475.301 .0316613
476.175 .0315979
477.048 .0315390
477.920 .0314814
478.791 .0314280
479.661 .0313790
480.530 .0313364
481.398 .0312980
482.266 .0312615
483.132 .0312262
483.997 .0311941
484.861 .0311599
485.724 .0311212
486.587 .0310798
487.448 .0310367
488.308 .0309911
489.168 .0309456
490.026 .0309031
490.884 .0308666
491.741 .0308361
492.597 .0308154
493.452 .0308006
494.306 .0307935
495.159 .0307879
496.011 .0307841
496.862 .0307833
497.713 .0307830
498.562 .0307809
499.411 .0307757
500.259 .0307706
501.106 .0307650
501.952 .0307593
502.798 .0307525
503.642 .0307445
504.486 .0307359
505.329 .0307168
506.171 .0306896
507.012 .0306496
507.852 .0305962
508.692 .0305243
509.531 .0304364
510.369 .0303328
511.206 .0302158
512.043 .0300893
512.878 .0299515
513.713 .0298072
514.547 .0296626
515.381 .0295097
516.213 .0293547
517.045 .0291945
517.876 .0290286
518.706 .0288525
519.536 .0286731
520.365 .0284869
521.193 .0283025
522.020 .0281303
522.847 .0279733
523.673 .0278285
524.498 .0276996
525.323 .0275727
526.146 .0274475
526.969 .0273134
527.792 .0271616
528.614 .0269857
529.435 .0268002
530.255 .0265989
531.075 .0263954
531.894 .0262023
532.712 .0260319
533.530 .0258851
534.347 .0257637
535.163 .0256534
535.979 .0255620
536.794 .0254837
537.608 .0254176
538.422 .0253533
539.235 .0253044
540.048 .0252629
540.860 .0252421
541.671 .0252471
542.481 .0252775
543.292 .0253344
544.101 .0254177
544.910 .0255090
545.718 .0256069
546.526 .0257028
547.333 .0257934
548.139 .0258707
548.945 .0259415
549.750 .0259965
550.555 .0260404
551.359 .0260810
552.162 .0261196
552.965 .0261516
553.768 .0261792
554.569 .0262035
555.371 .0262234
556.171 .0262424
556.972 .0262562
557.771 .0262641
558.570 .0262752
559.369 .0262892
560.167 .0263066
560.964 .0263323
561.761 .0263769
562.558 .0264396
563.354 .0265198
564.149 .0266170
564.944 .0267276
565.738 .0268450
566.532 .0269641
567.325 .0270790
568.118 .0271846
568.910 .0272825
569.702 .0273740
570.494 .0274636
571.285 .0275545
572.075 .0276492
572.865 .0277474
573.654 .0278450
574.443 .0279436
575.232 .0280337
576.020 .0281156
576.807 .0281905
577.594 .0282543
578.381 .0283090
579.167 .0283586
579.952 .0284073
580.738 .0284549
581.522 .0285057
582.307 .0285594
583.091 .0286122
583.874 .0286658
584.657 .0287163
585.440 .0287618
586.222 .0288023
587.004 .0288358
587.785 .0288617
588.566 .0288816
589.346 .0288971
590.126 .0289091
590.906 .0289210
591.685 .0289350
592.464 .0289508
593.242 .0289691
594.020 .0289905
594.797 .0290119
595.575 .0290319
596.351 .0290493
597.128 .0290620
597.904 .0290706
598.679 .0290756
599.454 .0290758
600.229 .0290748
601.004 .0290738
601.778 .0290733
602.551 .0290731
603.325 .0290726
604.097 .0290713
604.870 .0290678
605.642 .0290618
606.414 .0290526
607.185 .0290394
607.956 .0290250
608.727 .0290096
609.497 .0289945
610.267 .0289809
611.037 .0289694
611.806 .0289602
612.575 .0289529
613.344 .0289463
614.112 .0289389
614.880 .0289302
615.647 .0289197
616.414 .0289087
617.181 .0288962
617.948 .0288831
618.714 .0288703
619.480 .0288583
620.245 .0288465
621.011 .0288337
621.775 .0288199
622.540 .0288035
623.304 .0287853
624.068 .0287654
624.832 .0287433
625.595 .0287218
626.358 .0287016
627.120 .0286832
627.883 .0286665
628.645 .0286529
629.406 .0286392
630.168 .0286256
630.929 .0286117
631.689 .0285969
632.450 .0285815
633.210 .0285670
633.970 .0285538
634.729 .0285425
635.489 .0285337
636.248 .0285253
637.006 .0285171
637.765 .0285086
638.523 .0284975
639.280 .0284839
640.038 .0284679
640.795 .0284510
641.552 .0284328
642.309 .0284154
643.065 .0283993
643.821 .0283843
644.577 .0283699
645.332 .0283551
646.088 .0283396
646.843 .0283241
647.597 .0283078
648.352 .0282912
649.106 .0282755
649.860 .0282600
650.613 .0282453
651.367 .0282320
652.120 .0282188
652.872 .0282058
653.625 .0281926
654.377 .0281791
655.129 .0281648
655.881 .0281512
656.632 .0281382
657.384 .0281260
658.135 .0281148
658.885 .0281048
659.636 .0280943
660.386 .0280847
661.136 .0280753
661.885 .0280658
662.635 .0280568
663.384 .0280479
664.133 .0280385
664.881 .0280290
665.630 .0280198
666.378 .0280106
667.126 .0280002
667.874 .0279907
668.621 .0279807
669.368 .0279710
670.115 .0279612
670.862 .0279523
671.608 .0279440
672.354 .0279366
673.100 .0279291
673.846 .0279220
674.591 .0279149
675.337 .0279079
676.082 .0279003
676.826 .0278925
677.571 .0278841
678.315 .0278751
679.059 .0278651
679.803 .0278553
680.547 .0278451
681.290 .0278347
682.033 .0278233
682.776 .0278115
683.518 .0277979
684.261 .0277827
685.003 .0277655
685.745 .0277458
686.487 .0277237
687.228 .0277001
687.969 .0276748
688.710 .0276492
689.451 .0276239
690.192 .0276000
690.932 .0275773
691.672 .0275565
692.412 .0275371
693.152 .0275183
693.891 .0275001
694.630 .0274824
695.369 .0274643
696.108 .0274466
696.846 .0274288
697.585 .0274117
698.323 .0273964
699.061 .0273829
699.798 .0273712
700.536 .0273613
701.273 .0273529
702.010 .0273454
702.746 .0273378
703.483 .0273297
704.219 .0273208
704.955 .0273109
705.691 .0272995
706.427 .0272868
707.162 .0272730
707.897 .0272587
708.632 .0272433
709.367 .0272281
710.101 .0272128
710.835 .0271976
711.569 .0271826
712.303 .0271675
713.037 .0271523
713.770 .0271368
714.503 .0271201
715.236 .0271023
715.969 .0270831
716.702 .0270630
717.434 .0270414
718.166 .0270196
718.898 .0269982
719.629 .0269779
720.361 .0269595
721.092 .0269433
721.823 .0269283
722.554 .0269140
723.284 .0268999
724.014 .0268844
724.744 .0268670
725.474 .0268478
726.204 .0268265
726.933 .0268043
727.662 .0267821
728.391 .0267607
729.120 .0267406
729.849 .0267229
730.577 .0267071
731.305 .0266920
732.033 .0266777
732.760 .0266626
733.488 .0266463
734.215 .0266292
734.942 .0266108
735.669 .0265921
736.395 .0265742
737.122 .0265574
737.848 .0265415
738.573 .0265277
739.299 .0265155
740.024 .0265040
740.750 .0264932
741.474 .0264822
742.199 .0264699
742.924 .0264563
743.648 .0264414
744.372 .0264255
745.096 .0264096
745.819 .0263940
746.543 .0263785
747.266 .0263641
747.989 .0263514
748.711 .0263397
749.434 .0263298
750.156 .0263219
750.878 .0263152
751.599 .0263093
752.321 .0263042
753.042 .0262996
753.763 .0262955
754.484 .0262918
755.205 .0262887
755.925 .0262855
756.645 .0262824
757.365 .0262781
758.085 .0262732
758.804 .0262670
759.523 .0262595
760.242 .0262497
760.961 .0262371
761.679 .0262222
762.397 .0262046
763.115 .0261847
763.833 .0261638
764.551 .0261424
765.268 .0261206
765.985 .0260990
766.702 .0260786
767.418 .0260587
768.134 .0260402
768.850 .0260224
769.566 .0260052
770.282 .0259881
770.997 .0259709
771.712 .0259533
772.427 .0259363
773.142 .0259204
773.856 .0259050
774.570 .0258903
775.284 .0258763
775.998 .0258625
776.711 .0258489
777.424 .0258352
778.137 .0258210
778.849 .0258055
779.562 .0257894
780.274 .0257721
780.986 .0257542
781.697 .0257361
782.409 .0257190
783.120 .0257034
783.831 .0256901
784.541 .0256787
785.252 .0256696
785.962 .0256623
786.671 .0256561
787.381 .0256502
788.090 .0256438
788.799 .0256361
789.508 .0256273
790.217 .0256171
790.925 .0256053
791.633 .0255923
792.341 .0255785
793.048 .0255639
793.755 .0255488
794.462 .0255329
795.169 .0255154
795.875 .0254966
796.581 .0254769
797.287 .0254560
797.993 .0254345
798.698 .0254134
799.403 .0253926
800.108 .0253730
800.812 .0253548
801.517 .0253374
802.221 .0253215
802.924 .0253071
803.628 .0252937
804.331 .0252813
805.034 .0252701
805.736 .0252603
806.439 .0252517
807.141 .0252449
807.843 .0252391
808.544 .0252329
809.245 .0252272
809.946 .0252205
810.647 .0252127
811.347 .0252043
812.047 .0251951
812.747 .0251858
813.447 .0251767
814.146 .0251672
814.845 .0251575
815.543 .0251483
816.242 .0251395
816.940 .0251304
817.638 .0251217
818.335 .0251133
819.032 .0251052
819.729 .0250972
820.426 .0250895
821.122 .0250809
821.818 .0250717
822.514 .0250611
823.209 .0250488
823.905 .0250354
824.599 .0250210
825.294 .0250062
825.988 .0249919
826.682 .0249787
827.376 .0249663
828.069 .0249542
828.762 .0249424
829.455 .0249298
830.147 .0249160
830.840 .0249010
831.531 .0248852
832.223 .0248692
832.914 .0248539
833.605 .0248400
834.296 .0248279
834.986 .0248182
835.676 .0248097
836.366 .0248014
837.055 .0247925
837.744 .0247825
838.433 .0247706
839.121 .0247569
839.809 .0247419
840.497 .0247257
841.185 .0247091
841.872 .0246921
842.559 .0246750
843.245 .0246577
843.932 .0246406
844.617 .0246231
845.303 .0246053
845.988 .0245879
846.673 .0245711
847.358 .0245553
848.042 .0245416
848.726 .0245296
849.410 .0245197
850.093 .0245118
850.776 .0245060
851.459 .0245015
852.141 .0244979
852.823 .0244952
853.505 .0244925
854.186 .0244897
854.867 .0244869
855.548 .0244833
856.228 .0244797
856.908 .0244760
857.588 .0244721
858.267 .0244678
858.946 .0244631
859.625 .0244577
860.303 .0244520
860.981 .0244458
861.659 .0244390
862.336 .0244316
863.013 .0244243
863.690 .0244168
864.366 .0244088
865.042 .0244008
865.718 .0243929
866.393 .0243850
867.068 .0243769
867.743 .0243684
868.417 .0243600
869.091 .0243510
869.765 .0243420
870.438 .0243324
871.111 .0243225
871.783 .0243119
872.456 .0243004
873.127 .0242880
873.799 .0242749
874.470 .0242607
875.141 .0242461
875.811 .0242315
876.481 .0242173
877.151 .0242033
877.820 .0241900
878.489 .0241774
879.158 .0241655
879.826 .0241540
880.494 .0241429
881.162 .0241316
881.829 .0241209
882.496 .0241099
883.163 .0240988
883.829 .0240877
884.495 .0240762
885.160 .0240645
885.825 .0240529
886.490 .0240416
887.154 .0240310
887.818 .0240213
888.482 .0240129
889.145 .0240057
889.808 .0239999
890.471 .0239945
891.133 .0239892
891.795 .0239836
892.456 .0239772
893.117 .0239694
893.778 .0239606
894.439 .0239516
895.099 .0239425
895.758 .0239337
896.417 .0239254
897.076 .0239173
897.735 .0239096
898.393 .0239016
899.051 .0238928
899.708 .0238827
900.365 .0238715
901.022 .0238587
901.678 .0238446
902.334 .0238297
902.990 .0238141
903.645 .0237982
904.300 .0237826
904.954 .0237674
905.608 .0237525
906.262 .0237385
906.915 .0237259
907.568 .0237140
908.221 .0237034
908.873 .0236933
909.525 .0236833
910.176 .0236735
910.828 .0236633
911.478 .0236522
912.129 .0236408
912.778 .0236296
913.428 .0236181
914.077 .0236068
914.726 .0235963
915.375 .0235864
916.023 .0235769
916.670 .0235680
917.318 .0235583
917.964 .0235480
918.611 .0235370
919.257 .0235249
919.903 .0235120
920.548 .0234993
921.193 .0234866
921.838 .0234749
922.482 .0234642
923.126 .0234549
923.770 .0234461
924.413 .0234384
925.056 .0234315
925.698 .0234252
926.340 .0234191
926.982 .0234134
927.623 .0234077
928.264 .0234017
928.904 .0233947
929.544 .0233866
930.184 .0233770
930.823 .0233660
931.462 .0233539
932.101 .0233407
932.739 .0233267
933.377 .0233125
934.014 .0232975
934.651 .0232820
935.288 .0232662
935.924 .0232491
936.560 .0232314
937.196 .0232132
937.831 .0231944
938.466 .0231758
939.100 .0231578
939.734 .0231413
940.368 .0231262
941.001 .0231126
941.634 .0231003
942.266 .0230881
942.899 .0230766
943.530 .0230647
944.162 .0230521
944.793 .0230391
945.423 .0230253
946.053 .0230111
946.683 .0229974
947.313 .0229844
947.942 .0229721
948.571 .0229602
949.199 .0229483
949.827 .0229358
950.455 .0229217
951.082 .0229065
951.709 .0228897
952.335 .0228714
952.961 .0228526
953.587 .0228329
954.212 .0228137
954.837 .0227952
955.462 .0227778
956.086 .0227617
956.710 .0227467
957.334 .0227328
957.957 .0227186
958.579 .0227044
959.202 .0226900
959.824 .0226751
960.445 .0226604
961.067 .0226462
961.688 .0226330
962.308 .0226210
962.928 .0226107
963.548 .0226017
964.168 .0225936
964.787 .0225858
965.406 .0225777
966.024 .0225691
966.642 .0225599
967.260 .0225500
967.877 .0225397
968.494 .0225297
969.110 .0225200
969.727 .0225105
970.342 .0225008
970.958 .0224922
971.573 .0224840
972.188 .0224765
972.802 .0224702
973.416 .0224653
974.030 .0224611
974.643 .0224581
975.256 .0224563
975.869 .0224556
976.481 .0224555
977.093 .0224561
977.705 .0224572
978.316 .0224583
978.927 .0224603
979.538 .0224625
980.148 .0224656
980.758 .0224703
981.367 .0224748
981.977 .0224800
982.586 .0224849
983.194 .0224900
983.802 .0224945
984.410 .0224988
985.018 .0225029
985.625 .0225062
986.232 .0225097
986.838 .0225127
987.445 .0225157
988.050 .0225186
988.656 .0225210
989.261 .0225231
989.866 .0225236
990.471 .0225228
991.075 .0225205
991.679 .0225179
992.282 .0225144
992.886 .0225110
993.489 .0225069
994.091 .0225022
994.694 .0224975
995.296 .0224917
995.897 .0224857
996.499 .0224793
997.100 .0224729
997.701 .0224663
998.301 .0224604
998.901 .0224554
999.501 .0224511
1000.101 .0224495
1000.700 .0224495
1001.299 .0224508
1001.898 .0224529
1002.496 .0224547
1003.094 .0224562
1003.692 .0224577
1004.289 .0224586
1004.887 .0224599
1005.484 .0224625
1006.080 .0224657
1006.677 .0224690
1007.273 .0224733
1007.868 .0224778
1008.464 .0224818
1009.059 .0224851
1009.654 .0224872
1010.249 .0224869
1010.843 .0224859
1011.437 .0224842
1012.031 .0224826
1012.625 .0224826
1013.218 .0224832
1013.811 .0224842
1014.404 .0224872
1014.997 .0224904
1015.589 .0224940
1016.181 .0224977
1016.773 .0225021
1017.365 .0225063
1017.956 .0225102
1018.547 .0225144
1019.138 .0225179
1019.728 .0225215
1020.319 .0225254
1020.909 .0225286
1021.499 .0225328
1022.088 .0225376
1022.678 .0225431
1023.267 .0225500
1023.856 .0225585
1024.445 .0225675
1025.033 .0225763
1025.621 .0225848
1026.209 .0225925
1026.797 .0225988
1027.385 .0226035
1027.972 .0226076
1028.560 .0226118
1029.147 .0226167
1029.734 .0226228
1030.320 .0226294
1030.907 .0226370
1031.493 .0226445
1032.079 .0226513
1032.665 .0226563
1033.250 .0226597
1033.836 .0226614
1034.421 .0226617
1035.006 .0226606
1035.591 .0226590
1036.176 .0226558
1036.761 .0226530
1037.345 .0226500
1037.929 .0226459
1038.514 .0226412
1039.097 .0226368
1039.681 .0226329
1040.265 .0226310
1040.848 .0226301
1041.432 .0226308
1042.015 .0226327
1042.598 .0226364
1043.181 .0226395
1043.764 .0226422
1044.346 .0226444
1044.929 .0226465
1045.511 .0226486
1046.094 .0226521
1046.676 .0226561
1047.258 .0226616
1047.840 .0226693
1048.422 .0226771
1049.003 .0226844
1049.585 .0226892
1050.166 .0226906
1050.748 .0226890
1051.329 .0226817
1051.910 .0226699
1052.491 .0226535
1053.072 .0226358
1053.653 .0226173
1054.234 .0225984
1054.815 .0225813
1055.396 .0225670
1055.976 .0225562
1056.557 .0225473
1057.138 .0225405
1057.718 .0225368
1058.298 .0225349
1058.879 .0225348
1059.459 .0225358
1060.039 .0225383
1060.620 .0225413
1061.200 .0225457
1061.780 .0225490
1062.360 .0225518
1062.940 .0225533
1063.520 .0225531
1064.101 .0225514
1064.681 .0225470
1065.261 .0225401
1065.841 .0225305
1066.421 .0225183
1067.001 .0225023
1067.581 .0224808
1068.161 .0224563
1068.741 .0224290
1069.321 .0224009
1069.901 .0223725
1070.482 .0223465
1071.062 .0223262
1071.642 .0223133
1072.222 .0223070
1072.803 .0223073
1073.383 .0223130
1073.963 .0223224
1074.544 .0223334
1075.124 .0223445
1075.705 .0223547
1076.286 .0223654
1076.866 .0223773
1077.447 .0223897
1078.028 .0224008
1078.609 .0224123
1079.190 .0224229
1079.771 .0224333
1080.352 .0224420
1080.934 .0224463
1081.515 .0224470
1082.097 .0224458
1082.679 .0224412
1083.260 .0224326
1083.842 .0224224
1084.424 .0224106
1085.007 .0223968
1085.589 .0223805
1086.172 .0223607
1086.754 .0223390
1087.337 .0223174
1087.920 .0222969
1088.503 .0222756
1089.087 .0222574
1089.670 .0222422
1090.254 .0222293
1090.838 .0222190
1091.422 .0222097
1092.006 .0221993
1092.590 .0221892
1093.175 .0221792
1093.760 .0221684
1094.345 .0221597
1094.930 .0221546
1095.516 .0221531
1096.102 .0221562
1096.688 .0221607
1097.274 .0221656
1097.860 .0221690
1098.447 .0221698
1099.034 .0221618
1099.622 .0221458
1100.209 .0221225
1100.797 .0220927
1101.385 .0220581
1101.973 .0220220
1102.562 .0219839
1103.151 .0219482
1103.740 .0219158
1104.330 .0218853
1104.920 .0218580
1105.510 .0218346
1106.101 .0218126
1106.691 .0217934
1107.283 .0217770
1107.874 .0217657
1108.466 .0217597
1109.058 .0217622
1109.651 .0217706
1110.244 .0217851
1110.837 .0218077
1111.431 .0218360
1112.025 .0218676
1112.620 .0219035
1113.215 .0219419
1113.810 .0219780
1114.406 .0220097
1115.002 .0220344
1115.599 .0220505
1116.196 .0220582
1116.793 .0220557
1117.391 .0220454
1117.989 .0220293
1118.588 .0220122
1119.187 .0219935
1119.787 .0219756
1120.387 .0219582
1120.988 .0219403
1121.589 .0219202
1122.190 .0218985
1122.793 .0218719
1123.395 .0218426
1123.998 .0218119
1124.602 .0217864
1125.206 .0217657
1125.811 .0217525
1126.416 .0217488
1127.022 .0217582
1127.628 .0217733
1128.235 .0217905
1128.843 .0218102
1129.451 .0218359
1130.059 .0218632
1130.669 .0218965
1131.278 .0219307
1131.889 .0219754
1132.500 .0220226
1133.112 .0220734
1133.724 .0221249
1134.337 .0221774
1134.950 .0222239
1135.564 .0222628
1136.179 .0222984
1136.795 .0223369
1137.411 .0223757
1138.028 .0224233
1138.645 .0224732
1139.263 .0225287
1139.882 .0225862
1140.502 .0226454
1141.122 .0226990
1141.743 .0227661
1142.365 .0228302
1142.987 .0228557
1143.611 .0229746
1144.235 .0228640
1144.859 .0233414
1145.485 .0231953
