Measurement Sequence started on: 10-20-44-796
Integration time: 35
Scans to Average: 2 
>>>>>Begin Spectral Data<<<<<
432.953 .0462767
433.882 .0376234
434.810 .0338596
435.737 .0313275
436.662 .0311067
437.586 .0326056
438.509 .0318515
439.431 .0315237
440.351 .0313555
441.269 .0312490
442.187 .0311313
443.103 .0309880
444.018 .0308718
444.932 .0307683
445.844 .0306700
446.756 .0305826
447.666 .0304925
448.575 .0304026
449.482 .0303088
450.388 .0302113
451.294 .0301272
452.198 .0300606
453.100 .0300266
454.002 .0300234
454.902 .0300561
455.801 .0301179
456.699 .0301958
457.596 .0302858
458.492 .0303752
459.387 .0304605
460.280 .0305385
461.172 .0306013
462.064 .0306546
462.954 .0306976
463.843 .0307304
464.730 .0307630
465.617 .0307932
466.503 .0308247
467.387 .0308483
468.271 .0308594
469.153 .0308558
470.035 .0308320
470.915 .0307921
471.794 .0307410
472.673 .0306822
473.550 .0306238
474.426 .0305684
475.301 .0305202
476.175 .0304804
477.048 .0304502
477.920 .0304238
478.791 .0303999
479.661 .0303759
480.530 .0303516
481.398 .0303204
482.266 .0302908
483.132 .0302679
483.997 .0302478
484.861 .0302335
485.724 .0302262
486.587 .0302259
487.448 .0302287
488.308 .0302290
489.168 .0302272
490.026 .0302201
490.884 .0302090
491.741 .0301885
492.597 .0301634
493.452 .0301418
494.306 .0301185
495.159 .0300921
496.011 .0300668
496.862 .0300429
497.713 .0300150
498.562 .0299840
499.411 .0299476
500.259 .0299048
501.106 .0298555
501.952 .0297995
502.798 .0297416
503.642 .0296838
504.486 .0296278
505.329 .0295723
506.171 .0295194
507.012 .0294650
507.852 .0293997
508.692 .0293280
509.531 .0292463
510.369 .0291542
511.206 .0290499
512.043 .0289327
512.878 .0288122
513.713 .0286924
514.547 .0285745
515.381 .0284602
516.213 .0283546
517.045 .0282492
517.876 .0281375
518.706 .0280192
519.536 .0278942
520.365 .0277602
521.193 .0276268
522.020 .0274919
522.847 .0273534
523.673 .0272171
524.498 .0270780
525.323 .0269322
526.146 .0267803
526.969 .0266151
527.792 .0264330
528.614 .0262315
529.435 .0260130
530.255 .0257710
531.075 .0255175
531.894 .0252643
532.712 .0250085
533.530 .0247512
534.347 .0245071
535.163 .0242766
535.979 .0240674
536.794 .0238864
537.608 .0237384
538.422 .0236237
539.235 .0235447
540.048 .0234961
540.860 .0234801
541.671 .0234988
542.481 .0235520
543.292 .0236270
544.101 .0237286
544.910 .0238484
545.718 .0239756
546.526 .0241069
547.333 .0242452
548.139 .0243804
548.945 .0245102
549.750 .0246298
550.555 .0247373
551.359 .0248329
552.162 .0249143
552.965 .0249801
553.768 .0250343
554.569 .0250769
555.371 .0251043
556.171 .0251141
556.972 .0251123
557.771 .0251044
558.570 .0250951
559.369 .0250933
560.167 .0251041
560.964 .0251278
561.761 .0251720
562.558 .0252347
563.354 .0253147
564.149 .0254055
564.944 .0255018
565.738 .0256015
566.532 .0257015
567.325 .0258017
568.118 .0259045
568.910 .0260107
569.702 .0261271
570.494 .0262507
571.285 .0263744
572.075 .0265025
572.865 .0266317
573.654 .0267542
574.443 .0268668
575.232 .0269687
576.020 .0270592
576.807 .0271406
577.594 .0272168
578.381 .0272896
579.167 .0273607
579.952 .0274352
580.738 .0275104
581.522 .0275839
582.307 .0276563
583.091 .0277248
583.874 .0277871
584.657 .0278457
585.440 .0278970
586.222 .0279432
587.004 .0279849
587.785 .0280233
588.566 .0280580
589.346 .0280893
590.126 .0281191
590.906 .0281452
591.685 .0281680
592.464 .0281878
593.242 .0282040
594.020 .0282162
594.797 .0282236
595.575 .0282274
596.351 .0282285
597.128 .0282274
597.904 .0282246
598.679 .0282214
599.454 .0282175
600.229 .0282137
601.004 .0282093
601.778 .0282035
602.551 .0281963
603.325 .0281867
604.097 .0281755
604.870 .0281624
605.642 .0281478
606.414 .0281323
607.185 .0281162
607.956 .0281014
608.727 .0280870
609.497 .0280732
610.267 .0280606
611.037 .0280484
611.806 .0280364
612.575 .0280240
613.344 .0280121
614.112 .0279997
614.880 .0279864
615.647 .0279733
616.414 .0279595
617.181 .0279457
617.948 .0279327
618.714 .0279202
619.480 .0279097
620.245 .0279001
621.011 .0278912
621.775 .0278814
622.540 .0278710
623.304 .0278585
624.068 .0278440
624.832 .0278280
625.595 .0278109
626.358 .0277930
627.120 .0277764
627.883 .0277611
628.645 .0277478
629.406 .0277362
630.168 .0277258
630.929 .0277147
631.689 .0277037
632.450 .0276900
633.210 .0276755
633.970 .0276600
634.729 .0276453
635.489 .0276303
636.248 .0276171
637.006 .0276053
637.765 .0275940
638.523 .0275834
639.280 .0275730
640.038 .0275611
640.795 .0275494
641.552 .0275357
642.309 .0275216
643.065 .0275072
643.821 .0274941
644.577 .0274810
645.332 .0274686
646.088 .0274565
646.843 .0274448
647.597 .0274331
648.352 .0274227
649.106 .0274131
649.860 .0274056
650.613 .0273996
651.367 .0273956
652.120 .0273928
652.872 .0273918
653.625 .0273914
654.377 .0273911
655.129 .0273900
655.881 .0273883
656.632 .0273846
657.384 .0273794
658.135 .0273733
658.885 .0273667
659.636 .0273587
660.386 .0273499
661.136 .0273405
661.885 .0273299
662.635 .0273181
663.384 .0273051
664.133 .0272905
664.881 .0272756
665.630 .0272605
666.378 .0272454
667.126 .0272315
667.874 .0272187
668.621 .0272068
669.368 .0271956
670.115 .0271846
670.862 .0271726
671.608 .0271603
672.354 .0271480
673.100 .0271351
673.846 .0271216
674.591 .0271082
675.337 .0270947
676.082 .0270810
676.826 .0270666
677.571 .0270502
678.315 .0270323
679.059 .0270132
679.803 .0269922
680.547 .0269706
681.290 .0269483
682.033 .0269266
682.776 .0269060
683.518 .0268868
684.261 .0268684
685.003 .0268503
685.745 .0268331
686.487 .0268162
687.228 .0267985
687.969 .0267798
688.710 .0267602
689.451 .0267409
690.192 .0267217
690.932 .0267026
691.672 .0266838
692.412 .0266671
693.152 .0266513
693.891 .0266363
694.630 .0266216
695.369 .0266075
696.108 .0265932
696.846 .0265781
697.585 .0265618
698.323 .0265444
699.061 .0265265
699.798 .0265088
700.536 .0264912
701.273 .0264748
702.010 .0264592
702.746 .0264444
703.483 .0264301
704.219 .0264151
704.955 .0263986
705.691 .0263810
706.427 .0263619
707.162 .0263423
707.897 .0263230
708.632 .0263054
709.367 .0262903
710.101 .0262780
710.835 .0262685
711.569 .0262601
712.303 .0262528
713.037 .0262458
713.770 .0262376
714.503 .0262283
715.236 .0262187
715.969 .0262090
716.702 .0262000
717.434 .0261918
718.166 .0261844
718.898 .0261780
719.629 .0261718
720.361 .0261647
721.092 .0261553
721.823 .0261438
722.554 .0261300
723.284 .0261135
724.014 .0260953
724.744 .0260754
725.474 .0260549
726.204 .0260340
726.933 .0260129
727.662 .0259916
728.391 .0259705
729.120 .0259498
729.849 .0259298
730.577 .0259105
731.305 .0258922
732.033 .0258748
732.760 .0258581
733.488 .0258422
734.215 .0258263
734.942 .0258101
735.669 .0257937
736.395 .0257774
737.122 .0257618
737.848 .0257472
738.573 .0257346
739.299 .0257240
740.024 .0257151
740.750 .0257076
741.474 .0257009
742.199 .0256945
742.924 .0256882
743.648 .0256816
744.372 .0256746
745.096 .0256683
745.819 .0256630
746.543 .0256584
747.266 .0256554
747.989 .0256541
748.711 .0256539
749.434 .0256545
750.156 .0256552
750.878 .0256557
751.599 .0256563
752.321 .0256566
753.042 .0256562
753.763 .0256553
754.484 .0256545
755.205 .0256531
755.925 .0256511
756.645 .0256477
757.365 .0256426
758.085 .0256361
758.804 .0256282
759.523 .0256184
760.242 .0256071
760.961 .0255948
761.679 .0255813
762.397 .0255668
763.115 .0255511
763.833 .0255339
764.551 .0255158
765.268 .0254966
765.985 .0254761
766.702 .0254545
767.418 .0254324
768.134 .0254097
768.850 .0253868
769.566 .0253641
770.282 .0253414
770.997 .0253197
771.712 .0252995
772.427 .0252810
773.142 .0252645
773.856 .0252504
774.570 .0252377
775.284 .0252262
775.998 .0252151
776.711 .0252037
777.424 .0251915
778.137 .0251791
778.849 .0251658
779.562 .0251525
780.274 .0251401
780.986 .0251293
781.697 .0251198
782.409 .0251120
783.120 .0251054
783.831 .0250992
784.541 .0250926
785.252 .0250849
785.962 .0250754
786.671 .0250654
787.381 .0250549
788.090 .0250443
788.799 .0250342
789.508 .0250253
790.217 .0250176
790.925 .0250105
791.633 .0250035
792.341 .0249958
793.048 .0249869
793.755 .0249762
794.462 .0249630
795.169 .0249477
795.875 .0249310
796.581 .0249135
797.287 .0248954
797.993 .0248773
798.698 .0248590
799.403 .0248413
800.108 .0248244
800.812 .0248076
801.517 .0247908
802.221 .0247734
802.924 .0247558
803.628 .0247380
804.331 .0247203
805.034 .0247033
805.736 .0246876
806.439 .0246742
807.141 .0246625
807.843 .0246525
808.544 .0246437
809.245 .0246354
809.946 .0246266
810.647 .0246168
811.347 .0246052
812.047 .0245922
812.747 .0245787
813.447 .0245649
814.146 .0245512
814.845 .0245385
815.543 .0245264
816.242 .0245149
816.940 .0245034
817.638 .0244907
818.335 .0244763
819.032 .0244603
819.729 .0244425
820.426 .0244228
821.122 .0244022
821.818 .0243813
822.514 .0243607
823.209 .0243412
823.905 .0243224
824.599 .0243039
825.294 .0242859
825.988 .0242681
826.682 .0242491
827.376 .0242293
828.069 .0242087
828.762 .0241873
829.455 .0241662
830.147 .0241457
830.840 .0241263
831.531 .0241086
832.223 .0240932
832.914 .0240796
833.605 .0240675
834.296 .0240563
834.986 .0240457
835.676 .0240356
836.366 .0240257
837.055 .0240158
837.744 .0240059
838.433 .0239966
839.121 .0239877
839.809 .0239794
840.497 .0239717
841.185 .0239646
841.872 .0239578
842.559 .0239506
843.245 .0239433
843.932 .0239355
844.617 .0239274
845.303 .0239189
845.988 .0239103
846.673 .0239012
847.358 .0238914
848.042 .0238812
848.726 .0238707
849.410 .0238603
850.093 .0238495
850.776 .0238385
851.459 .0238273
852.141 .0238161
852.823 .0238054
853.505 .0237953
854.186 .0237862
854.867 .0237781
855.548 .0237711
856.228 .0237650
856.908 .0237599
857.588 .0237552
858.267 .0237509
858.946 .0237466
859.625 .0237416
860.303 .0237365
860.981 .0237312
861.659 .0237267
862.336 .0237229
863.013 .0237202
863.690 .0237182
864.366 .0237161
865.042 .0237138
865.718 .0237109
866.393 .0237065
867.068 .0237009
867.743 .0236939
868.417 .0236860
869.091 .0236777
869.765 .0236698
870.438 .0236623
871.111 .0236558
871.783 .0236499
872.456 .0236447
873.127 .0236395
873.799 .0236344
874.470 .0236290
875.141 .0236233
875.811 .0236177
876.481 .0236121
877.151 .0236067
877.820 .0236021
878.489 .0235981
879.158 .0235952
879.826 .0235924
880.494 .0235897
881.162 .0235868
881.829 .0235834
882.496 .0235790
883.163 .0235738
883.829 .0235682
884.495 .0235625
885.160 .0235574
885.825 .0235530
886.490 .0235500
887.154 .0235487
887.818 .0235483
888.482 .0235487
889.145 .0235495
889.808 .0235505
890.471 .0235511
891.133 .0235517
891.795 .0235523
892.456 .0235528
893.117 .0235541
893.778 .0235554
894.439 .0235572
895.099 .0235586
895.758 .0235594
896.417 .0235586
897.076 .0235562
897.735 .0235516
898.393 .0235450
899.051 .0235372
899.708 .0235291
900.365 .0235211
901.022 .0235139
901.678 .0235073
902.334 .0235028
902.990 .0234994
903.645 .0234974
904.300 .0234960
904.954 .0234960
905.608 .0234964
906.262 .0234973
906.915 .0234984
907.568 .0235003
908.221 .0235027
908.873 .0235056
909.525 .0235080
910.176 .0235105
910.828 .0235121
911.478 .0235127
912.129 .0235118
912.778 .0235099
913.428 .0235058
914.077 .0235009
914.726 .0234946
915.375 .0234873
916.023 .0234798
916.670 .0234718
917.318 .0234631
917.964 .0234541
918.611 .0234444
919.257 .0234345
919.903 .0234242
920.548 .0234143
921.193 .0234041
921.838 .0233946
922.482 .0233857
923.126 .0233772
923.770 .0233696
924.413 .0233626
925.056 .0233552
925.698 .0233485
926.340 .0233422
926.982 .0233362
927.623 .0233307
928.264 .0233258
928.904 .0233214
929.544 .0233178
930.184 .0233143
930.823 .0233109
931.462 .0233071
932.101 .0233030
932.739 .0232973
933.377 .0232902
934.014 .0232815
934.651 .0232714
935.288 .0232599
935.924 .0232479
936.560 .0232352
937.196 .0232221
937.831 .0232081
938.466 .0231937
939.100 .0231789
939.734 .0231632
940.368 .0231464
941.001 .0231290
941.634 .0231108
942.266 .0230924
942.899 .0230738
943.530 .0230556
944.162 .0230383
944.793 .0230222
945.423 .0230064
946.053 .0229915
946.683 .0229774
947.313 .0229634
947.942 .0229495
948.571 .0229354
949.199 .0229204
949.827 .0229046
950.455 .0228885
951.082 .0228716
951.709 .0228542
952.335 .0228368
952.961 .0228192
953.587 .0228012
954.212 .0227822
954.837 .0227623
955.462 .0227414
956.086 .0227206
956.710 .0226991
957.334 .0226774
957.957 .0226562
958.579 .0226359
959.202 .0226162
959.824 .0225970
960.445 .0225787
961.067 .0225610
961.688 .0225440
962.308 .0225278
962.928 .0225126
963.548 .0224992
964.168 .0224874
964.787 .0224780
965.406 .0224699
966.024 .0224635
966.642 .0224574
967.260 .0224519
967.877 .0224461
968.494 .0224393
969.110 .0224309
969.727 .0224211
970.342 .0224108
970.958 .0223999
971.573 .0223889
972.188 .0223787
972.802 .0223692
973.416 .0223611
974.030 .0223530
974.643 .0223455
975.256 .0223375
975.869 .0223290
976.481 .0223188
977.093 .0223065
977.705 .0222930
978.316 .0222783
978.927 .0222635
979.538 .0222493
980.148 .0222361
980.758 .0222238
981.367 .0222123
981.977 .0222015
982.586 .0221913
983.194 .0221804
983.802 .0221684
984.410 .0221550
985.018 .0221408
985.625 .0221257
986.232 .0221104
986.838 .0220956
987.445 .0220825
988.050 .0220699
988.656 .0220584
989.261 .0220472
989.866 .0220365
990.471 .0220257
991.075 .0220150
991.679 .0220038
992.282 .0219927
992.886 .0219813
993.489 .0219705
994.091 .0219597
994.694 .0219500
995.296 .0219404
995.897 .0219311
996.499 .0219221
997.100 .0219124
997.701 .0219024
998.301 .0218937
998.901 .0218850
999.501 .0218773
1000.101 .0218704
1000.700 .0218647
1001.299 .0218589
1001.898 .0218535
1002.496 .0218474
1003.094 .0218403
1003.692 .0218329
1004.289 .0218246
1004.887 .0218154
1005.484 .0218072
1006.080 .0217997
1006.677 .0217924
1007.273 .0217869
1007.868 .0217829
1008.464 .0217791
1009.059 .0217763
1009.654 .0217741
1010.249 .0217724
1010.843 .0217713
1011.437 .0217719
1012.031 .0217730
1012.625 .0217750
1013.218 .0217781
1013.811 .0217801
1014.404 .0217821
1014.997 .0217833
1015.589 .0217829
1016.181 .0217811
1016.773 .0217784
1017.365 .0217748
1017.956 .0217701
1018.547 .0217646
1019.138 .0217591
1019.728 .0217533
1020.319 .0217470
1020.909 .0217396
1021.499 .0217307
1022.088 .0217215
1022.678 .0217118
1023.267 .0217015
1023.856 .0216915
1024.445 .0216825
1025.033 .0216761
1025.621 .0216713
1026.209 .0216694
1026.797 .0216709
1027.385 .0216746
1027.972 .0216800
1028.560 .0216864
1029.147 .0216926
1029.734 .0216986
1030.320 .0217037
1030.907 .0217074
1031.493 .0217099
1032.079 .0217113
1032.665 .0217117
1033.250 .0217112
1033.836 .0217112
1034.421 .0217102
1035.006 .0217074
1035.591 .0217036
1036.176 .0216982
1036.761 .0216909
1037.345 .0216826
1037.929 .0216735
1038.514 .0216644
1039.097 .0216562
1039.681 .0216489
1040.265 .0216429
1040.848 .0216403
1041.432 .0216390
1042.015 .0216395
1042.598 .0216410
1043.181 .0216436
1043.764 .0216469
1044.346 .0216515
1044.929 .0216576
1045.511 .0216640
1046.094 .0216706
1046.676 .0216772
1047.258 .0216821
1047.840 .0216869
1048.422 .0216903
1049.003 .0216923
1049.585 .0216933
1050.166 .0216940
1050.748 .0216944
1051.329 .0216961
1051.910 .0216993
1052.491 .0217047
1053.072 .0217115
1053.653 .0217197
1054.234 .0217280
1054.815 .0217349
1055.396 .0217409
1055.976 .0217457
1056.557 .0217474
1057.138 .0217481
1057.718 .0217466
1058.298 .0217442
1058.879 .0217404
1059.459 .0217361
1060.039 .0217313
1060.620 .0217246
1061.200 .0217179
1061.780 .0217108
1062.360 .0217026
1062.940 .0216944
1063.520 .0216845
1064.101 .0216736
1064.681 .0216616
1065.261 .0216479
1065.841 .0216328
1066.421 .0216196
1067.001 .0216079
1067.581 .0215963
1068.161 .0215866
1068.741 .0215786
1069.321 .0215728
1069.901 .0215668
1070.482 .0215611
1071.062 .0215538
1071.642 .0215454
1072.222 .0215367
1072.803 .0215273
1073.383 .0215208
1073.963 .0215179
1074.544 .0215163
1075.124 .0215182
1075.705 .0215235
1076.286 .0215313
1076.866 .0215389
1077.447 .0215481
1078.028 .0215561
1078.609 .0215627
1079.190 .0215670
1079.771 .0215711
1080.352 .0215754
1080.934 .0215799
1081.515 .0215838
1082.097 .0215867
1082.679 .0215897
1083.260 .0215911
1083.842 .0215901
1084.424 .0215889
1085.007 .0215875
1085.589 .0215838
1086.172 .0215772
1086.754 .0215713
1087.337 .0215657
1087.920 .0215615
1088.503 .0215592
1089.087 .0215590
1089.670 .0215623
1090.254 .0215677
1090.838 .0215750
1091.422 .0215844
1092.006 .0215964
1092.590 .0216088
1093.175 .0216208
1093.760 .0216340
1094.345 .0216478
1094.930 .0216634
1095.516 .0216841
1096.102 .0217083
1096.688 .0217359
1097.274 .0217678
1097.860 .0218004
1098.447 .0218340
1099.034 .0218667
1099.622 .0218951
1100.209 .0219198
1100.797 .0219410
1101.385 .0219573
1101.973 .0219692
1102.562 .0219780
1103.151 .0219844
1103.740 .0219870
1104.330 .0219881
1104.920 .0219845
1105.510 .0219748
1106.101 .0219618
1106.691 .0219447
1107.283 .0219247
1107.874 .0219027
1108.466 .0218781
1109.058 .0218563
1109.651 .0218360
1110.244 .0218175
1110.837 .0218024
1111.431 .0217911
1112.025 .0217808
1112.620 .0217721
1113.215 .0217666
1113.810 .0217663
1114.406 .0217745
1115.002 .0217902
1115.599 .0218112
1116.196 .0218363
1116.793 .0218646
1117.391 .0218923
1117.989 .0219177
1118.588 .0219415
1119.187 .0219566
1119.787 .0219652
1120.387 .0219710
1120.988 .0219746
1121.589 .0219797
1122.190 .0219872
1122.793 .0219997
1123.395 .0220122
1123.998 .0220255
1124.602 .0220389
1125.206 .0220504
1125.811 .0220641
1126.416 .0220783
1127.022 .0220904
1127.628 .0221008
1128.235 .0221162
1128.843 .0221326
1129.451 .0221526
1130.059 .0221776
1130.669 .0222022
1131.278 .0222267
1131.889 .0222524
1132.500 .0222785
1133.112 .0223029
1133.724 .0223310
1134.337 .0223584
1134.950 .0223815
1135.564 .0224078
1136.179 .0224326
1136.795 .0224605
1137.411 .0224921
1138.028 .0225281
1138.645 .0225687
1139.263 .0226128
1139.882 .0226646
1140.502 .0227196
1141.122 .0227821
1141.743 .0228506
1142.365 .0229113
1142.987 .0229990
1143.611 .0230761
1144.235 .0231563
1144.859 .0233015
1145.485 .0230206
