Measurement Sequence started on: 10-20-44-796
Integration time: 35
Scans to Average: 2 
>>>>>Begin Spectral Data<<<<<
432.953 .0665506
433.882 .0454160
434.810 .0403952
435.737 .0394310
436.662 .0371158
437.586 .0388264
438.509 .0372453
439.431 .0365971
440.351 .0362085
441.269 .0359118
442.187 .0357210
443.103 .0355822
444.018 .0354848
444.932 .0354526
445.844 .0354729
446.756 .0355314
447.666 .0356034
448.575 .0357024
449.482 .0358142
450.388 .0359264
451.294 .0360418
452.198 .0361540
453.100 .0362555
454.002 .0363700
454.902 .0364909
455.801 .0366037
456.699 .0367262
457.596 .0368460
458.492 .0369546
459.387 .0370499
460.280 .0371307
461.172 .0371887
462.064 .0372280
462.954 .0372431
463.843 .0372302
464.730 .0371972
465.617 .0371578
466.503 .0371044
467.387 .0370445
468.271 .0369838
469.153 .0369136
470.035 .0368366
470.915 .0367604
471.794 .0366747
472.673 .0365894
473.550 .0365047
474.426 .0364277
475.301 .0363539
476.175 .0362876
477.048 .0362232
477.920 .0361625
478.791 .0361043
479.661 .0360449
480.530 .0359821
481.398 .0359224
482.266 .0358648
483.132 .0358146
483.997 .0357748
484.861 .0357516
485.724 .0357441
486.587 .0357507
487.448 .0357631
488.308 .0357818
489.168 .0358003
490.026 .0358176
490.884 .0358286
491.741 .0358375
492.597 .0358463
493.452 .0358563
494.306 .0358705
495.159 .0358895
496.011 .0359140
496.862 .0359406
497.713 .0359575
498.562 .0359647
499.411 .0359572
500.259 .0359320
501.106 .0358914
501.952 .0358365
502.798 .0357689
503.642 .0356900
504.486 .0356028
505.329 .0355131
506.171 .0354181
507.012 .0353159
507.852 .0352023
508.692 .0350795
509.531 .0349446
510.369 .0347953
511.206 .0346410
512.043 .0344827
512.878 .0343179
513.713 .0341454
514.547 .0339650
515.381 .0337749
516.213 .0335763
517.045 .0333675
517.876 .0331490
518.706 .0329259
519.536 .0327106
520.365 .0325073
521.193 .0323286
522.020 .0321817
522.847 .0320594
523.673 .0319573
524.498 .0318657
525.323 .0317668
526.146 .0316598
526.969 .0315432
527.792 .0314176
528.614 .0312821
529.435 .0311583
530.255 .0310522
531.075 .0309735
531.894 .0309268
532.712 .0309054
533.530 .0308923
534.347 .0308705
535.163 .0308141
535.979 .0307218
536.794 .0305916
537.608 .0304246
538.422 .0302315
539.235 .0300381
540.048 .0298607
540.860 .0297172
541.671 .0296062
542.481 .0295367
543.292 .0294974
544.101 .0294776
544.910 .0294608
545.718 .0294429
546.526 .0294240
547.333 .0294011
548.139 .0293780
548.945 .0293704
549.750 .0293826
550.555 .0294230
551.359 .0294920
552.162 .0295864
552.965 .0296955
553.768 .0298129
554.569 .0299264
555.371 .0300284
556.171 .0301153
556.972 .0301792
557.771 .0302219
558.570 .0302495
559.369 .0302746
560.167 .0303002
560.964 .0303370
561.761 .0303914
562.558 .0304624
563.354 .0305489
564.149 .0306428
564.944 .0307441
565.738 .0308515
566.532 .0309544
567.325 .0310543
568.118 .0311476
568.910 .0312396
569.702 .0313322
570.494 .0314290
571.285 .0315282
572.075 .0316315
572.865 .0317337
573.654 .0318296
574.443 .0319161
575.232 .0319942
576.020 .0320624
576.807 .0321206
577.594 .0321665
578.381 .0322011
579.167 .0322269
579.952 .0322486
580.738 .0322649
581.522 .0322804
582.307 .0322934
583.091 .0323075
583.874 .0323210
584.657 .0323331
585.440 .0323436
586.222 .0323540
587.004 .0323639
587.785 .0323740
588.566 .0323836
589.346 .0323938
590.126 .0324032
590.906 .0324153
591.685 .0324272
592.464 .0324379
593.242 .0324475
594.020 .0324559
594.797 .0324621
595.575 .0324680
596.351 .0324709
597.128 .0324733
597.904 .0324747
598.679 .0324755
599.454 .0324740
600.229 .0324711
601.004 .0324660
601.778 .0324576
602.551 .0324447
603.325 .0324290
604.097 .0324095
604.870 .0323880
605.642 .0323643
606.414 .0323395
607.185 .0323137
607.956 .0322888
608.727 .0322647
609.497 .0322431
610.267 .0322230
611.037 .0322049
611.806 .0321871
612.575 .0321683
613.344 .0321495
614.112 .0321287
614.880 .0321063
615.647 .0320821
616.414 .0320566
617.181 .0320314
617.948 .0320071
618.714 .0319852
619.480 .0319662
620.245 .0319493
621.011 .0319324
621.775 .0319128
622.540 .0318905
623.304 .0318654
624.068 .0318372
624.832 .0318073
625.595 .0317785
626.358 .0317516
627.120 .0317288
627.883 .0317096
628.645 .0316955
629.406 .0316849
630.168 .0316748
630.929 .0316639
631.689 .0316502
632.450 .0316334
633.210 .0316144
633.970 .0315937
634.729 .0315736
635.489 .0315537
636.248 .0315345
637.006 .0315164
637.765 .0314995
638.523 .0314828
639.280 .0314640
640.038 .0314429
640.795 .0314202
641.552 .0313949
642.309 .0313676
643.065 .0313397
643.821 .0313124
644.577 .0312870
645.332 .0312624
646.088 .0312385
646.843 .0312161
647.597 .0311957
648.352 .0311753
649.106 .0311546
649.860 .0311334
650.613 .0311113
651.367 .0310880
652.120 .0310645
652.872 .0310409
653.625 .0310180
654.377 .0309969
655.129 .0309771
655.881 .0309589
656.632 .0309419
657.384 .0309257
658.135 .0309096
658.885 .0308939
659.636 .0308780
660.386 .0308611
661.136 .0308449
661.885 .0308300
662.635 .0308160
663.384 .0308043
664.133 .0307939
664.881 .0307854
665.630 .0307775
666.378 .0307697
667.126 .0307606
667.874 .0307510
668.621 .0307409
669.368 .0307290
670.115 .0307158
670.862 .0307026
671.608 .0306887
672.354 .0306749
673.100 .0306608
673.846 .0306476
674.591 .0306335
675.337 .0306193
676.082 .0306038
676.826 .0305874
677.571 .0305695
678.315 .0305510
679.059 .0305310
679.803 .0305110
680.547 .0304908
681.290 .0304696
682.033 .0304479
682.776 .0304265
683.518 .0304032
684.261 .0303786
685.003 .0303530
685.745 .0303265
686.487 .0302989
687.228 .0302721
687.969 .0302459
688.710 .0302210
689.451 .0301974
690.192 .0301745
690.932 .0301516
691.672 .0301291
692.412 .0301056
693.152 .0300813
693.891 .0300579
694.630 .0300359
695.369 .0300154
696.108 .0299981
696.846 .0299836
697.585 .0299714
698.323 .0299605
699.061 .0299501
699.798 .0299385
700.536 .0299254
701.273 .0299094
702.010 .0298912
702.746 .0298718
703.483 .0298521
704.219 .0298324
704.955 .0298139
705.691 .0297964
706.427 .0297795
707.162 .0297624
707.897 .0297449
708.632 .0297259
709.367 .0297052
710.101 .0296827
710.835 .0296579
711.569 .0296311
712.303 .0296028
713.037 .0295737
713.770 .0295445
714.503 .0295159
715.236 .0294879
715.969 .0294609
716.702 .0294354
717.434 .0294110
718.166 .0293864
718.898 .0293618
719.629 .0293372
720.361 .0293120
721.092 .0292862
721.823 .0292613
722.554 .0292368
723.284 .0292143
724.014 .0291940
724.744 .0291751
725.474 .0291575
726.204 .0291408
726.933 .0291238
727.662 .0291050
728.391 .0290848
729.120 .0290626
729.849 .0290391
730.577 .0290157
731.305 .0289918
732.033 .0289683
732.760 .0289455
733.488 .0289236
734.215 .0289017
734.942 .0288795
735.669 .0288570
736.395 .0288336
737.122 .0288100
737.848 .0287867
738.573 .0287639
739.299 .0287426
740.024 .0287235
740.750 .0287061
741.474 .0286894
742.199 .0286730
742.924 .0286567
743.648 .0286398
744.372 .0286225
745.096 .0286051
745.819 .0285877
746.543 .0285718
747.266 .0285576
747.989 .0285450
748.711 .0285344
749.434 .0285253
750.156 .0285169
750.878 .0285087
751.599 .0285007
752.321 .0284927
753.042 .0284854
753.763 .0284798
754.484 .0284759
755.205 .0284737
755.925 .0284732
756.645 .0284737
757.365 .0284738
758.085 .0284730
758.804 .0284697
759.523 .0284638
760.242 .0284553
760.961 .0284443
761.679 .0284317
762.397 .0284173
763.115 .0284023
763.833 .0283856
764.551 .0283676
765.268 .0283480
765.985 .0283257
766.702 .0283012
767.418 .0282753
768.134 .0282490
768.850 .0282230
769.566 .0281982
770.282 .0281756
770.997 .0281549
771.712 .0281362
772.427 .0281184
773.142 .0281017
773.856 .0280856
774.570 .0280703
775.284 .0280549
775.998 .0280403
776.711 .0280273
777.424 .0280154
778.137 .0280049
778.849 .0279952
779.562 .0279857
780.274 .0279753
780.986 .0279626
781.697 .0279484
782.409 .0279325
783.120 .0279162
783.831 .0278996
784.541 .0278843
785.252 .0278709
785.962 .0278596
786.671 .0278495
787.381 .0278410
788.090 .0278329
788.799 .0278237
789.508 .0278127
790.217 .0277995
790.925 .0277849
791.633 .0277690
792.341 .0277521
793.048 .0277351
793.755 .0277184
794.462 .0277019
795.169 .0276855
795.875 .0276696
796.581 .0276546
797.287 .0276398
797.993 .0276251
798.698 .0276114
799.403 .0275987
800.108 .0275866
800.812 .0275755
801.517 .0275652
802.221 .0275568
802.924 .0275493
803.628 .0275426
804.331 .0275367
805.034 .0275322
805.736 .0275275
806.439 .0275218
807.141 .0275149
807.843 .0275070
808.544 .0274970
809.245 .0274852
809.946 .0274714
810.647 .0274560
811.347 .0274396
812.047 .0274227
812.747 .0274056
813.447 .0273893
814.146 .0273725
814.845 .0273560
815.543 .0273395
816.242 .0273232
816.940 .0273072
817.638 .0272922
818.335 .0272783
819.032 .0272650
819.729 .0272515
820.426 .0272380
821.122 .0272233
821.818 .0272084
822.514 .0271922
823.209 .0271747
823.905 .0271564
824.599 .0271377
825.294 .0271181
825.988 .0270985
826.682 .0270788
827.376 .0270586
828.069 .0270379
828.762 .0270167
829.455 .0269950
830.147 .0269730
830.840 .0269515
831.531 .0269311
832.223 .0269114
832.914 .0268927
833.605 .0268741
834.296 .0268557
834.986 .0268377
835.676 .0268196
836.366 .0268014
837.055 .0267837
837.744 .0267661
838.433 .0267491
839.121 .0267326
839.809 .0267168
840.497 .0267020
841.185 .0266876
841.872 .0266729
842.559 .0266581
843.245 .0266425
843.932 .0266261
844.617 .0266092
845.303 .0265929
845.988 .0265770
846.673 .0265622
847.358 .0265492
848.042 .0265378
848.726 .0265279
849.410 .0265198
850.093 .0265121
850.776 .0265050
851.459 .0264984
852.141 .0264909
852.823 .0264824
853.505 .0264736
854.186 .0264641
854.867 .0264541
855.548 .0264447
856.228 .0264357
856.908 .0264265
857.588 .0264181
858.267 .0264091
858.946 .0263994
859.625 .0263892
860.303 .0263782
860.981 .0263660
861.659 .0263536
862.336 .0263410
863.013 .0263275
863.690 .0263142
864.366 .0263010
865.042 .0262872
865.718 .0262737
866.393 .0262602
867.068 .0262462
867.743 .0262315
868.417 .0262162
869.091 .0261999
869.765 .0261830
870.438 .0261657
871.111 .0261482
871.783 .0261305
872.456 .0261133
873.127 .0260968
873.799 .0260812
874.470 .0260669
875.141 .0260533
875.811 .0260400
876.481 .0260274
877.151 .0260155
877.820 .0260046
878.489 .0259947
879.158 .0259865
879.826 .0259795
880.494 .0259731
881.162 .0259666
881.829 .0259599
882.496 .0259520
883.163 .0259427
883.829 .0259318
884.495 .0259196
885.160 .0259067
885.825 .0258938
886.490 .0258818
887.154 .0258716
887.818 .0258637
888.482 .0258571
889.145 .0258515
889.808 .0258468
890.471 .0258425
891.133 .0258381
891.795 .0258338
892.456 .0258301
893.117 .0258268
893.778 .0258247
894.439 .0258237
895.099 .0258236
895.758 .0258242
896.417 .0258252
897.076 .0258259
897.735 .0258259
898.393 .0258249
899.051 .0258220
899.708 .0258173
900.365 .0258105
901.022 .0258012
901.678 .0257901
902.334 .0257781
902.990 .0257661
903.645 .0257547
904.300 .0257448
904.954 .0257367
905.608 .0257300
906.262 .0257244
906.915 .0257186
907.568 .0257119
908.221 .0257038
908.873 .0256945
909.525 .0256841
910.176 .0256732
910.828 .0256625
911.478 .0256526
912.129 .0256434
912.778 .0256349
913.428 .0256266
914.077 .0256171
914.726 .0256062
915.375 .0255935
916.023 .0255793
916.670 .0255647
917.318 .0255503
917.964 .0255363
918.611 .0255229
919.257 .0255104
919.903 .0254985
920.548 .0254865
921.193 .0254746
921.838 .0254628
922.482 .0254515
923.126 .0254410
923.770 .0254312
924.413 .0254225
925.056 .0254152
925.698 .0254089
926.340 .0254020
926.982 .0253945
927.623 .0253859
928.264 .0253766
928.904 .0253669
929.544 .0253572
930.184 .0253478
930.823 .0253385
931.462 .0253294
932.101 .0253203
932.739 .0253103
933.377 .0252995
934.014 .0252878
934.651 .0252763
935.288 .0252649
935.924 .0252543
936.560 .0252450
937.196 .0252376
937.831 .0252308
938.466 .0252241
939.100 .0252167
939.734 .0252078
940.368 .0251980
941.001 .0251870
941.634 .0251751
942.266 .0251628
942.899 .0251498
943.530 .0251364
944.162 .0251219
944.793 .0251064
945.423 .0250892
946.053 .0250700
946.683 .0250493
947.313 .0250268
947.942 .0250035
948.571 .0249799
949.199 .0249557
949.827 .0249309
950.455 .0249056
951.082 .0248797
951.709 .0248540
952.335 .0248290
952.961 .0248058
953.587 .0247852
954.212 .0247679
954.837 .0247539
955.462 .0247426
956.086 .0247338
956.710 .0247263
957.334 .0247189
957.957 .0247110
958.579 .0247015
959.202 .0246913
959.824 .0246811
960.445 .0246711
961.067 .0246619
961.688 .0246538
962.308 .0246464
962.928 .0246396
963.548 .0246325
964.168 .0246248
964.787 .0246156
965.406 .0246051
966.024 .0245932
966.642 .0245799
967.260 .0245666
967.877 .0245531
968.494 .0245402
969.110 .0245288
969.727 .0245180
970.342 .0245083
970.958 .0244996
971.573 .0244918
972.188 .0244835
972.802 .0244746
973.416 .0244648
974.030 .0244533
974.643 .0244412
975.256 .0244287
975.869 .0244159
976.481 .0244038
977.093 .0243930
977.705 .0243836
978.316 .0243761
978.927 .0243705
979.538 .0243664
980.148 .0243637
980.758 .0243615
981.367 .0243600
981.977 .0243590
982.586 .0243595
983.194 .0243609
983.802 .0243627
984.410 .0243655
985.018 .0243687
985.625 .0243716
986.232 .0243740
986.838 .0243762
987.445 .0243774
988.050 .0243767
988.656 .0243748
989.261 .0243715
989.866 .0243661
990.471 .0243588
991.075 .0243505
991.679 .0243410
992.282 .0243308
992.886 .0243197
993.489 .0243089
994.091 .0242993
994.694 .0242910
995.296 .0242829
995.897 .0242758
996.499 .0242702
997.100 .0242653
997.701 .0242610
998.301 .0242582
998.901 .0242564
999.501 .0242555
1000.101 .0242552
1000.700 .0242551
1001.299 .0242543
1001.898 .0242532
1002.496 .0242515
1003.094 .0242496
1003.692 .0242472
1004.289 .0242443
1004.887 .0242415
1005.484 .0242392
1006.080 .0242366
1006.677 .0242330
1007.273 .0242285
1007.868 .0242229
1008.464 .0242167
1009.059 .0242094
1009.654 .0242019
1010.249 .0241955
1010.843 .0241904
1011.437 .0241866
1012.031 .0241830
1012.625 .0241798
1013.218 .0241765
1013.811 .0241723
1014.404 .0241673
1014.997 .0241608
1015.589 .0241537
1016.181 .0241465
1016.773 .0241392
1017.365 .0241315
1017.956 .0241243
1018.547 .0241176
1019.138 .0241115
1019.728 .0241062
1020.319 .0241021
1020.909 .0240993
1021.499 .0240982
1022.088 .0240989
1022.678 .0241000
1023.267 .0241014
1023.856 .0241031
1024.445 .0241045
1025.033 .0241055
1025.621 .0241061
1026.209 .0241064
1026.797 .0241066
1027.385 .0241065
1027.972 .0241062
1028.560 .0241051
1029.147 .0241032
1029.734 .0241005
1030.320 .0240965
1030.907 .0240909
1031.493 .0240846
1032.079 .0240778
1032.665 .0240721
1033.250 .0240669
1033.836 .0240634
1034.421 .0240604
1035.006 .0240593
1035.591 .0240599
1036.176 .0240614
1036.761 .0240636
1037.345 .0240669
1037.929 .0240700
1038.514 .0240728
1039.097 .0240756
1039.681 .0240787
1040.265 .0240805
1040.848 .0240819
1041.432 .0240819
1042.015 .0240814
1042.598 .0240802
1043.181 .0240791
1043.764 .0240775
1044.346 .0240765
1044.929 .0240750
1045.511 .0240715
1046.094 .0240670
1046.676 .0240613
1047.258 .0240534
1047.840 .0240446
1048.422 .0240349
1049.003 .0240246
1049.585 .0240144
1050.166 .0240052
1050.748 .0239971
1051.329 .0239905
1051.910 .0239843
1052.491 .0239780
1053.072 .0239722
1053.653 .0239661
1054.234 .0239596
1054.815 .0239539
1055.396 .0239503
1055.976 .0239478
1056.557 .0239478
1057.138 .0239503
1057.718 .0239538
1058.298 .0239592
1058.879 .0239640
1059.459 .0239665
1060.039 .0239680
1060.620 .0239657
1061.200 .0239601
1061.780 .0239516
1062.360 .0239416
1062.940 .0239296
1063.520 .0239185
1064.101 .0239093
1064.681 .0239000
1065.261 .0238916
1065.841 .0238841
1066.421 .0238764
1067.001 .0238680
1067.581 .0238583
1068.161 .0238465
1068.741 .0238327
1069.321 .0238179
1069.901 .0238003
1070.482 .0237831
1071.062 .0237674
1071.642 .0237531
1072.222 .0237400
1072.803 .0237291
1073.383 .0237201
1073.963 .0237125
1074.544 .0237076
1075.124 .0237037
1075.705 .0237011
1076.286 .0236990
1076.866 .0236970
1077.447 .0236961
1078.028 .0236962
1078.609 .0236976
1079.190 .0237012
1079.771 .0237067
1080.352 .0237133
1080.934 .0237185
1081.515 .0237248
1082.097 .0237299
1082.679 .0237353
1083.260 .0237397
1083.842 .0237412
1084.424 .0237407
1085.007 .0237398
1085.589 .0237372
1086.172 .0237358
1086.754 .0237348
1087.337 .0237354
1087.920 .0237368
1088.503 .0237400
1089.087 .0237407
1089.670 .0237413
1090.254 .0237394
1090.838 .0237352
1091.422 .0237257
1092.006 .0237145
1092.590 .0236998
1093.175 .0236839
1093.760 .0236686
1094.345 .0236536
1094.930 .0236387
1095.516 .0236264
1096.102 .0236134
1096.688 .0236043
1097.274 .0235944
1097.860 .0235842
1098.447 .0235709
1099.034 .0235605
1099.622 .0235501
1100.209 .0235413
1100.797 .0235358
1101.385 .0235356
1101.973 .0235401
1102.562 .0235484
1103.151 .0235574
1103.740 .0235670
1104.330 .0235757
1104.920 .0235822
1105.510 .0235843
1106.101 .0235868
1106.691 .0235884
1107.283 .0235914
1107.874 .0235982
1108.466 .0236106
1109.058 .0236242
1109.651 .0236410
1110.244 .0236620
1110.837 .0236851
1111.431 .0237110
1112.025 .0237374
1112.620 .0237668
1113.215 .0237979
1113.810 .0238318
1114.406 .0238663
1115.002 .0238991
1115.599 .0239295
1116.196 .0239504
1116.793 .0239615
1117.391 .0239628
1117.989 .0239527
1118.588 .0239374
1119.187 .0239188
1119.787 .0239031
1120.387 .0238894
1120.988 .0238808
1121.589 .0238773
1122.190 .0238772
1122.793 .0238752
1123.395 .0238719
1123.998 .0238678
1124.602 .0238647
1125.206 .0238624
1125.811 .0238656
1126.416 .0238771
1127.022 .0238965
1127.628 .0239245
1128.235 .0239598
1128.843 .0239997
1129.451 .0240431
1130.059 .0240834
1130.669 .0241227
1131.278 .0241606
1131.889 .0241954
1132.500 .0242274
1133.112 .0242605
1133.724 .0242921
1134.337 .0243225
1134.950 .0243518
1135.564 .0243837
1136.179 .0244178
1136.795 .0244608
1137.411 .0245122
1138.028 .0245749
1138.645 .0246515
1139.263 .0247415
1139.882 .0248389
1140.502 .0249512
1141.122 .0250728
1141.743 .0252075
1142.365 .0253597
1142.987 .0253521
1143.611 .0256270
1144.235 .0258303
1144.859 .0261205
1145.485 .0264954
