Measurement Sequence started on: 10-20-44-796
Integration time: 35
Scans to Average: 2 
>>>>>Begin Spectral Data<<<<<
432.953 .0433416
433.882 .0376930
434.810 .0354735
435.737 .0369689
436.662 .0359098
437.586 .0364411
438.509 .0361239
439.431 .0360417
440.351 .0360270
441.269 .0359698
442.187 .0359411
443.103 .0359099
444.018 .0358736
444.932 .0358313
445.844 .0357907
446.756 .0357577
447.666 .0357216
448.575 .0356778
449.482 .0356299
450.388 .0355746
451.294 .0355188
452.198 .0354562
453.100 .0353849
454.002 .0353144
454.902 .0352468
455.801 .0351804
456.699 .0351224
457.596 .0350771
458.492 .0350453
459.387 .0350114
460.280 .0349878
461.172 .0349647
462.064 .0349418
462.954 .0349187
463.843 .0348897
464.730 .0348656
465.617 .0348445
466.503 .0348209
467.387 .0347959
468.271 .0347681
469.153 .0347416
470.035 .0347092
470.915 .0346793
471.794 .0346505
472.673 .0346219
473.550 .0345953
474.426 .0345686
475.301 .0345386
476.175 .0345078
477.048 .0344726
477.920 .0344326
478.791 .0343903
479.661 .0343467
480.530 .0343059
481.398 .0342717
482.266 .0342498
483.132 .0342409
483.997 .0342407
484.861 .0342497
485.724 .0342625
486.587 .0342766
487.448 .0342906
488.308 .0343015
489.168 .0343115
490.026 .0343205
490.884 .0343271
491.741 .0343294
492.597 .0343281
493.452 .0343248
494.306 .0343159
495.159 .0342998
496.011 .0342785
496.862 .0342497
497.713 .0342116
498.562 .0341640
499.411 .0341070
500.259 .0340400
501.106 .0339602
501.952 .0338679
502.798 .0337654
503.642 .0336559
504.486 .0335412
505.329 .0334251
506.171 .0333109
507.012 .0332008
507.852 .0330906
508.692 .0329770
509.531 .0328609
510.369 .0327392
511.206 .0326109
512.043 .0324764
512.878 .0323356
513.713 .0321917
514.547 .0320459
515.381 .0319032
516.213 .0317592
517.045 .0316142
517.876 .0314658
518.706 .0313160
519.536 .0311633
520.365 .0310065
521.193 .0308421
522.020 .0306747
522.847 .0305049
523.673 .0303262
524.498 .0301401
525.323 .0299505
526.146 .0297615
526.969 .0295806
527.792 .0294117
528.614 .0292600
529.435 .0291303
530.255 .0290307
531.075 .0289472
531.894 .0288749
532.712 .0288049
533.530 .0287302
534.347 .0286479
535.163 .0285573
535.979 .0284632
536.794 .0283721
537.608 .0283003
538.422 .0282468
539.235 .0282086
540.048 .0281943
540.860 .0281898
541.671 .0281928
542.481 .0281900
543.292 .0281794
544.101 .0281621
544.910 .0281413
545.718 .0281258
546.526 .0281184
547.333 .0281295
548.139 .0281589
548.945 .0282049
549.750 .0282646
550.555 .0283293
551.359 .0283968
552.162 .0284613
552.965 .0285241
553.768 .0285816
554.569 .0286387
555.371 .0286955
556.171 .0287527
556.972 .0288099
557.771 .0288612
558.570 .0289123
559.369 .0289603
560.167 .0290041
560.964 .0290441
561.761 .0290863
562.558 .0291377
563.354 .0291962
564.149 .0292643
564.944 .0293387
565.738 .0294160
566.532 .0294927
567.325 .0295633
568.118 .0296290
568.910 .0296890
569.702 .0297474
570.494 .0298042
571.285 .0298645
572.075 .0299294
572.865 .0299987
573.654 .0300722
574.443 .0301480
575.232 .0302228
576.020 .0302926
576.807 .0303557
577.594 .0304144
578.381 .0304691
579.167 .0305208
579.952 .0305705
580.738 .0306204
581.522 .0306703
582.307 .0307192
583.091 .0307661
583.874 .0308102
584.657 .0308505
585.440 .0308866
586.222 .0309169
587.004 .0309419
587.785 .0309636
588.566 .0309819
589.346 .0309977
590.126 .0310119
590.906 .0310228
591.685 .0310319
592.464 .0310393
593.242 .0310451
594.020 .0310489
594.797 .0310509
595.575 .0310512
596.351 .0310495
597.128 .0310470
597.904 .0310421
598.679 .0310348
599.454 .0310268
600.229 .0310178
601.004 .0310082
601.778 .0309978
602.551 .0309873
603.325 .0309766
604.097 .0309661
604.870 .0309552
605.642 .0309441
606.414 .0309340
607.185 .0309243
607.956 .0309151
608.727 .0309077
609.497 .0309021
610.267 .0308984
611.037 .0308955
611.806 .0308927
612.575 .0308881
613.344 .0308819
614.112 .0308721
614.880 .0308588
615.647 .0308420
616.414 .0308220
617.181 .0307994
617.948 .0307752
618.714 .0307503
619.480 .0307247
620.245 .0306992
621.011 .0306731
621.775 .0306459
622.540 .0306177
623.304 .0305880
624.068 .0305576
624.832 .0305275
625.595 .0304981
626.358 .0304699
627.120 .0304431
627.883 .0304182
628.645 .0303947
629.406 .0303731
630.168 .0303527
630.929 .0303327
631.689 .0303129
632.450 .0302926
633.210 .0302715
633.970 .0302509
634.729 .0302298
635.489 .0302084
636.248 .0301863
637.006 .0301639
637.765 .0301406
638.523 .0301172
639.280 .0300940
640.038 .0300713
640.795 .0300501
641.552 .0300305
642.309 .0300122
643.065 .0299955
643.821 .0299806
644.577 .0299657
645.332 .0299510
646.088 .0299354
646.843 .0299190
647.597 .0299018
648.352 .0298846
649.106 .0298680
649.860 .0298524
650.613 .0298386
651.367 .0298262
652.120 .0298142
652.872 .0298028
653.625 .0297905
654.377 .0297772
655.129 .0297620
655.881 .0297449
656.632 .0297256
657.384 .0297046
658.135 .0296827
658.885 .0296603
659.636 .0296375
660.386 .0296147
661.136 .0295914
661.885 .0295685
662.635 .0295464
663.384 .0295253
664.133 .0295055
664.881 .0294871
665.630 .0294703
666.378 .0294555
667.126 .0294416
667.874 .0294285
668.621 .0294159
669.368 .0294034
670.115 .0293910
670.862 .0293783
671.608 .0293658
672.354 .0293545
673.100 .0293450
673.846 .0293365
674.591 .0293287
675.337 .0293221
676.082 .0293151
676.826 .0293075
677.571 .0292994
678.315 .0292897
679.059 .0292786
679.803 .0292662
680.547 .0292529
681.290 .0292390
682.033 .0292249
682.776 .0292107
683.518 .0291965
684.261 .0291823
685.003 .0291670
685.745 .0291500
686.487 .0291319
687.228 .0291125
687.969 .0290910
688.710 .0290676
689.451 .0290432
690.192 .0290180
690.932 .0289925
691.672 .0289674
692.412 .0289436
693.152 .0289210
693.891 .0288998
694.630 .0288798
695.369 .0288606
696.108 .0288419
696.846 .0288234
697.585 .0288045
698.323 .0287862
699.061 .0287678
699.798 .0287493
700.536 .0287307
701.273 .0287123
702.010 .0286937
702.746 .0286746
703.483 .0286546
704.219 .0286336
704.955 .0286113
705.691 .0285885
706.427 .0285644
707.162 .0285399
707.897 .0285152
708.632 .0284908
709.367 .0284668
710.101 .0284434
710.835 .0284203
711.569 .0283980
712.303 .0283761
713.037 .0283545
713.770 .0283328
714.503 .0283112
715.236 .0282896
715.969 .0282686
716.702 .0282484
717.434 .0282291
718.166 .0282107
718.898 .0281938
719.629 .0281776
720.361 .0281619
721.092 .0281460
721.823 .0281297
722.554 .0281125
723.284 .0280944
724.014 .0280746
724.744 .0280534
725.474 .0280315
726.204 .0280092
726.933 .0279867
727.662 .0279642
728.391 .0279419
729.120 .0279197
729.849 .0278979
730.577 .0278756
731.305 .0278527
732.033 .0278297
732.760 .0278066
733.488 .0277834
734.215 .0277609
734.942 .0277394
735.669 .0277189
736.395 .0277000
737.122 .0276827
737.848 .0276661
738.573 .0276504
739.299 .0276351
740.024 .0276200
740.750 .0276050
741.474 .0275900
742.199 .0275743
742.924 .0275595
743.648 .0275456
744.372 .0275321
745.096 .0275202
745.819 .0275101
746.543 .0275006
747.266 .0274924
747.989 .0274850
748.711 .0274784
749.434 .0274724
750.156 .0274679
750.878 .0274646
751.599 .0274629
752.321 .0274630
753.042 .0274640
753.763 .0274657
754.484 .0274680
755.205 .0274691
755.925 .0274685
756.645 .0274667
757.365 .0274630
758.085 .0274574
758.804 .0274502
759.523 .0274415
760.242 .0274314
760.961 .0274193
761.679 .0274056
762.397 .0273898
763.115 .0273723
763.833 .0273538
764.551 .0273345
765.268 .0273155
765.985 .0272969
766.702 .0272789
767.418 .0272623
768.134 .0272469
768.850 .0272322
769.566 .0272182
770.282 .0272049
770.997 .0271923
771.712 .0271803
772.427 .0271688
773.142 .0271586
773.856 .0271492
774.570 .0271407
775.284 .0271320
775.998 .0271226
776.711 .0271125
777.424 .0271010
778.137 .0270887
778.849 .0270759
779.562 .0270625
780.274 .0270495
780.986 .0270373
781.697 .0270261
782.409 .0270156
783.120 .0270061
783.831 .0269974
784.541 .0269893
785.252 .0269818
785.962 .0269745
786.671 .0269677
787.381 .0269622
788.090 .0269572
788.799 .0269520
789.508 .0269468
790.217 .0269410
790.925 .0269342
791.633 .0269261
792.341 .0269165
793.048 .0269051
793.755 .0268926
794.462 .0268790
795.169 .0268647
795.875 .0268499
796.581 .0268353
797.287 .0268205
797.993 .0268061
798.698 .0267919
799.403 .0267782
800.108 .0267655
800.812 .0267544
801.517 .0267445
802.221 .0267362
802.924 .0267293
803.628 .0267241
804.331 .0267201
805.034 .0267172
805.736 .0267141
806.439 .0267109
807.141 .0267074
807.843 .0267031
808.544 .0266977
809.245 .0266913
809.946 .0266836
810.647 .0266748
811.347 .0266648
812.047 .0266534
812.747 .0266412
813.447 .0266285
814.146 .0266153
814.845 .0266023
815.543 .0265897
816.242 .0265783
816.940 .0265683
817.638 .0265597
818.335 .0265524
819.032 .0265461
819.729 .0265404
820.426 .0265352
821.122 .0265302
821.818 .0265248
822.514 .0265190
823.209 .0265131
823.905 .0265072
824.599 .0265006
825.294 .0264936
825.988 .0264859
826.682 .0264767
827.376 .0264663
828.069 .0264542
828.762 .0264402
829.455 .0264249
830.147 .0264086
830.840 .0263916
831.531 .0263749
832.223 .0263593
832.914 .0263449
833.605 .0263324
834.296 .0263216
834.986 .0263117
835.676 .0263025
836.366 .0262939
837.055 .0262851
837.744 .0262759
838.433 .0262663
839.121 .0262564
839.809 .0262465
840.497 .0262373
841.185 .0262290
841.872 .0262218
842.559 .0262157
843.245 .0262100
843.932 .0262044
844.617 .0261986
845.303 .0261921
845.988 .0261848
846.673 .0261766
847.358 .0261676
848.042 .0261582
848.726 .0261484
849.410 .0261386
850.093 .0261287
850.776 .0261190
851.459 .0261086
852.141 .0260972
852.823 .0260845
853.505 .0260706
854.186 .0260550
854.867 .0260385
855.548 .0260214
856.228 .0260042
856.908 .0259874
857.588 .0259717
858.267 .0259572
858.946 .0259440
859.625 .0259320
860.303 .0259212
860.981 .0259111
861.659 .0259025
862.336 .0258940
863.013 .0258866
863.690 .0258802
864.366 .0258743
865.042 .0258687
865.718 .0258634
866.393 .0258578
867.068 .0258514
867.743 .0258433
868.417 .0258342
869.091 .0258236
869.765 .0258121
870.438 .0257992
871.111 .0257858
871.783 .0257723
872.456 .0257585
873.127 .0257443
873.799 .0257306
874.470 .0257170
875.141 .0257032
875.811 .0256894
876.481 .0256759
877.151 .0256631
877.820 .0256516
878.489 .0256413
879.158 .0256327
879.826 .0256256
880.494 .0256198
881.162 .0256146
881.829 .0256098
882.496 .0256048
883.163 .0255990
883.829 .0255927
884.495 .0255856
885.160 .0255780
885.825 .0255702
886.490 .0255630
887.154 .0255563
887.818 .0255501
888.482 .0255442
889.145 .0255382
889.808 .0255322
890.471 .0255257
891.133 .0255183
891.795 .0255102
892.456 .0255013
893.117 .0254925
893.778 .0254836
894.439 .0254750
895.099 .0254667
895.758 .0254593
896.417 .0254523
897.076 .0254454
897.735 .0254385
898.393 .0254315
899.051 .0254246
899.708 .0254177
900.365 .0254110
901.022 .0254048
901.678 .0253995
902.334 .0253950
902.990 .0253910
903.645 .0253876
904.300 .0253844
904.954 .0253814
905.608 .0253788
906.262 .0253766
906.915 .0253743
907.568 .0253720
908.221 .0253697
908.873 .0253669
909.525 .0253631
910.176 .0253577
910.828 .0253506
911.478 .0253417
912.129 .0253309
912.778 .0253184
913.428 .0253047
914.077 .0252910
914.726 .0252774
915.375 .0252638
916.023 .0252505
916.670 .0252373
917.318 .0252242
917.964 .0252107
918.611 .0251966
919.257 .0251822
919.903 .0251676
920.548 .0251532
921.193 .0251395
921.838 .0251268
922.482 .0251156
923.126 .0251055
923.770 .0250960
924.413 .0250868
925.056 .0250771
925.698 .0250672
926.340 .0250569
926.982 .0250464
927.623 .0250357
928.264 .0250249
928.904 .0250142
929.544 .0250041
930.184 .0249948
930.823 .0249858
931.462 .0249769
932.101 .0249686
932.739 .0249604
933.377 .0249513
934.014 .0249417
934.651 .0249320
935.288 .0249224
935.924 .0249129
936.560 .0249034
937.196 .0248943
937.831 .0248858
938.466 .0248772
939.100 .0248679
939.734 .0248579
940.368 .0248470
941.001 .0248345
941.634 .0248209
942.266 .0248066
942.899 .0247920
943.530 .0247773
944.162 .0247628
944.793 .0247483
945.423 .0247334
946.053 .0247175
946.683 .0247002
947.313 .0246820
947.942 .0246626
948.571 .0246418
949.199 .0246205
949.827 .0245991
950.455 .0245775
951.082 .0245565
951.709 .0245362
952.335 .0245163
952.961 .0244967
953.587 .0244769
954.212 .0244568
954.837 .0244368
955.462 .0244173
956.086 .0243984
956.710 .0243808
957.334 .0243652
957.957 .0243509
958.579 .0243380
959.202 .0243267
959.824 .0243169
960.445 .0243080
961.067 .0242999
961.688 .0242923
962.308 .0242846
962.928 .0242775
963.548 .0242709
964.168 .0242637
964.787 .0242561
965.406 .0242478
966.024 .0242390
966.642 .0242293
967.260 .0242189
967.877 .0242080
968.494 .0241968
969.110 .0241858
969.727 .0241741
970.342 .0241617
970.958 .0241496
971.573 .0241376
972.188 .0241255
972.802 .0241138
973.416 .0241019
974.030 .0240899
974.643 .0240786
975.256 .0240680
975.869 .0240575
976.481 .0240471
977.093 .0240375
977.705 .0240286
978.316 .0240204
978.927 .0240130
979.538 .0240059
980.148 .0239993
980.758 .0239927
981.367 .0239849
981.977 .0239769
982.586 .0239691
983.194 .0239612
983.802 .0239539
984.410 .0239475
985.018 .0239423
985.625 .0239385
986.232 .0239360
986.838 .0239347
987.445 .0239338
988.050 .0239330
988.656 .0239317
989.261 .0239297
989.866 .0239267
990.471 .0239225
991.075 .0239175
991.679 .0239122
992.282 .0239067
992.886 .0239012
993.489 .0238966
994.091 .0238929
994.694 .0238903
995.296 .0238884
995.897 .0238873
996.499 .0238873
997.100 .0238873
997.701 .0238877
998.301 .0238885
998.901 .0238896
999.501 .0238904
1000.101 .0238917
1000.700 .0238940
1001.299 .0238964
1001.898 .0238994
1002.496 .0239027
1003.094 .0239061
1003.692 .0239091
1004.289 .0239110
1004.887 .0239113
1005.484 .0239101
1006.080 .0239074
1006.677 .0239025
1007.273 .0238967
1007.868 .0238904
1008.464 .0238841
1009.059 .0238784
1009.654 .0238738
1010.249 .0238705
1010.843 .0238683
1011.437 .0238673
1012.031 .0238668
1012.625 .0238658
1013.218 .0238640
1013.811 .0238619
1014.404 .0238594
1014.997 .0238567
1015.589 .0238547
1016.181 .0238530
1016.773 .0238530
1017.365 .0238542
1017.956 .0238564
1018.547 .0238586
1019.138 .0238604
1019.728 .0238615
1020.319 .0238615
1020.909 .0238607
1021.499 .0238595
1022.088 .0238579
1022.678 .0238573
1023.267 .0238570
1023.856 .0238574
1024.445 .0238583
1025.033 .0238603
1025.621 .0238618
1026.209 .0238632
1026.797 .0238636
1027.385 .0238628
1027.972 .0238604
1028.560 .0238573
1029.147 .0238531
1029.734 .0238483
1030.320 .0238434
1030.907 .0238388
1031.493 .0238357
1032.079 .0238347
1032.665 .0238352
1033.250 .0238385
1033.836 .0238437
1034.421 .0238508
1035.006 .0238589
1035.591 .0238677
1036.176 .0238762
1036.761 .0238838
1037.345 .0238898
1037.929 .0238935
1038.514 .0238954
1039.097 .0238963
1039.681 .0238958
1040.265 .0238952
1040.848 .0238945
1041.432 .0238926
1042.015 .0238896
1042.598 .0238855
1043.181 .0238792
1043.764 .0238706
1044.346 .0238595
1044.929 .0238461
1045.511 .0238314
1046.094 .0238172
1046.676 .0238041
1047.258 .0237937
1047.840 .0237872
1048.422 .0237847
1049.003 .0237840
1049.585 .0237866
1050.166 .0237911
1050.748 .0237966
1051.329 .0238028
1051.910 .0238099
1052.491 .0238163
1053.072 .0238227
1053.653 .0238284
1054.234 .0238341
1054.815 .0238388
1055.396 .0238429
1055.976 .0238435
1056.557 .0238413
1057.138 .0238370
1057.718 .0238303
1058.298 .0238200
1058.879 .0238100
1059.459 .0237990
1060.039 .0237862
1060.620 .0237721
1061.200 .0237576
1061.780 .0237418
1062.360 .0237263
1062.940 .0237111
1063.520 .0236972
1064.101 .0236845
1064.681 .0236747
1065.261 .0236659
1065.841 .0236597
1066.421 .0236556
1067.001 .0236518
1067.581 .0236476
1068.161 .0236442
1068.741 .0236406
1069.321 .0236369
1069.901 .0236339
1070.482 .0236320
1071.062 .0236306
1071.642 .0236296
1072.222 .0236300
1072.803 .0236309
1073.383 .0236332
1073.963 .0236381
1074.544 .0236460
1075.124 .0236566
1075.705 .0236698
1076.286 .0236851
1076.866 .0237018
1077.447 .0237196
1078.028 .0237367
1078.609 .0237503
1079.190 .0237609
1079.771 .0237693
1080.352 .0237739
1080.934 .0237752
1081.515 .0237753
1082.097 .0237745
1082.679 .0237739
1083.260 .0237718
1083.842 .0237674
1084.424 .0237609
1085.007 .0237528
1085.589 .0237419
1086.172 .0237271
1086.754 .0237109
1087.337 .0236943
1087.920 .0236791
1088.503 .0236666
1089.087 .0236566
1089.670 .0236501
1090.254 .0236474
1090.838 .0236473
1091.422 .0236484
1092.006 .0236490
1092.590 .0236480
1093.175 .0236460
1093.760 .0236430
1094.345 .0236378
1094.930 .0236323
1095.516 .0236267
1096.102 .0236247
1096.688 .0236231
1097.274 .0236238
1097.860 .0236247
1098.447 .0236273
1099.034 .0236303
1099.622 .0236307
1100.209 .0236278
1100.797 .0236233
1101.385 .0236160
1101.973 .0236087
1102.562 .0235997
1103.151 .0235910
1103.740 .0235817
1104.330 .0235745
1104.920 .0235669
1105.510 .0235595
1106.101 .0235521
1106.691 .0235448
1107.283 .0235361
1107.874 .0235292
1108.466 .0235232
1109.058 .0235227
1109.651 .0235274
1110.244 .0235368
1110.837 .0235512
1111.431 .0235699
1112.025 .0235911
1112.620 .0236137
1113.215 .0236370
1113.810 .0236608
1114.406 .0236852
1115.002 .0237113
1115.599 .0237393
1116.196 .0237698
1116.793 .0238027
1117.391 .0238338
1117.989 .0238633
1118.588 .0238892
1119.187 .0239077
1119.787 .0239187
1120.387 .0239235
1120.988 .0239195
1121.589 .0239113
1122.190 .0238991
1122.793 .0238881
1123.395 .0238771
1123.998 .0238692
1124.602 .0238614
1125.206 .0238570
1125.811 .0238582
1126.416 .0238614
1127.022 .0238685
1127.628 .0238838
1128.235 .0239026
1128.843 .0239291
1129.451 .0239597
1130.059 .0239990
1130.669 .0240438
1131.278 .0240984
1131.889 .0241538
1132.500 .0242106
1133.112 .0242711
1133.724 .0243302
1134.337 .0243859
1134.950 .0244380
1135.564 .0244826
1136.179 .0245221
1136.795 .0245559
1137.411 .0245844
1138.028 .0246077
1138.645 .0246306
1139.263 .0246514
1139.882 .0246646
1140.502 .0246823
1141.122 .0246963
1141.743 .0247158
1142.365 .0247284
1142.987 .0246482
1143.611 .0248783
1144.235 .0247414
1144.859 .0249174
1145.485 .0246444
