Measurement Sequence started on: 10-20-44-796
Integration time: 35
Scans to Average: 2 
>>>>>Begin Spectral Data<<<<<
432.953 .0290415
433.882 .0420081
434.810 .0373390
435.737 .0403339
436.662 .0400389
437.586 .0399715
438.509 .0403945
439.431 .0403414
440.351 .0403570
441.269 .0402168
442.187 .0400597
443.103 .0398546
444.018 .0396774
444.932 .0394906
445.844 .0393024
446.756 .0391276
447.666 .0389735
448.575 .0388284
449.482 .0386992
450.388 .0385895
451.294 .0385030
452.198 .0384109
453.100 .0383067
454.002 .0381974
454.902 .0380910
455.801 .0379874
456.699 .0378914
457.596 .0378069
458.492 .0377357
459.387 .0376719
460.280 .0376076
461.172 .0375421
462.064 .0374656
462.954 .0373821
463.843 .0372889
464.730 .0371916
465.617 .0371081
466.503 .0370292
467.387 .0369719
468.271 .0369314
469.153 .0369035
470.035 .0368754
470.915 .0368444
471.794 .0368052
472.673 .0367561
473.550 .0366988
474.426 .0366415
475.301 .0365815
476.175 .0365349
477.048 .0364922
477.920 .0364586
478.791 .0364322
479.661 .0364112
480.530 .0363825
481.398 .0363487
482.266 .0363067
483.132 .0362643
483.997 .0362193
484.861 .0361816
485.724 .0361548
486.587 .0361376
487.448 .0361270
488.308 .0361221
489.168 .0361210
490.026 .0361242
490.884 .0361205
491.741 .0361159
492.597 .0361021
493.452 .0360846
494.306 .0360577
495.159 .0360223
496.011 .0359810
496.862 .0359326
497.713 .0358741
498.562 .0358085
499.411 .0357396
500.259 .0356669
501.106 .0355935
501.952 .0355207
502.798 .0354502
503.642 .0353795
504.486 .0353091
505.329 .0352383
506.171 .0351639
507.012 .0350955
507.852 .0350224
508.692 .0349521
509.531 .0348851
510.369 .0348245
511.206 .0347711
512.043 .0347173
512.878 .0346617
513.713 .0345967
514.547 .0345191
515.381 .0344303
516.213 .0343250
517.045 .0342022
517.876 .0340587
518.706 .0338993
519.536 .0337286
520.365 .0335558
521.193 .0333705
522.020 .0331897
522.847 .0330115
523.673 .0328375
524.498 .0326521
525.323 .0324577
526.146 .0322671
526.969 .0320722
527.792 .0318694
528.614 .0316641
529.435 .0314615
530.255 .0312808
531.075 .0311136
531.894 .0309689
532.712 .0308488
533.530 .0307537
534.347 .0306753
535.163 .0306079
535.979 .0305415
536.794 .0304756
537.608 .0304026
538.422 .0303339
539.235 .0302646
540.048 .0301953
540.860 .0301345
541.671 .0300925
542.481 .0300686
543.292 .0300569
544.101 .0300560
544.910 .0300695
545.718 .0300911
546.526 .0301155
547.333 .0301414
548.139 .0301765
548.945 .0302231
549.750 .0302837
550.555 .0303522
551.359 .0304392
552.162 .0305368
552.965 .0306399
553.768 .0307526
554.569 .0308660
555.371 .0309775
556.171 .0310823
556.972 .0311806
557.771 .0312635
558.570 .0313296
559.369 .0313842
560.167 .0314277
560.964 .0314638
561.761 .0314920
562.558 .0315127
563.354 .0315333
564.149 .0315537
564.944 .0315746
565.738 .0315952
566.532 .0316219
567.325 .0316469
568.118 .0316736
568.910 .0316983
569.702 .0317285
570.494 .0317644
571.285 .0318094
572.075 .0318617
572.865 .0319191
573.654 .0319787
574.443 .0320400
575.232 .0320974
576.020 .0321507
576.807 .0321976
577.594 .0322420
578.381 .0322834
579.167 .0323272
579.952 .0323733
580.738 .0324253
581.522 .0324821
582.307 .0325407
583.091 .0325946
583.874 .0326444
584.657 .0326838
585.440 .0327169
586.222 .0327434
587.004 .0327669
587.785 .0327890
588.566 .0328110
589.346 .0328360
590.126 .0328620
590.906 .0328870
591.685 .0329103
592.464 .0329277
593.242 .0329396
594.020 .0329424
594.797 .0329406
595.575 .0329348
596.351 .0329271
597.128 .0329201
597.904 .0329145
598.679 .0329100
599.454 .0329077
600.229 .0329048
601.004 .0328998
601.778 .0328919
602.551 .0328786
603.325 .0328609
604.097 .0328399
604.870 .0328169
605.642 .0327949
606.414 .0327742
607.185 .0327572
607.956 .0327419
608.727 .0327280
609.497 .0327148
610.267 .0327005
611.037 .0326845
611.806 .0326657
612.575 .0326443
613.344 .0326218
614.112 .0325983
614.880 .0325761
615.647 .0325549
616.414 .0325343
617.181 .0325151
617.948 .0324964
618.714 .0324767
619.480 .0324569
620.245 .0324358
621.011 .0324139
621.775 .0323912
622.540 .0323680
623.304 .0323441
624.068 .0323207
624.832 .0322985
625.595 .0322755
626.358 .0322516
627.120 .0322281
627.883 .0322032
628.645 .0321781
629.406 .0321529
630.168 .0321269
630.929 .0320995
631.689 .0320713
632.450 .0320414
633.210 .0320100
633.970 .0319773
634.729 .0319451
635.489 .0319119
636.248 .0318795
637.006 .0318481
637.765 .0318169
638.523 .0317875
639.280 .0317598
640.038 .0317325
640.795 .0317054
641.552 .0316796
642.309 .0316549
643.065 .0316312
643.821 .0316101
644.577 .0315904
645.332 .0315726
646.088 .0315574
646.843 .0315437
647.597 .0315301
648.352 .0315174
649.106 .0315052
649.860 .0314915
650.613 .0314771
651.367 .0314615
652.120 .0314455
652.872 .0314295
653.625 .0314140
654.377 .0313985
655.129 .0313834
655.881 .0313686
656.632 .0313532
657.384 .0313371
658.135 .0313195
658.885 .0312993
659.636 .0312772
660.386 .0312535
661.136 .0312292
661.885 .0312049
662.635 .0311825
663.384 .0311620
664.133 .0311440
664.881 .0311277
665.630 .0311128
666.378 .0310998
667.126 .0310878
667.874 .0310759
668.621 .0310640
669.368 .0310524
670.115 .0310410
670.862 .0310302
671.608 .0310207
672.354 .0310117
673.100 .0310031
673.846 .0309949
674.591 .0309861
675.337 .0309771
676.082 .0309674
676.826 .0309577
677.571 .0309475
678.315 .0309371
679.059 .0309262
679.803 .0309142
680.547 .0309020
681.290 .0308896
682.033 .0308765
682.776 .0308633
683.518 .0308496
684.261 .0308358
685.003 .0308217
685.745 .0308066
686.487 .0307904
687.228 .0307726
687.969 .0307532
688.710 .0307322
689.451 .0307087
690.192 .0306834
690.932 .0306559
691.672 .0306263
692.412 .0305953
693.152 .0305636
693.891 .0305321
694.630 .0305007
695.369 .0304702
696.108 .0304411
696.846 .0304127
697.585 .0303854
698.323 .0303591
699.061 .0303336
699.798 .0303090
700.536 .0302850
701.273 .0302621
702.010 .0302409
702.746 .0302220
703.483 .0302048
704.219 .0301894
704.955 .0301754
705.691 .0301617
706.427 .0301467
707.162 .0301310
707.897 .0301133
708.632 .0300941
709.367 .0300737
710.101 .0300522
710.835 .0300296
711.569 .0300069
712.303 .0299835
713.037 .0299599
713.770 .0299357
714.503 .0299108
715.236 .0298841
715.969 .0298567
716.702 .0298283
717.434 .0298001
718.166 .0297720
718.898 .0297442
719.629 .0297169
720.361 .0296900
721.092 .0296631
721.823 .0296367
722.554 .0296114
723.284 .0295879
724.014 .0295651
724.744 .0295437
725.474 .0295227
726.204 .0295028
726.933 .0294831
727.662 .0294634
728.391 .0294438
729.120 .0294246
729.849 .0294053
730.577 .0293861
731.305 .0293669
732.033 .0293484
732.760 .0293295
733.488 .0293106
734.215 .0292906
734.942 .0292698
735.669 .0292479
736.395 .0292262
737.122 .0292043
737.848 .0291831
738.573 .0291626
739.299 .0291433
740.024 .0291249
740.750 .0291068
741.474 .0290886
742.199 .0290707
742.924 .0290527
743.648 .0290347
744.372 .0290171
745.096 .0290009
745.819 .0289861
746.543 .0289734
747.266 .0289624
747.989 .0289529
748.711 .0289442
749.434 .0289362
750.156 .0289284
750.878 .0289207
751.599 .0289139
752.321 .0289080
753.042 .0289032
753.763 .0288999
754.484 .0288967
755.205 .0288937
755.925 .0288912
756.645 .0288882
757.365 .0288843
758.085 .0288799
758.804 .0288747
759.523 .0288688
760.242 .0288621
760.961 .0288544
761.679 .0288453
762.397 .0288339
763.115 .0288198
763.833 .0288021
764.551 .0287814
765.268 .0287581
765.985 .0287325
766.702 .0287063
767.418 .0286800
768.134 .0286541
768.850 .0286290
769.566 .0286047
770.282 .0285811
770.997 .0285576
771.712 .0285339
772.427 .0285105
773.142 .0284874
773.856 .0284652
774.570 .0284445
775.284 .0284256
775.998 .0284084
776.711 .0283934
777.424 .0283804
778.137 .0283695
778.849 .0283595
779.562 .0283508
780.274 .0283424
780.986 .0283342
781.697 .0283256
782.409 .0283166
783.120 .0283077
783.831 .0282995
784.541 .0282912
785.252 .0282836
785.962 .0282764
786.671 .0282703
787.381 .0282645
788.090 .0282589
788.799 .0282530
789.508 .0282464
790.217 .0282384
790.925 .0282296
791.633 .0282191
792.341 .0282081
793.048 .0281962
793.755 .0281833
794.462 .0281699
795.169 .0281561
795.875 .0281417
796.581 .0281272
797.287 .0281126
797.993 .0280970
798.698 .0280811
799.403 .0280651
800.108 .0280487
800.812 .0280331
801.517 .0280179
802.221 .0280032
802.924 .0279890
803.628 .0279754
804.331 .0279619
805.034 .0279489
805.736 .0279367
806.439 .0279240
807.141 .0279118
807.843 .0279001
808.544 .0278878
809.245 .0278754
809.946 .0278628
810.647 .0278495
811.347 .0278360
812.047 .0278225
812.747 .0278086
813.447 .0277949
814.146 .0277817
814.845 .0277693
815.543 .0277571
816.242 .0277455
816.940 .0277340
817.638 .0277218
818.335 .0277099
819.032 .0276968
819.729 .0276829
820.426 .0276688
821.122 .0276541
821.818 .0276389
822.514 .0276229
823.209 .0276066
823.905 .0275896
824.599 .0275716
825.294 .0275527
825.988 .0275326
826.682 .0275122
827.376 .0274924
828.069 .0274729
828.762 .0274547
829.455 .0274383
830.147 .0274233
830.840 .0274098
831.531 .0273970
832.223 .0273848
832.914 .0273727
833.605 .0273604
834.296 .0273484
834.986 .0273362
835.676 .0273250
836.366 .0273144
837.055 .0273047
837.744 .0272961
838.433 .0272876
839.121 .0272787
839.809 .0272686
840.497 .0272568
841.185 .0272430
841.872 .0272273
842.559 .0272097
843.245 .0271914
843.932 .0271728
844.617 .0271546
845.303 .0271373
845.988 .0271211
846.673 .0271058
847.358 .0270907
848.042 .0270761
848.726 .0270613
849.410 .0270455
850.093 .0270295
850.776 .0270129
851.459 .0269964
852.141 .0269795
852.823 .0269626
853.505 .0269459
854.186 .0269291
854.867 .0269117
855.548 .0268941
856.228 .0268763
856.908 .0268588
857.588 .0268412
858.267 .0268241
858.946 .0268075
859.625 .0267918
860.303 .0267765
860.981 .0267622
861.659 .0267480
862.336 .0267340
863.013 .0267198
863.690 .0267057
864.366 .0266916
865.042 .0266781
865.718 .0266654
866.393 .0266540
867.068 .0266435
867.743 .0266341
868.417 .0266248
869.091 .0266162
869.765 .0266069
870.438 .0265969
871.111 .0265856
871.783 .0265731
872.456 .0265589
873.127 .0265437
873.799 .0265281
874.470 .0265122
875.141 .0264965
875.811 .0264817
876.481 .0264672
877.151 .0264533
877.820 .0264397
878.489 .0264271
879.158 .0264149
879.826 .0264042
880.494 .0263941
881.162 .0263847
881.829 .0263763
882.496 .0263685
883.163 .0263604
883.829 .0263525
884.495 .0263443
885.160 .0263360
885.825 .0263278
886.490 .0263205
887.154 .0263138
887.818 .0263087
888.482 .0263047
889.145 .0263019
889.808 .0262990
890.471 .0262963
891.133 .0262933
891.795 .0262899
892.456 .0262864
893.117 .0262818
893.778 .0262764
894.439 .0262708
895.099 .0262639
895.758 .0262564
896.417 .0262480
897.076 .0262390
897.735 .0262295
898.393 .0262198
899.051 .0262096
899.708 .0261999
900.365 .0261906
901.022 .0261814
901.678 .0261712
902.334 .0261610
902.990 .0261495
903.645 .0261370
904.300 .0261243
904.954 .0261116
905.608 .0260989
906.262 .0260878
906.915 .0260781
907.568 .0260701
908.221 .0260642
908.873 .0260595
909.525 .0260553
910.176 .0260515
910.828 .0260468
911.478 .0260408
912.129 .0260338
912.778 .0260262
913.428 .0260169
914.077 .0260075
914.726 .0259983
915.375 .0259893
916.023 .0259814
916.670 .0259752
917.318 .0259698
917.964 .0259646
918.611 .0259588
919.257 .0259519
919.903 .0259432
920.548 .0259333
921.193 .0259218
921.838 .0259098
922.482 .0258979
923.126 .0258868
923.770 .0258767
924.413 .0258687
925.056 .0258620
925.698 .0258562
926.340 .0258507
926.982 .0258449
927.623 .0258381
928.264 .0258301
928.904 .0258218
929.544 .0258129
930.184 .0258036
930.823 .0257941
931.462 .0257851
932.101 .0257759
932.739 .0257668
933.377 .0257568
934.014 .0257460
934.651 .0257338
935.288 .0257206
935.924 .0257063
936.560 .0256914
937.196 .0256771
937.831 .0256632
938.466 .0256495
939.100 .0256370
939.734 .0256237
940.368 .0256110
941.001 .0255985
941.634 .0255861
942.266 .0255729
942.899 .0255599
943.530 .0255465
944.162 .0255323
944.793 .0255176
945.423 .0255020
946.053 .0254849
946.683 .0254665
947.313 .0254466
947.942 .0254245
948.571 .0254014
949.199 .0253778
949.827 .0253536
950.455 .0253298
951.082 .0253065
951.709 .0252837
952.335 .0252622
952.961 .0252418
953.587 .0252223
954.212 .0252034
954.837 .0251864
955.462 .0251706
956.086 .0251566
956.710 .0251439
957.334 .0251334
957.957 .0251244
958.579 .0251170
959.202 .0251099
959.824 .0251033
960.445 .0250970
961.067 .0250919
961.688 .0250869
962.308 .0250825
962.928 .0250781
963.548 .0250739
964.168 .0250687
964.787 .0250625
965.406 .0250546
966.024 .0250454
966.642 .0250352
967.260 .0250248
967.877 .0250140
968.494 .0250040
969.110 .0249944
969.727 .0249853
970.342 .0249763
970.958 .0249669
971.573 .0249566
972.188 .0249460
972.802 .0249350
973.416 .0249240
974.030 .0249133
974.643 .0249034
975.256 .0248945
975.869 .0248862
976.481 .0248784
977.093 .0248703
977.705 .0248621
978.316 .0248541
978.927 .0248455
979.538 .0248371
980.148 .0248292
980.758 .0248223
981.367 .0248160
981.977 .0248107
982.586 .0248061
983.194 .0248018
983.802 .0247981
984.410 .0247944
985.018 .0247910
985.625 .0247881
986.232 .0247855
986.838 .0247835
987.445 .0247821
988.050 .0247812
988.656 .0247801
989.261 .0247790
989.866 .0247767
990.471 .0247730
991.075 .0247680
991.679 .0247612
992.282 .0247525
992.886 .0247423
993.489 .0247316
994.091 .0247205
994.694 .0247106
995.296 .0247015
995.897 .0246935
996.499 .0246867
997.100 .0246797
997.701 .0246724
998.301 .0246652
998.901 .0246576
999.501 .0246502
1000.101 .0246435
1000.700 .0246387
1001.299 .0246356
1001.898 .0246354
1002.496 .0246372
1003.094 .0246404
1003.692 .0246438
1004.289 .0246466
1004.887 .0246471
1005.484 .0246463
1006.080 .0246432
1006.677 .0246380
1007.273 .0246318
1007.868 .0246254
1008.464 .0246195
1009.059 .0246145
1009.654 .0246111
1010.249 .0246097
1010.843 .0246086
1011.437 .0246084
1012.031 .0246078
1012.625 .0246075
1013.218 .0246074
1013.811 .0246075
1014.404 .0246083
1014.997 .0246105
1015.589 .0246135
1016.181 .0246179
1016.773 .0246238
1017.365 .0246311
1017.956 .0246384
1018.547 .0246450
1019.138 .0246510
1019.728 .0246552
1020.319 .0246580
1020.909 .0246605
1021.499 .0246615
1022.088 .0246625
1022.678 .0246622
1023.267 .0246604
1023.856 .0246579
1024.445 .0246539
1025.033 .0246486
1025.621 .0246429
1026.209 .0246375
1026.797 .0246323
1027.385 .0246285
1027.972 .0246267
1028.560 .0246264
1029.147 .0246268
1029.734 .0246278
1030.320 .0246272
1030.907 .0246250
1031.493 .0246213
1032.079 .0246150
1032.665 .0246094
1033.250 .0246048
1033.836 .0246011
1034.421 .0246005
1035.006 .0246019
1035.591 .0246048
1036.176 .0246084
1036.761 .0246118
1037.345 .0246134
1037.929 .0246118
1038.514 .0246068
1039.097 .0245986
1039.681 .0245886
1040.265 .0245782
1040.848 .0245682
1041.432 .0245604
1042.015 .0245550
1042.598 .0245510
1043.181 .0245482
1043.764 .0245464
1044.346 .0245439
1044.929 .0245406
1045.511 .0245360
1046.094 .0245296
1046.676 .0245230
1047.258 .0245172
1047.840 .0245126
1048.422 .0245112
1049.003 .0245124
1049.585 .0245158
1050.166 .0245203
1050.748 .0245259
1051.329 .0245310
1051.910 .0245352
1052.491 .0245392
1053.072 .0245415
1053.653 .0245419
1054.234 .0245407
1054.815 .0245364
1055.396 .0245288
1055.976 .0245183
1056.557 .0245049
1057.138 .0244884
1057.718 .0244720
1058.298 .0244567
1058.879 .0244430
1059.459 .0244322
1060.039 .0244248
1060.620 .0244190
1061.200 .0244145
1061.780 .0244101
1062.360 .0244018
1062.940 .0243907
1063.520 .0243786
1064.101 .0243659
1064.681 .0243550
1065.261 .0243475
1065.841 .0243437
1066.421 .0243440
1067.001 .0243462
1067.581 .0243489
1068.161 .0243488
1068.741 .0243455
1069.321 .0243378
1069.901 .0243260
1070.482 .0243104
1071.062 .0242937
1071.642 .0242781
1072.222 .0242664
1072.803 .0242574
1073.383 .0242523
1073.963 .0242495
1074.544 .0242496
1075.124 .0242532
1075.705 .0242579
1076.286 .0242626
1076.866 .0242687
1077.447 .0242744
1078.028 .0242792
1078.609 .0242824
1079.190 .0242849
1079.771 .0242854
1080.352 .0242859
1080.934 .0242855
1081.515 .0242831
1082.097 .0242806
1082.679 .0242780
1083.260 .0242716
1083.842 .0242615
1084.424 .0242495
1085.007 .0242339
1085.589 .0242156
1086.172 .0241967
1086.754 .0241768
1087.337 .0241564
1087.920 .0241386
1088.503 .0241240
1089.087 .0241129
1089.670 .0241072
1090.254 .0241049
1090.838 .0241033
1091.422 .0241057
1092.006 .0241107
1092.590 .0241171
1093.175 .0241254
1093.760 .0241358
1094.345 .0241442
1094.930 .0241502
1095.516 .0241557
1096.102 .0241584
1096.688 .0241606
1097.274 .0241639
1097.860 .0241649
1098.447 .0241638
1099.034 .0241604
1099.622 .0241554
1100.209 .0241498
1100.797 .0241426
1101.385 .0241335
1101.973 .0241237
1102.562 .0241136
1103.151 .0241046
1103.740 .0240965
1104.330 .0240905
1104.920 .0240862
1105.510 .0240804
1106.101 .0240735
1106.691 .0240667
1107.283 .0240624
1107.874 .0240615
1108.466 .0240632
1109.058 .0240708
1109.651 .0240788
1110.244 .0240855
1110.837 .0240914
1111.431 .0240938
1112.025 .0240919
1112.620 .0240889
1113.215 .0240861
1113.810 .0240852
1114.406 .0240896
1115.002 .0240994
1115.599 .0241144
1116.196 .0241347
1116.793 .0241519
1117.391 .0241623
1117.989 .0241632
1118.588 .0241570
1119.187 .0241393
1119.787 .0241138
1120.387 .0240870
1120.988 .0240625
1121.589 .0240429
1122.190 .0240326
1122.793 .0240328
1123.395 .0240442
1123.998 .0240615
1124.602 .0240846
1125.206 .0241073
1125.811 .0241317
1126.416 .0241516
1127.022 .0241734
1127.628 .0241987
1128.235 .0242320
1128.843 .0242750
1129.451 .0243300
1130.059 .0244024
1130.669 .0244840
1131.278 .0245704
1131.889 .0246586
1132.500 .0247397
1133.112 .0248070
1133.724 .0248564
1134.337 .0248954
1134.950 .0249191
1135.564 .0249348
1136.179 .0249465
1136.795 .0249656
1137.411 .0249925
1138.028 .0250259
1138.645 .0250636
1139.263 .0251013
1139.882 .0251378
1140.502 .0251643
1141.122 .0251897
1141.743 .0252348
1142.365 .0253180
1142.987 .0251232
1143.611 .0252171
1144.235 .0255195
1144.859 .0259550
1145.485 .0266885
