Measurement Sequence started on: 10-20-44-796
Integration time: 35
Scans to Average: 2 
>>>>>Begin Spectral Data<<<<<
432.953 .0455048
433.882 .0374079
434.810 .0324633
435.737 .0345394
436.662 .0343061
437.586 .0354688
438.509 .0352044
439.431 .0352796
440.351 .0354774
441.269 .0355927
442.187 .0357143
443.103 .0358125
444.018 .0359060
444.932 .0360027
445.844 .0360854
446.756 .0361506
447.666 .0361820
448.575 .0361929
449.482 .0361932
450.388 .0361898
451.294 .0361900
452.198 .0361910
453.100 .0361965
454.002 .0361974
454.902 .0361795
455.801 .0361442
456.699 .0360946
457.596 .0360344
458.492 .0359651
459.387 .0358925
460.280 .0358253
461.172 .0357606
462.064 .0357021
462.954 .0356450
463.843 .0355926
464.730 .0355408
465.617 .0354876
466.503 .0354330
467.387 .0353788
468.271 .0353206
469.153 .0352639
470.035 .0352083
470.915 .0351550
471.794 .0350950
472.673 .0350295
473.550 .0349603
474.426 .0348946
475.301 .0348326
476.175 .0347753
477.048 .0347194
477.920 .0346718
478.791 .0346221
479.661 .0345708
480.530 .0345171
481.398 .0344611
482.266 .0344061
483.132 .0343575
483.997 .0343155
484.861 .0342858
485.724 .0342731
486.587 .0342763
487.448 .0342884
488.308 .0343070
489.168 .0343237
490.026 .0343336
490.884 .0343382
491.741 .0343365
492.597 .0343257
493.452 .0343121
494.306 .0342994
495.159 .0342875
496.011 .0342790
496.862 .0342712
497.713 .0342600
498.562 .0342418
499.411 .0342154
500.259 .0341754
501.106 .0341245
501.952 .0340658
502.798 .0340016
503.642 .0339330
504.486 .0338654
505.329 .0337985
506.171 .0337341
507.012 .0336721
507.852 .0336095
508.692 .0335399
509.531 .0334613
510.369 .0333703
511.206 .0332686
512.043 .0331549
512.878 .0330329
513.713 .0329000
514.547 .0327593
515.381 .0326150
516.213 .0324640
517.045 .0323061
517.876 .0321388
518.706 .0319561
519.536 .0317610
520.365 .0315583
521.193 .0313481
522.020 .0311397
522.847 .0309384
523.673 .0307499
524.498 .0305691
525.323 .0303949
526.146 .0302306
526.969 .0300728
527.792 .0299249
528.614 .0297805
529.435 .0296419
530.255 .0295181
531.075 .0293994
531.894 .0292961
532.712 .0292081
533.530 .0291320
534.347 .0290611
535.163 .0289970
535.979 .0289430
536.794 .0288976
537.608 .0288616
538.422 .0288425
539.235 .0288411
540.048 .0288537
540.860 .0288680
541.671 .0288841
542.481 .0289040
543.292 .0289215
544.101 .0289305
544.910 .0289345
545.718 .0289372
546.526 .0289425
547.333 .0289505
548.139 .0289694
548.945 .0290034
549.750 .0290419
550.555 .0290837
551.359 .0291283
552.162 .0291750
552.965 .0292191
553.768 .0292667
554.569 .0293154
555.371 .0293701
556.171 .0294287
556.972 .0294878
557.771 .0295504
558.570 .0296163
559.369 .0296781
560.167 .0297366
560.964 .0297904
561.761 .0298353
562.558 .0298716
563.354 .0299061
564.149 .0299356
564.944 .0299624
565.738 .0299903
566.532 .0300184
567.325 .0300515
568.118 .0300920
568.910 .0301378
569.702 .0301926
570.494 .0302595
571.285 .0303336
572.075 .0304135
572.865 .0304986
573.654 .0305876
574.443 .0306793
575.232 .0307719
576.020 .0308607
576.807 .0309457
577.594 .0310272
578.381 .0311043
579.167 .0311740
579.952 .0312393
580.738 .0312985
581.522 .0313549
582.307 .0314088
583.091 .0314596
583.874 .0315083
584.657 .0315560
585.440 .0316024
586.222 .0316466
587.004 .0316867
587.785 .0317254
588.566 .0317612
589.346 .0317947
590.126 .0318244
590.906 .0318513
591.685 .0318751
592.464 .0318953
593.242 .0319116
594.020 .0319236
594.797 .0319331
595.575 .0319393
596.351 .0319419
597.128 .0319417
597.904 .0319386
598.679 .0319324
599.454 .0319231
600.229 .0319124
601.004 .0318991
601.778 .0318844
602.551 .0318693
603.325 .0318542
604.097 .0318400
604.870 .0318265
605.642 .0318146
606.414 .0318049
607.185 .0317960
607.956 .0317884
608.727 .0317809
609.497 .0317742
610.267 .0317676
611.037 .0317611
611.806 .0317547
612.575 .0317488
613.344 .0317427
614.112 .0317363
614.880 .0317287
615.647 .0317199
616.414 .0317090
617.181 .0316957
617.948 .0316802
618.714 .0316621
619.480 .0316412
620.245 .0316196
621.011 .0315961
621.775 .0315716
622.540 .0315461
623.304 .0315204
624.068 .0314940
624.832 .0314670
625.595 .0314400
626.358 .0314122
627.120 .0313844
627.883 .0313565
628.645 .0313282
629.406 .0313010
630.168 .0312749
630.929 .0312507
631.689 .0312283
632.450 .0312081
633.210 .0311895
633.970 .0311712
634.729 .0311535
635.489 .0311348
636.248 .0311136
637.006 .0310910
637.765 .0310664
638.523 .0310404
639.280 .0310145
640.038 .0309891
640.795 .0309654
641.552 .0309437
642.309 .0309238
643.065 .0309049
643.821 .0308865
644.577 .0308684
645.332 .0308496
646.088 .0308302
646.843 .0308109
647.597 .0307915
648.352 .0307732
649.106 .0307565
649.860 .0307406
650.613 .0307265
651.367 .0307135
652.120 .0307005
652.872 .0306869
653.625 .0306722
654.377 .0306564
655.129 .0306394
655.881 .0306215
656.632 .0306027
657.384 .0305832
658.135 .0305638
658.885 .0305441
659.636 .0305245
660.386 .0305064
661.136 .0304892
661.885 .0304733
662.635 .0304589
663.384 .0304451
664.133 .0304313
664.881 .0304177
665.630 .0304038
666.378 .0303895
667.126 .0303744
667.874 .0303586
668.621 .0303427
669.368 .0303277
670.115 .0303137
670.862 .0303002
671.608 .0302883
672.354 .0302776
673.100 .0302669
673.846 .0302558
674.591 .0302439
675.337 .0302316
676.082 .0302191
676.826 .0302064
677.571 .0301940
678.315 .0301820
679.059 .0301715
679.803 .0301615
680.547 .0301523
681.290 .0301436
682.033 .0301339
682.776 .0301230
683.518 .0301108
684.261 .0300970
685.003 .0300820
685.745 .0300663
686.487 .0300509
687.228 .0300360
687.969 .0300216
688.710 .0300080
689.451 .0299948
690.192 .0299822
690.932 .0299695
691.672 .0299559
692.412 .0299415
693.152 .0299262
693.891 .0299099
694.630 .0298934
695.369 .0298768
696.108 .0298602
696.846 .0298435
697.585 .0298272
698.323 .0298108
699.061 .0297939
699.798 .0297766
700.536 .0297588
701.273 .0297403
702.010 .0297217
702.746 .0297029
703.483 .0296846
704.219 .0296669
704.955 .0296507
705.691 .0296350
706.427 .0296196
707.162 .0296042
707.897 .0295881
708.632 .0295709
709.367 .0295526
710.101 .0295328
710.835 .0295116
711.569 .0294897
712.303 .0294674
713.037 .0294445
713.770 .0294221
714.503 .0294000
715.236 .0293776
715.969 .0293555
716.702 .0293335
717.434 .0293113
718.166 .0292891
718.898 .0292674
719.629 .0292456
720.361 .0292245
721.092 .0292036
721.823 .0291830
722.554 .0291624
723.284 .0291423
724.014 .0291213
724.744 .0290994
725.474 .0290766
726.204 .0290525
726.933 .0290272
727.662 .0290014
728.391 .0289743
729.120 .0289466
729.849 .0289183
730.577 .0288902
731.305 .0288619
732.033 .0288343
732.760 .0288070
733.488 .0287809
734.215 .0287558
734.942 .0287316
735.669 .0287079
736.395 .0286859
737.122 .0286652
737.848 .0286455
738.573 .0286264
739.299 .0286082
740.024 .0285906
740.750 .0285736
741.474 .0285565
742.199 .0285392
742.924 .0285214
743.648 .0285039
744.372 .0284858
745.096 .0284680
745.819 .0284502
746.543 .0284329
747.266 .0284158
747.989 .0283989
748.711 .0283821
749.434 .0283661
750.156 .0283508
750.878 .0283368
751.599 .0283238
752.321 .0283120
753.042 .0283014
753.763 .0282921
754.484 .0282840
755.205 .0282763
755.925 .0282691
756.645 .0282619
757.365 .0282545
758.085 .0282470
758.804 .0282389
759.523 .0282302
760.242 .0282209
760.961 .0282104
761.679 .0281987
762.397 .0281853
763.115 .0281701
763.833 .0281533
764.551 .0281348
765.268 .0281142
765.985 .0280920
766.702 .0280691
767.418 .0280459
768.134 .0280225
768.850 .0279995
769.566 .0279772
770.282 .0279551
770.997 .0279340
771.712 .0279134
772.427 .0278928
773.142 .0278729
773.856 .0278531
774.570 .0278332
775.284 .0278143
775.998 .0277957
776.711 .0277783
777.424 .0277621
778.137 .0277475
778.849 .0277335
779.562 .0277201
780.274 .0277074
780.986 .0276951
781.697 .0276832
782.409 .0276721
783.120 .0276617
783.831 .0276531
784.541 .0276461
785.252 .0276406
785.962 .0276365
786.671 .0276332
787.381 .0276297
788.090 .0276261
788.799 .0276211
789.508 .0276148
790.217 .0276071
790.925 .0275985
791.633 .0275895
792.341 .0275798
793.048 .0275697
793.755 .0275594
794.462 .0275488
795.169 .0275377
795.875 .0275260
796.581 .0275144
797.287 .0275031
797.993 .0274917
798.698 .0274811
799.403 .0274713
800.108 .0274627
800.812 .0274555
801.517 .0274493
802.221 .0274438
802.924 .0274387
803.628 .0274335
804.331 .0274281
805.034 .0274225
805.736 .0274166
806.439 .0274098
807.141 .0274022
807.843 .0273939
808.544 .0273842
809.245 .0273732
809.946 .0273617
810.647 .0273490
811.347 .0273356
812.047 .0273213
812.747 .0273068
813.447 .0272917
814.146 .0272768
814.845 .0272625
815.543 .0272485
816.242 .0272356
816.940 .0272238
817.638 .0272132
818.335 .0272040
819.032 .0271959
819.729 .0271890
820.426 .0271830
821.122 .0271779
821.818 .0271726
822.514 .0271674
823.209 .0271623
823.905 .0271569
824.599 .0271503
825.294 .0271428
825.988 .0271341
826.682 .0271235
827.376 .0271114
828.069 .0270973
828.762 .0270812
829.455 .0270629
830.147 .0270427
830.840 .0270206
831.531 .0269967
832.223 .0269717
832.914 .0269455
833.605 .0269189
834.296 .0268925
834.986 .0268660
835.676 .0268399
836.366 .0268148
837.055 .0267906
837.744 .0267674
838.433 .0267450
839.121 .0267236
839.809 .0267034
840.497 .0266842
841.185 .0266663
841.872 .0266493
842.559 .0266340
843.245 .0266203
843.932 .0266082
844.617 .0265977
845.303 .0265884
845.988 .0265803
846.673 .0265724
847.358 .0265645
848.042 .0265564
848.726 .0265475
849.410 .0265372
850.093 .0265260
850.776 .0265134
851.459 .0264992
852.141 .0264835
852.823 .0264661
853.505 .0264475
854.186 .0264272
854.867 .0264052
855.548 .0263816
856.228 .0263568
856.908 .0263309
857.588 .0263040
858.267 .0262773
858.946 .0262508
859.625 .0262248
860.303 .0262004
860.981 .0261777
861.659 .0261570
862.336 .0261383
863.013 .0261213
863.690 .0261060
864.366 .0260923
865.042 .0260795
865.718 .0260676
866.393 .0260567
867.068 .0260466
867.743 .0260368
868.417 .0260276
869.091 .0260187
869.765 .0260095
870.438 .0259997
871.111 .0259890
871.783 .0259769
872.456 .0259639
873.127 .0259496
873.799 .0259341
874.470 .0259182
875.141 .0259016
875.811 .0258841
876.481 .0258661
877.151 .0258475
877.820 .0258279
878.489 .0258076
879.158 .0257867
879.826 .0257652
880.494 .0257444
881.162 .0257242
881.829 .0257054
882.496 .0256883
883.163 .0256729
883.829 .0256587
884.495 .0256458
885.160 .0256346
885.825 .0256242
886.490 .0256153
887.154 .0256079
887.818 .0256018
888.482 .0255967
889.145 .0255925
889.808 .0255891
890.471 .0255856
891.133 .0255815
891.795 .0255760
892.456 .0255689
893.117 .0255605
893.778 .0255505
894.439 .0255397
895.099 .0255284
895.758 .0255167
896.417 .0255047
897.076 .0254923
897.735 .0254796
898.393 .0254668
899.051 .0254540
899.708 .0254416
900.365 .0254294
901.022 .0254184
901.678 .0254087
902.334 .0254005
902.990 .0253938
903.645 .0253884
904.300 .0253842
904.954 .0253812
905.608 .0253787
906.262 .0253772
906.915 .0253763
907.568 .0253763
908.221 .0253769
908.873 .0253773
909.525 .0253772
910.176 .0253767
910.828 .0253749
911.478 .0253718
912.129 .0253672
912.778 .0253611
913.428 .0253543
914.077 .0253465
914.726 .0253384
915.375 .0253298
916.023 .0253215
916.670 .0253132
917.318 .0253043
917.964 .0252950
918.611 .0252843
919.257 .0252728
919.903 .0252608
920.548 .0252479
921.193 .0252350
921.838 .0252230
922.482 .0252118
923.126 .0252018
923.770 .0251934
924.413 .0251861
925.056 .0251799
925.698 .0251750
926.340 .0251702
926.982 .0251655
927.623 .0251609
928.264 .0251566
928.904 .0251523
929.544 .0251491
930.184 .0251468
930.823 .0251448
931.462 .0251442
932.101 .0251442
932.739 .0251442
933.377 .0251441
934.014 .0251428
934.651 .0251402
935.288 .0251357
935.924 .0251297
936.560 .0251217
937.196 .0251126
937.831 .0251028
938.466 .0250919
939.100 .0250801
939.734 .0250677
940.368 .0250544
941.001 .0250401
941.634 .0250251
942.266 .0250094
942.899 .0249927
943.530 .0249758
944.162 .0249589
944.793 .0249422
945.423 .0249255
946.053 .0249092
946.683 .0248929
947.313 .0248768
947.942 .0248608
948.571 .0248443
949.199 .0248277
949.827 .0248110
950.455 .0247945
951.082 .0247782
951.709 .0247624
952.335 .0247474
952.961 .0247330
953.587 .0247194
954.212 .0247058
954.837 .0246926
955.462 .0246799
956.086 .0246682
956.710 .0246574
957.334 .0246481
957.957 .0246403
958.579 .0246340
959.202 .0246288
959.824 .0246246
960.445 .0246205
961.067 .0246164
961.688 .0246119
962.308 .0246069
962.928 .0246017
963.548 .0245970
964.168 .0245922
964.787 .0245877
965.406 .0245835
966.024 .0245786
966.642 .0245724
967.260 .0245656
967.877 .0245574
968.494 .0245483
969.110 .0245387
969.727 .0245292
970.342 .0245203
970.958 .0245125
971.573 .0245058
972.188 .0245000
972.802 .0244954
973.416 .0244903
974.030 .0244843
974.643 .0244782
975.256 .0244717
975.869 .0244647
976.481 .0244581
977.093 .0244523
977.705 .0244476
978.316 .0244446
978.927 .0244424
979.538 .0244411
980.148 .0244402
980.758 .0244389
981.367 .0244366
981.977 .0244341
982.586 .0244307
983.194 .0244268
983.802 .0244239
984.410 .0244212
985.018 .0244186
985.625 .0244168
986.232 .0244150
986.838 .0244132
987.445 .0244113
988.050 .0244086
988.656 .0244045
989.261 .0244001
989.866 .0243944
990.471 .0243882
991.075 .0243822
991.679 .0243763
992.282 .0243704
992.886 .0243651
993.489 .0243597
994.091 .0243537
994.694 .0243473
995.296 .0243402
995.897 .0243322
996.499 .0243239
997.100 .0243153
997.701 .0243071
998.301 .0242999
998.901 .0242944
999.501 .0242900
1000.101 .0242876
1000.700 .0242856
1001.299 .0242835
1001.898 .0242813
1002.496 .0242786
1003.094 .0242748
1003.692 .0242706
1004.289 .0242662
1004.887 .0242629
1005.484 .0242600
1006.080 .0242580
1006.677 .0242569
1007.273 .0242568
1007.868 .0242571
1008.464 .0242569
1009.059 .0242556
1009.654 .0242532
1010.249 .0242493
1010.843 .0242447
1011.437 .0242388
1012.031 .0242323
1012.625 .0242253
1013.218 .0242184
1013.811 .0242117
1014.404 .0242052
1014.997 .0241987
1015.589 .0241929
1016.181 .0241877
1016.773 .0241826
1017.365 .0241780
1017.956 .0241732
1018.547 .0241686
1019.138 .0241645
1019.728 .0241599
1020.319 .0241559
1020.909 .0241516
1021.499 .0241482
1022.088 .0241455
1022.678 .0241435
1023.267 .0241421
1023.856 .0241404
1024.445 .0241389
1025.033 .0241368
1025.621 .0241336
1026.209 .0241298
1026.797 .0241248
1027.385 .0241188
1027.972 .0241120
1028.560 .0241051
1029.147 .0240981
1029.734 .0240918
1030.320 .0240862
1030.907 .0240812
1031.493 .0240767
1032.079 .0240723
1032.665 .0240684
1033.250 .0240648
1033.836 .0240621
1034.421 .0240596
1035.006 .0240576
1035.591 .0240567
1036.176 .0240566
1036.761 .0240573
1037.345 .0240581
1037.929 .0240584
1038.514 .0240575
1039.097 .0240541
1039.681 .0240489
1040.265 .0240407
1040.848 .0240308
1041.432 .0240194
1042.015 .0240079
1042.598 .0239960
1043.181 .0239846
1043.764 .0239741
1044.346 .0239654
1044.929 .0239580
1045.511 .0239513
1046.094 .0239446
1046.676 .0239376
1047.258 .0239297
1047.840 .0239208
1048.422 .0239101
1049.003 .0238993
1049.585 .0238880
1050.166 .0238776
1050.748 .0238681
1051.329 .0238605
1051.910 .0238539
1052.491 .0238489
1053.072 .0238447
1053.653 .0238401
1054.234 .0238331
1054.815 .0238249
1055.396 .0238135
1055.976 .0237994
1056.557 .0237842
1057.138 .0237690
1057.718 .0237547
1058.298 .0237439
1058.879 .0237356
1059.459 .0237304
1060.039 .0237274
1060.620 .0237251
1061.200 .0237209
1061.780 .0237152
1062.360 .0237060
1062.940 .0236928
1063.520 .0236783
1064.101 .0236636
1064.681 .0236484
1065.261 .0236349
1065.841 .0236235
1066.421 .0236140
1067.001 .0236066
1067.581 .0236001
1068.161 .0235933
1068.741 .0235869
1069.321 .0235788
1069.901 .0235686
1070.482 .0235568
1071.062 .0235440
1071.642 .0235293
1072.222 .0235139
1072.803 .0234997
1073.383 .0234868
1073.963 .0234760
1074.544 .0234677
1075.124 .0234613
1075.705 .0234563
1076.286 .0234508
1076.866 .0234440
1077.447 .0234356
1078.028 .0234258
1078.609 .0234143
1079.190 .0234023
1079.771 .0233902
1080.352 .0233800
1080.934 .0233717
1081.515 .0233660
1082.097 .0233630
1082.679 .0233601
1083.260 .0233568
1083.842 .0233516
1084.424 .0233435
1085.007 .0233336
1085.589 .0233214
1086.172 .0233090
1086.754 .0232965
1087.337 .0232861
1087.920 .0232794
1088.503 .0232771
1089.087 .0232802
1089.670 .0232891
1090.254 .0233016
1090.838 .0233166
1091.422 .0233319
1092.006 .0233463
1092.590 .0233591
1093.175 .0233675
1093.760 .0233728
1094.345 .0233748
1094.930 .0233738
1095.516 .0233736
1096.102 .0233736
1096.688 .0233760
1097.274 .0233802
1097.860 .0233849
1098.447 .0233888
1099.034 .0233904
1099.622 .0233882
1100.209 .0233819
1100.797 .0233728
1101.385 .0233630
1101.973 .0233524
1102.562 .0233438
1103.151 .0233395
1103.740 .0233385
1104.330 .0233405
1104.920 .0233440
1105.510 .0233463
1106.101 .0233468
1106.691 .0233438
1107.283 .0233380
1107.874 .0233280
1108.466 .0233152
1109.058 .0233034
1109.651 .0232914
1110.244 .0232803
1110.837 .0232695
1111.431 .0232578
1112.025 .0232474
1112.620 .0232381
1113.215 .0232291
1113.810 .0232222
1114.406 .0232220
1115.002 .0232270
1115.599 .0232365
1116.196 .0232520
1116.793 .0232688
1117.391 .0232857
1117.989 .0233003
1118.588 .0233110
1119.187 .0233137
1119.787 .0233133
1120.387 .0233102
1120.988 .0233076
1121.589 .0233067
1122.190 .0233075
1122.793 .0233098
1123.395 .0233160
1123.998 .0233226
1124.602 .0233275
1125.206 .0233324
1125.811 .0233415
1126.416 .0233556
1127.022 .0233782
1127.628 .0234079
1128.235 .0234490
1128.843 .0234985
1129.451 .0235527
1130.059 .0236080
1130.669 .0236626
1131.278 .0237142
1131.889 .0237647
1132.500 .0238131
1133.112 .0238603
1133.724 .0239088
1134.337 .0239629
1134.950 .0240167
1135.564 .0240717
1136.179 .0241248
1136.795 .0241725
1137.411 .0242192
1138.028 .0242634
1138.645 .0243042
1139.263 .0243521
1139.882 .0244049
1140.502 .0244671
1141.122 .0245425
1141.743 .0246328
1142.365 .0247331
1142.987 .0247804
1143.611 .0249230
1144.235 .0251424
1144.859 .0252617
1145.485 .0253039
