Measurement Sequence started on: 10-20-44-796
Integration time: 35
Scans to Average: 2 
>>>>>Begin Spectral Data<<<<<
432.953 .0371041
433.882 .0332408
434.810 .0330548
435.737 .0318390
436.662 .0325832
437.586 .0333149
438.509 .0332084
439.431 .0332078
440.351 .0331799
441.269 .0331461
442.187 .0330773
443.103 .0329827
444.018 .0329371
444.932 .0329089
445.844 .0328988
446.756 .0328958
447.666 .0329085
448.575 .0329180
449.482 .0329296
450.388 .0329428
451.294 .0329666
452.198 .0329871
453.100 .0330019
454.002 .0330262
454.902 .0330363
455.801 .0330429
456.699 .0330423
457.596 .0330349
458.492 .0330272
459.387 .0330297
460.280 .0330303
461.172 .0330249
462.064 .0330214
462.954 .0330152
463.843 .0329931
464.730 .0329645
465.617 .0329275
466.503 .0328847
467.387 .0328357
468.271 .0327906
469.153 .0327447
470.035 .0327055
470.915 .0326720
471.794 .0326404
472.673 .0326116
473.550 .0325877
474.426 .0325643
475.301 .0325409
476.175 .0325183
477.048 .0324955
477.920 .0324671
478.791 .0324388
479.661 .0324107
480.530 .0323861
481.398 .0323622
482.266 .0323420
483.132 .0323305
483.997 .0323241
484.861 .0323234
485.724 .0323296
486.587 .0323402
487.448 .0323500
488.308 .0323565
489.168 .0323543
490.026 .0323441
490.884 .0323270
491.741 .0323000
492.597 .0322659
493.452 .0322303
494.306 .0321904
495.159 .0321414
496.011 .0320872
496.862 .0320293
497.713 .0319553
498.562 .0318698
499.411 .0317692
500.259 .0316547
501.106 .0315292
501.952 .0313986
502.798 .0312613
503.642 .0311282
504.486 .0309964
505.329 .0308705
506.171 .0307483
507.012 .0306325
507.852 .0305165
508.692 .0304005
509.531 .0302826
510.369 .0301592
511.206 .0300254
512.043 .0298850
512.878 .0297296
513.713 .0295664
514.547 .0293875
515.381 .0292030
516.213 .0290083
517.045 .0288122
517.876 .0286061
518.706 .0283963
519.536 .0281799
520.365 .0279590
521.193 .0277315
522.020 .0275002
522.847 .0272708
523.673 .0270516
524.498 .0268454
525.323 .0266623
526.146 .0265065
526.969 .0263838
527.792 .0262908
528.614 .0262293
529.435 .0261886
530.255 .0261741
531.075 .0261745
531.894 .0261913
532.712 .0262215
533.530 .0262538
534.347 .0262877
535.163 .0263171
535.979 .0263484
536.794 .0263734
537.608 .0263917
538.422 .0264151
539.235 .0264364
540.048 .0264627
540.860 .0264956
541.671 .0265333
542.481 .0265787
543.292 .0266232
544.101 .0266658
544.910 .0267052
545.718 .0267475
546.526 .0267970
547.333 .0268520
548.139 .0269198
548.945 .0269950
549.750 .0270734
550.555 .0271557
551.359 .0272379
552.162 .0273080
552.965 .0273675
553.768 .0274187
554.569 .0274606
555.371 .0274962
556.171 .0275303
556.972 .0275663
557.771 .0276045
558.570 .0276414
559.369 .0276744
560.167 .0277000
560.964 .0277213
561.761 .0277338
562.558 .0277417
563.354 .0277490
564.149 .0277573
564.944 .0277706
565.738 .0277886
566.532 .0278169
567.325 .0278550
568.118 .0279040
568.910 .0279610
569.702 .0280277
570.494 .0280981
571.285 .0281734
572.075 .0282526
572.865 .0283338
573.654 .0284131
574.443 .0284899
575.232 .0285642
576.020 .0286360
576.807 .0287065
577.594 .0287780
578.381 .0288486
579.167 .0289225
579.952 .0289972
580.738 .0290721
581.522 .0291460
582.307 .0292192
583.091 .0292897
583.874 .0293557
584.657 .0294154
585.440 .0294714
586.222 .0295225
587.004 .0295714
587.785 .0296193
588.566 .0296657
589.346 .0297112
590.126 .0297544
590.906 .0297927
591.685 .0298244
592.464 .0298484
593.242 .0298656
594.020 .0298761
594.797 .0298816
595.575 .0298841
596.351 .0298853
597.128 .0298860
597.904 .0298861
598.679 .0298844
599.454 .0298795
600.229 .0298717
601.004 .0298609
601.778 .0298464
602.551 .0298293
603.325 .0298118
604.097 .0297944
604.870 .0297785
605.642 .0297649
606.414 .0297525
607.185 .0297414
607.956 .0297319
608.727 .0297223
609.497 .0297116
610.267 .0297013
611.037 .0296896
611.806 .0296770
612.575 .0296643
613.344 .0296513
614.112 .0296378
614.880 .0296253
615.647 .0296130
616.414 .0295997
617.181 .0295861
617.948 .0295719
618.714 .0295570
619.480 .0295418
620.245 .0295253
621.011 .0295078
621.775 .0294898
622.540 .0294722
623.304 .0294545
624.068 .0294381
624.832 .0294233
625.595 .0294095
626.358 .0293974
627.120 .0293868
627.883 .0293778
628.645 .0293695
629.406 .0293625
630.168 .0293558
630.929 .0293498
631.689 .0293432
632.450 .0293359
633.210 .0293288
633.970 .0293210
634.729 .0293121
635.489 .0293027
636.248 .0292935
637.006 .0292843
637.765 .0292740
638.523 .0292638
639.280 .0292522
640.038 .0292392
640.795 .0292249
641.552 .0292094
642.309 .0291936
643.065 .0291781
643.821 .0291632
644.577 .0291492
645.332 .0291364
646.088 .0291242
646.843 .0291114
647.597 .0290982
648.352 .0290836
649.106 .0290664
649.860 .0290478
650.613 .0290290
651.367 .0290105
652.120 .0289926
652.872 .0289766
653.625 .0289615
654.377 .0289471
655.129 .0289336
655.881 .0289205
656.632 .0289063
657.384 .0288919
658.135 .0288769
658.885 .0288614
659.636 .0288471
660.386 .0288343
661.136 .0288227
661.885 .0288137
662.635 .0288061
663.384 .0287991
664.133 .0287922
664.881 .0287854
665.630 .0287772
666.378 .0287680
667.126 .0287581
667.874 .0287457
668.621 .0287324
669.368 .0287185
670.115 .0287039
670.862 .0286887
671.608 .0286734
672.354 .0286578
673.100 .0286413
673.846 .0286246
674.591 .0286068
675.337 .0285892
676.082 .0285730
676.826 .0285581
677.571 .0285451
678.315 .0285344
679.059 .0285261
679.803 .0285196
680.547 .0285147
681.290 .0285101
682.033 .0285042
682.776 .0284976
683.518 .0284898
684.261 .0284807
685.003 .0284709
685.745 .0284614
686.487 .0284517
687.228 .0284429
687.969 .0284329
688.710 .0284219
689.451 .0284090
690.192 .0283942
690.932 .0283762
691.672 .0283553
692.412 .0283330
693.152 .0283101
693.891 .0282875
694.630 .0282667
695.369 .0282473
696.108 .0282304
696.846 .0282150
697.585 .0282003
698.323 .0281856
699.061 .0281704
699.798 .0281534
700.536 .0281351
701.273 .0281157
702.010 .0280957
702.746 .0280751
703.483 .0280555
704.219 .0280367
704.955 .0280183
705.691 .0280005
706.427 .0279819
707.162 .0279630
707.897 .0279433
708.632 .0279217
709.367 .0278987
710.101 .0278755
710.835 .0278524
711.569 .0278297
712.303 .0278080
713.037 .0277884
713.770 .0277701
714.503 .0277530
715.236 .0277370
715.969 .0277215
716.702 .0277072
717.434 .0276939
718.166 .0276814
718.898 .0276707
719.629 .0276612
720.361 .0276537
721.092 .0276468
721.823 .0276403
722.554 .0276334
723.284 .0276249
724.014 .0276146
724.744 .0276025
725.474 .0275880
726.204 .0275720
726.933 .0275546
727.662 .0275366
728.391 .0275180
729.120 .0274987
729.849 .0274789
730.577 .0274580
731.305 .0274364
732.033 .0274132
732.760 .0273881
733.488 .0273626
734.215 .0273371
734.942 .0273116
735.669 .0272870
736.395 .0272638
737.122 .0272427
737.848 .0272230
738.573 .0272045
739.299 .0271867
740.024 .0271693
740.750 .0271522
741.474 .0271352
742.199 .0271175
742.924 .0271002
743.648 .0270837
744.372 .0270678
745.096 .0270530
745.819 .0270390
746.543 .0270251
747.266 .0270116
747.989 .0269983
748.711 .0269854
749.434 .0269724
750.156 .0269607
750.878 .0269499
751.599 .0269414
752.321 .0269350
753.042 .0269302
753.763 .0269268
754.484 .0269249
755.205 .0269228
755.925 .0269198
756.645 .0269159
757.365 .0269112
758.085 .0269058
758.804 .0269001
759.523 .0268932
760.242 .0268858
760.961 .0268770
761.679 .0268666
762.397 .0268534
763.115 .0268373
763.833 .0268174
764.551 .0267937
765.268 .0267669
765.985 .0267376
766.702 .0267065
767.418 .0266754
768.134 .0266450
768.850 .0266166
769.566 .0265903
770.282 .0265664
770.997 .0265451
771.712 .0265262
772.427 .0265089
773.142 .0264927
773.856 .0264766
774.570 .0264612
775.284 .0264458
775.998 .0264311
776.711 .0264174
777.424 .0264051
778.137 .0263939
778.849 .0263842
779.562 .0263752
780.274 .0263659
780.986 .0263556
781.697 .0263449
782.409 .0263324
783.120 .0263187
783.831 .0263040
784.541 .0262888
785.252 .0262733
785.962 .0262588
786.671 .0262445
787.381 .0262307
788.090 .0262172
788.799 .0262033
789.508 .0261888
790.217 .0261737
790.925 .0261576
791.633 .0261407
792.341 .0261241
793.048 .0261080
793.755 .0260920
794.462 .0260771
795.169 .0260633
795.875 .0260511
796.581 .0260395
797.287 .0260285
797.993 .0260179
798.698 .0260080
799.403 .0259985
800.108 .0259887
800.812 .0259797
801.517 .0259714
802.221 .0259637
802.924 .0259566
803.628 .0259496
804.331 .0259431
805.034 .0259368
805.736 .0259305
806.439 .0259242
807.141 .0259178
807.843 .0259115
808.544 .0259055
809.245 .0258992
809.946 .0258927
810.647 .0258863
811.347 .0258798
812.047 .0258734
812.747 .0258662
813.447 .0258583
814.146 .0258495
814.845 .0258398
815.543 .0258299
816.242 .0258191
816.940 .0258080
817.638 .0257962
818.335 .0257839
819.032 .0257709
819.729 .0257572
820.426 .0257430
821.122 .0257284
821.818 .0257136
822.514 .0256981
823.209 .0256821
823.905 .0256664
824.599 .0256514
825.294 .0256367
825.988 .0256224
826.682 .0256089
827.376 .0255957
828.069 .0255826
828.762 .0255690
829.455 .0255549
830.147 .0255404
830.840 .0255254
831.531 .0255101
832.223 .0254946
832.914 .0254800
833.605 .0254655
834.296 .0254512
834.986 .0254375
835.676 .0254239
836.366 .0254103
837.055 .0253963
837.744 .0253831
838.433 .0253703
839.121 .0253585
839.809 .0253480
840.497 .0253381
841.185 .0253290
841.872 .0253197
842.559 .0253098
843.245 .0252995
843.932 .0252889
844.617 .0252777
845.303 .0252666
845.988 .0252563
846.673 .0252463
847.358 .0252377
848.042 .0252305
848.726 .0252246
849.410 .0252193
850.093 .0252140
850.776 .0252078
851.459 .0252007
852.141 .0251929
852.823 .0251839
853.505 .0251745
854.186 .0251645
854.867 .0251542
855.548 .0251442
856.228 .0251350
856.908 .0251268
857.588 .0251192
858.267 .0251129
858.946 .0251067
859.625 .0251001
860.303 .0250931
860.981 .0250847
861.659 .0250752
862.336 .0250639
863.013 .0250506
863.690 .0250358
864.366 .0250205
865.042 .0250050
865.718 .0249901
866.393 .0249756
867.068 .0249616
867.743 .0249477
868.417 .0249336
869.091 .0249186
869.765 .0249025
870.438 .0248850
871.111 .0248667
871.783 .0248475
872.456 .0248285
873.127 .0248100
873.799 .0247931
874.470 .0247777
875.141 .0247637
875.811 .0247505
876.481 .0247376
877.151 .0247244
877.820 .0247110
878.489 .0246967
879.158 .0246819
879.826 .0246666
880.494 .0246516
881.162 .0246368
881.829 .0246222
882.496 .0246072
883.163 .0245923
883.829 .0245765
884.495 .0245608
885.160 .0245448
885.825 .0245290
886.490 .0245136
887.154 .0244991
887.818 .0244855
888.482 .0244729
889.145 .0244616
889.808 .0244514
890.471 .0244415
891.133 .0244325
891.795 .0244236
892.456 .0244148
893.117 .0244065
893.778 .0243988
894.439 .0243917
895.099 .0243849
895.758 .0243782
896.417 .0243716
897.076 .0243648
897.735 .0243576
898.393 .0243494
899.051 .0243402
899.708 .0243305
900.365 .0243186
901.022 .0243061
901.678 .0242933
902.334 .0242803
902.990 .0242680
903.645 .0242557
904.300 .0242440
904.954 .0242328
905.608 .0242212
906.262 .0242098
906.915 .0241986
907.568 .0241881
908.221 .0241777
908.873 .0241682
909.525 .0241597
910.176 .0241521
910.828 .0241450
911.478 .0241381
912.129 .0241303
912.778 .0241214
913.428 .0241112
914.077 .0240998
914.726 .0240885
915.375 .0240779
916.023 .0240687
916.670 .0240618
917.318 .0240566
917.964 .0240530
918.611 .0240503
919.257 .0240478
919.903 .0240450
920.548 .0240415
921.193 .0240376
921.838 .0240341
922.482 .0240314
923.126 .0240302
923.770 .0240303
924.413 .0240316
925.056 .0240330
925.698 .0240337
926.340 .0240327
926.982 .0240294
927.623 .0240235
928.264 .0240154
928.904 .0240046
929.544 .0239921
930.184 .0239790
930.823 .0239658
931.462 .0239525
932.101 .0239397
932.739 .0239268
933.377 .0239138
934.014 .0239001
934.651 .0238863
935.288 .0238716
935.924 .0238569
936.560 .0238424
937.196 .0238281
937.831 .0238143
938.466 .0238010
939.100 .0237881
939.734 .0237760
940.368 .0237634
941.001 .0237502
941.634 .0237366
942.266 .0237230
942.899 .0237090
943.530 .0236952
944.162 .0236817
944.793 .0236685
945.423 .0236551
946.053 .0236419
946.683 .0236277
947.313 .0236131
947.942 .0235982
948.571 .0235826
949.199 .0235673
949.827 .0235526
950.455 .0235378
951.082 .0235245
951.709 .0235129
952.335 .0235020
952.961 .0234917
953.587 .0234826
954.212 .0234737
954.837 .0234649
955.462 .0234564
956.086 .0234482
956.710 .0234400
957.334 .0234329
957.957 .0234255
958.579 .0234178
959.202 .0234102
959.824 .0234012
960.445 .0233908
961.067 .0233797
961.688 .0233675
962.308 .0233542
962.928 .0233413
963.548 .0233285
964.168 .0233156
964.787 .0233029
965.406 .0232910
966.024 .0232796
966.642 .0232688
967.260 .0232596
967.877 .0232518
968.494 .0232452
969.110 .0232402
969.727 .0232359
970.342 .0232331
970.958 .0232316
971.573 .0232303
972.188 .0232287
972.802 .0232274
973.416 .0232257
974.030 .0232241
974.643 .0232224
975.256 .0232214
975.869 .0232202
976.481 .0232191
977.093 .0232180
977.705 .0232161
978.316 .0232145
978.927 .0232131
979.538 .0232120
980.148 .0232117
980.758 .0232117
981.367 .0232122
981.977 .0232135
982.586 .0232148
983.194 .0232161
983.802 .0232167
984.410 .0232171
985.018 .0232170
985.625 .0232165
986.232 .0232165
986.838 .0232167
987.445 .0232167
988.050 .0232166
988.656 .0232152
989.261 .0232128
989.866 .0232080
990.471 .0232016
991.075 .0231943
991.679 .0231862
992.282 .0231779
992.886 .0231703
993.489 .0231634
994.091 .0231577
994.694 .0231526
995.296 .0231478
995.897 .0231429
996.499 .0231380
997.100 .0231322
997.701 .0231261
998.301 .0231206
998.901 .0231163
999.501 .0231142
1000.101 .0231154
1000.700 .0231195
1001.299 .0231252
1001.898 .0231327
1002.496 .0231415
1003.094 .0231497
1003.692 .0231571
1004.289 .0231627
1004.887 .0231666
1005.484 .0231693
1006.080 .0231700
1006.677 .0231691
1007.273 .0231674
1007.868 .0231655
1008.464 .0231626
1009.059 .0231589
1009.654 .0231549
1010.249 .0231507
1010.843 .0231462
1011.437 .0231416
1012.031 .0231369
1012.625 .0231320
1013.218 .0231278
1013.811 .0231243
1014.404 .0231219
1014.997 .0231218
1015.589 .0231240
1016.181 .0231296
1016.773 .0231379
1017.365 .0231493
1017.956 .0231626
1018.547 .0231769
1019.138 .0231918
1019.728 .0232049
1020.319 .0232153
1020.909 .0232228
1021.499 .0232268
1022.088 .0232278
1022.678 .0232263
1023.267 .0232237
1023.856 .0232200
1024.445 .0232169
1025.033 .0232131
1025.621 .0232083
1026.209 .0232017
1026.797 .0231922
1027.385 .0231798
1027.972 .0231648
1028.560 .0231489
1029.147 .0231322
1029.734 .0231168
1030.320 .0231046
1030.907 .0230960
1031.493 .0230913
1032.079 .0230896
1032.665 .0230906
1033.250 .0230928
1033.836 .0230957
1034.421 .0230974
1035.006 .0230978
1035.591 .0230976
1036.176 .0230969
1036.761 .0230966
1037.345 .0230963
1037.929 .0230973
1038.514 .0230983
1039.097 .0230993
1039.681 .0231005
1040.265 .0230993
1040.848 .0230970
1041.432 .0230933
1042.015 .0230886
1042.598 .0230840
1043.181 .0230804
1043.764 .0230791
1044.346 .0230803
1044.929 .0230839
1045.511 .0230878
1046.094 .0230910
1046.676 .0230935
1047.258 .0230934
1047.840 .0230897
1048.422 .0230845
1049.003 .0230784
1049.585 .0230725
1050.166 .0230680
1050.748 .0230658
1051.329 .0230661
1051.910 .0230688
1052.491 .0230724
1053.072 .0230758
1053.653 .0230769
1054.234 .0230767
1054.815 .0230727
1055.396 .0230670
1055.976 .0230605
1056.557 .0230536
1057.138 .0230474
1057.718 .0230432
1058.298 .0230394
1058.879 .0230349
1059.459 .0230288
1060.039 .0230218
1060.620 .0230095
1061.200 .0229938
1061.780 .0229748
1062.360 .0229525
1062.940 .0229288
1063.520 .0229036
1064.101 .0228772
1064.681 .0228523
1065.261 .0228283
1065.841 .0228042
1066.421 .0227801
1067.001 .0227567
1067.581 .0227314
1068.161 .0227057
1068.741 .0226809
1069.321 .0226575
1069.901 .0226339
1070.482 .0226125
1071.062 .0225940
1071.642 .0225778
1072.222 .0225647
1072.803 .0225539
1073.383 .0225483
1073.963 .0225471
1074.544 .0225489
1075.124 .0225544
1075.705 .0225641
1076.286 .0225798
1076.866 .0225999
1077.447 .0226240
1078.028 .0226501
1078.609 .0226768
1079.190 .0227014
1079.771 .0227254
1080.352 .0227480
1080.934 .0227658
1081.515 .0227800
1082.097 .0227916
1082.679 .0227988
1083.260 .0228000
1083.842 .0227967
1084.424 .0227907
1085.007 .0227797
1085.589 .0227632
1086.172 .0227394
1086.754 .0227092
1087.337 .0226762
1087.920 .0226411
1088.503 .0226025
1089.087 .0225661
1089.670 .0225310
1090.254 .0224964
1090.838 .0224644
1091.422 .0224359
1092.006 .0224080
1092.590 .0223823
1093.175 .0223602
1093.760 .0223391
1094.345 .0223177
1094.930 .0223006
1095.516 .0222848
1096.102 .0222721
1096.688 .0222647
1097.274 .0222605
1097.860 .0222592
1098.447 .0222645
1099.034 .0222722
1099.622 .0222831
1100.209 .0222980
1100.797 .0223159
1101.385 .0223324
1101.973 .0223491
1102.562 .0223643
1103.151 .0223747
1103.740 .0223814
1104.330 .0223865
1104.920 .0223880
1105.510 .0223900
1106.101 .0223912
1106.691 .0223916
1107.283 .0223920
1107.874 .0223946
1108.466 .0223979
1109.058 .0223997
1109.651 .0224015
1110.244 .0224021
1110.837 .0224017
1111.431 .0224041
1112.025 .0224078
1112.620 .0224140
1113.215 .0224238
1113.810 .0224373
1114.406 .0224524
1115.002 .0224680
1115.599 .0224846
1116.196 .0225012
1116.793 .0225183
1117.391 .0225321
1117.989 .0225428
1118.588 .0225540
1119.187 .0225597
1119.787 .0225570
1120.387 .0225473
1120.988 .0225277
1121.589 .0225018
1122.190 .0224697
1122.793 .0224348
1123.395 .0224016
1123.998 .0223755
1124.602 .0223545
1125.206 .0223362
1125.811 .0223283
1126.416 .0223238
1127.022 .0223184
1127.628 .0223173
1128.235 .0223155
1128.843 .0223131
1129.451 .0223187
1130.059 .0223334
1130.669 .0223562
1131.278 .0223920
1131.889 .0224310
1132.500 .0224735
1133.112 .0225153
1133.724 .0225517
1134.337 .0225792
1134.950 .0225977
1135.564 .0226149
1136.179 .0226228
1136.795 .0226344
1137.411 .0226545
1138.028 .0226810
1138.645 .0227204
1139.263 .0227598
1139.882 .0227994
1140.502 .0228388
1141.122 .0228841
1141.743 .0229522
1142.365 .0230375
1142.987 .0228721
1143.611 .0229831
1144.235 .0233088
1144.859 .0238654
1145.485 .0239852
