Measurement Sequence started on: 10-20-44-796
Integration time: 35
Scans to Average: 2 
>>>>>Begin Spectral Data<<<<<
432.953 .0318035
433.882 .0360256
434.810 .0320572
435.737 .0317164
436.662 .0316658
437.586 .0327747
438.509 .0328011
439.431 .0327390
440.351 .0327759
441.269 .0327867
442.187 .0327625
443.103 .0326972
444.018 .0326349
444.932 .0325778
445.844 .0325343
446.756 .0324915
447.666 .0324582
448.575 .0324261
449.482 .0324029
450.388 .0323978
451.294 .0324081
452.198 .0324365
453.100 .0324721
454.002 .0325115
454.902 .0325507
455.801 .0325810
456.699 .0326074
457.596 .0326333
458.492 .0326517
459.387 .0326661
460.280 .0326787
461.172 .0326826
462.064 .0326778
462.954 .0326601
463.843 .0326352
464.730 .0326051
465.617 .0325700
466.503 .0325347
467.387 .0325028
468.271 .0324754
469.153 .0324562
470.035 .0324436
470.915 .0324356
471.794 .0324286
472.673 .0324176
473.550 .0324027
474.426 .0323855
475.301 .0323691
476.175 .0323566
477.048 .0323483
477.920 .0323457
478.791 .0323444
479.661 .0323440
480.530 .0323436
481.398 .0323429
482.266 .0323423
483.132 .0323430
483.997 .0323423
484.861 .0323399
485.724 .0323381
486.587 .0323330
487.448 .0323245
488.308 .0323094
489.168 .0322870
490.026 .0322553
490.884 .0322162
491.741 .0321726
492.597 .0321306
493.452 .0320927
494.306 .0320625
495.159 .0320319
496.011 .0319969
496.862 .0319511
497.713 .0318892
498.562 .0318044
499.411 .0316997
500.259 .0315747
501.106 .0314380
501.952 .0312950
502.798 .0311556
503.642 .0310226
504.486 .0309013
505.329 .0307896
506.171 .0306841
507.012 .0305754
507.852 .0304607
508.692 .0303320
509.531 .0302012
510.369 .0300653
511.206 .0299304
512.043 .0298055
512.878 .0296940
513.713 .0296015
514.547 .0295263
515.381 .0294675
516.213 .0294219
517.045 .0293796
517.876 .0293376
518.706 .0292839
519.536 .0292151
520.365 .0291299
521.193 .0290238
522.020 .0289004
522.847 .0287615
523.673 .0286028
524.498 .0284327
525.323 .0282566
526.146 .0280732
526.969 .0278921
527.792 .0277088
528.614 .0275356
529.435 .0273655
530.255 .0272066
531.075 .0270531
531.894 .0269094
532.712 .0267792
533.530 .0266592
534.347 .0265405
535.163 .0264251
535.979 .0263057
536.794 .0261856
537.608 .0260588
538.422 .0259365
539.235 .0258129
540.048 .0256961
540.860 .0255943
541.671 .0255106
542.481 .0254490
543.292 .0254191
544.101 .0254152
544.910 .0254399
545.718 .0254855
546.526 .0255459
547.333 .0256128
548.139 .0256904
548.945 .0257759
549.750 .0258618
550.555 .0259499
551.359 .0260402
552.162 .0261297
552.965 .0262234
553.768 .0263079
554.569 .0263871
555.371 .0264562
556.171 .0265108
556.972 .0265515
557.771 .0265814
558.570 .0266016
559.369 .0266186
560.167 .0266362
560.964 .0266598
561.761 .0266875
562.558 .0267283
563.354 .0267838
564.149 .0268509
564.944 .0269317
565.738 .0270254
566.532 .0271289
567.325 .0272455
568.118 .0273700
568.910 .0274993
569.702 .0276321
570.494 .0277670
571.285 .0278988
572.075 .0280248
572.865 .0281422
573.654 .0282463
574.443 .0283349
575.232 .0284130
576.020 .0284813
576.807 .0285421
577.594 .0286003
578.381 .0286606
579.167 .0287207
579.952 .0287844
580.738 .0288491
581.522 .0289147
582.307 .0289779
583.091 .0290369
583.874 .0290865
584.657 .0291283
585.440 .0291659
586.222 .0291982
587.004 .0292304
587.785 .0292671
588.566 .0293052
589.346 .0293460
590.126 .0293875
590.906 .0294282
591.685 .0294644
592.464 .0294969
593.242 .0295228
594.020 .0295425
594.797 .0295562
595.575 .0295652
596.351 .0295705
597.128 .0295759
597.904 .0295802
598.679 .0295851
599.454 .0295889
600.229 .0295925
601.004 .0295947
601.778 .0295957
602.551 .0295951
603.325 .0295932
604.097 .0295900
604.870 .0295860
605.642 .0295826
606.414 .0295797
607.185 .0295759
607.956 .0295743
608.727 .0295726
609.497 .0295699
610.267 .0295652
611.037 .0295575
611.806 .0295451
612.575 .0295295
613.344 .0295101
614.112 .0294866
614.880 .0294607
615.647 .0294333
616.414 .0294045
617.181 .0293759
617.948 .0293487
618.714 .0293225
619.480 .0292987
620.245 .0292782
621.011 .0292575
621.775 .0292385
622.540 .0292214
623.304 .0292058
624.068 .0291927
624.832 .0291824
625.595 .0291753
626.358 .0291705
627.120 .0291687
627.883 .0291691
628.645 .0291709
629.406 .0291740
630.168 .0291757
630.929 .0291752
631.689 .0291719
632.450 .0291648
633.210 .0291543
633.970 .0291409
634.729 .0291266
635.489 .0291112
636.248 .0290958
637.006 .0290805
637.765 .0290645
638.523 .0290484
639.280 .0290314
640.038 .0290127
640.795 .0289925
641.552 .0289713
642.309 .0289503
643.065 .0289298
643.821 .0289115
644.577 .0288947
645.332 .0288807
646.088 .0288686
646.843 .0288570
647.597 .0288449
648.352 .0288331
649.106 .0288203
649.860 .0288066
650.613 .0287934
651.367 .0287804
652.120 .0287695
652.872 .0287609
653.625 .0287541
654.377 .0287500
655.129 .0287472
655.881 .0287458
656.632 .0287447
657.384 .0287437
658.135 .0287418
658.885 .0287383
659.636 .0287345
660.386 .0287286
661.136 .0287210
661.885 .0287119
662.635 .0287010
663.384 .0286889
664.133 .0286751
664.881 .0286588
665.630 .0286416
666.378 .0286233
667.126 .0286034
667.874 .0285820
668.621 .0285602
669.368 .0285377
670.115 .0285153
670.862 .0284936
671.608 .0284732
672.354 .0284548
673.100 .0284386
673.846 .0284245
674.591 .0284127
675.337 .0284031
676.082 .0283945
676.826 .0283874
677.571 .0283810
678.315 .0283743
679.059 .0283671
679.803 .0283586
680.547 .0283493
681.290 .0283386
682.033 .0283257
682.776 .0283111
683.518 .0282954
684.261 .0282793
685.003 .0282629
685.745 .0282470
686.487 .0282314
687.228 .0282164
687.969 .0282022
688.710 .0281877
689.451 .0281725
690.192 .0281567
690.932 .0281402
691.672 .0281226
692.412 .0281047
693.152 .0280864
693.891 .0280686
694.630 .0280520
695.369 .0280358
696.108 .0280194
696.846 .0280027
697.585 .0279860
698.323 .0279682
699.061 .0279498
699.798 .0279307
700.536 .0279110
701.273 .0278919
702.010 .0278731
702.746 .0278550
703.483 .0278384
704.219 .0278236
704.955 .0278098
705.691 .0277977
706.427 .0277865
707.162 .0277761
707.897 .0277672
708.632 .0277595
709.367 .0277523
710.101 .0277455
710.835 .0277392
711.569 .0277331
712.303 .0277268
713.037 .0277198
713.770 .0277118
714.503 .0277032
715.236 .0276933
715.969 .0276813
716.702 .0276679
717.434 .0276534
718.166 .0276371
718.898 .0276194
719.629 .0276008
720.361 .0275815
721.092 .0275622
721.823 .0275431
722.554 .0275240
723.284 .0275050
724.014 .0274857
724.744 .0274653
725.474 .0274449
726.204 .0274237
726.933 .0274017
727.662 .0273795
728.391 .0273578
729.120 .0273364
729.849 .0273158
730.577 .0272960
731.305 .0272768
732.033 .0272578
732.760 .0272387
733.488 .0272182
734.215 .0271973
734.942 .0271758
735.669 .0271536
736.395 .0271317
737.122 .0271105
737.848 .0270898
738.573 .0270705
739.299 .0270522
740.024 .0270348
740.750 .0270184
741.474 .0270031
742.199 .0269881
742.924 .0269741
743.648 .0269610
744.372 .0269484
745.096 .0269370
745.819 .0269258
746.543 .0269146
747.266 .0269031
747.989 .0268915
748.711 .0268789
749.434 .0268665
750.156 .0268543
750.878 .0268425
751.599 .0268324
752.321 .0268237
753.042 .0268161
753.763 .0268096
754.484 .0268039
755.205 .0267979
755.925 .0267914
756.645 .0267846
757.365 .0267757
758.085 .0267663
758.804 .0267556
759.523 .0267437
760.242 .0267311
760.961 .0267183
761.679 .0267051
762.397 .0266907
763.115 .0266757
763.833 .0266595
764.551 .0266421
765.268 .0266239
765.985 .0266041
766.702 .0265830
767.418 .0265611
768.134 .0265384
768.850 .0265149
769.566 .0264916
770.282 .0264685
770.997 .0264459
771.712 .0264241
772.427 .0264031
773.142 .0263831
773.856 .0263639
774.570 .0263457
775.284 .0263276
775.998 .0263094
776.711 .0262914
777.424 .0262726
778.137 .0262538
778.849 .0262345
779.562 .0262154
780.274 .0261966
780.986 .0261786
781.697 .0261611
782.409 .0261448
783.120 .0261298
783.831 .0261162
784.541 .0261035
785.252 .0260915
785.962 .0260806
786.671 .0260706
787.381 .0260611
788.090 .0260523
788.799 .0260432
789.508 .0260343
790.217 .0260248
790.925 .0260154
791.633 .0260054
792.341 .0259950
793.048 .0259846
793.755 .0259742
794.462 .0259640
795.169 .0259543
795.875 .0259450
796.581 .0259362
797.287 .0259274
797.993 .0259183
798.698 .0259083
799.403 .0258976
800.108 .0258859
800.812 .0258735
801.517 .0258600
802.221 .0258460
802.924 .0258321
803.628 .0258182
804.331 .0258049
805.034 .0257922
805.736 .0257797
806.439 .0257669
807.141 .0257538
807.843 .0257403
808.544 .0257259
809.245 .0257113
809.946 .0256966
810.647 .0256823
811.347 .0256689
812.047 .0256571
812.747 .0256473
813.447 .0256399
814.146 .0256346
814.845 .0256304
815.543 .0256270
816.242 .0256239
816.940 .0256203
817.638 .0256156
818.335 .0256100
819.032 .0256030
819.729 .0255947
820.426 .0255855
821.122 .0255755
821.818 .0255648
822.514 .0255536
823.209 .0255414
823.905 .0255282
824.599 .0255138
825.294 .0254981
825.988 .0254807
826.682 .0254627
827.376 .0254442
828.069 .0254258
828.762 .0254080
829.455 .0253914
830.147 .0253761
830.840 .0253621
831.531 .0253490
832.223 .0253371
832.914 .0253250
833.605 .0253120
834.296 .0252983
834.986 .0252841
835.676 .0252689
836.366 .0252537
837.055 .0252388
837.744 .0252248
838.433 .0252116
839.121 .0251990
839.809 .0251868
840.497 .0251755
841.185 .0251640
841.872 .0251514
842.559 .0251389
843.245 .0251265
843.932 .0251136
844.617 .0251012
845.303 .0250896
845.988 .0250788
846.673 .0250693
847.358 .0250616
848.042 .0250553
848.726 .0250506
849.410 .0250470
850.093 .0250439
850.776 .0250415
851.459 .0250390
852.141 .0250349
852.823 .0250303
853.505 .0250257
854.186 .0250201
854.867 .0250146
855.548 .0250094
856.228 .0250053
856.908 .0250024
857.588 .0250000
858.267 .0249975
858.946 .0249936
859.625 .0249885
860.303 .0249808
860.981 .0249706
861.659 .0249580
862.336 .0249430
863.013 .0249265
863.690 .0249091
864.366 .0248904
865.042 .0248706
865.718 .0248501
866.393 .0248285
867.068 .0248052
867.743 .0247804
868.417 .0247546
869.091 .0247281
869.765 .0247018
870.438 .0246770
871.111 .0246536
871.783 .0246326
872.456 .0246138
873.127 .0245976
873.799 .0245835
874.470 .0245709
875.141 .0245594
875.811 .0245488
876.481 .0245397
877.151 .0245312
877.820 .0245232
878.489 .0245161
879.158 .0245100
879.826 .0245037
880.494 .0244975
881.162 .0244908
881.829 .0244833
882.496 .0244751
883.163 .0244658
883.829 .0244558
884.495 .0244454
885.160 .0244354
885.825 .0244260
886.490 .0244167
887.154 .0244078
887.818 .0243985
888.482 .0243888
889.145 .0243784
889.808 .0243678
890.471 .0243567
891.133 .0243452
891.795 .0243333
892.456 .0243209
893.117 .0243084
893.778 .0242949
894.439 .0242809
895.099 .0242654
895.758 .0242495
896.417 .0242329
897.076 .0242162
897.735 .0242005
898.393 .0241860
899.051 .0241725
899.708 .0241601
900.365 .0241484
901.022 .0241367
901.678 .0241245
902.334 .0241120
902.990 .0240990
903.645 .0240861
904.300 .0240735
904.954 .0240613
905.608 .0240497
906.262 .0240397
906.915 .0240294
907.568 .0240190
908.221 .0240092
908.873 .0239987
909.525 .0239885
910.176 .0239781
910.828 .0239680
911.478 .0239581
912.129 .0239485
912.778 .0239388
913.428 .0239290
914.077 .0239197
914.726 .0239097
915.375 .0239002
916.023 .0238920
916.670 .0238847
917.318 .0238789
917.964 .0238744
918.611 .0238709
919.257 .0238672
919.903 .0238632
920.548 .0238577
921.193 .0238519
921.838 .0238461
922.482 .0238401
923.126 .0238354
923.770 .0238317
924.413 .0238292
925.056 .0238278
925.698 .0238270
926.340 .0238259
926.982 .0238230
927.623 .0238190
928.264 .0238126
928.904 .0238040
929.544 .0237941
930.184 .0237826
930.823 .0237704
931.462 .0237582
932.101 .0237450
932.739 .0237312
933.377 .0237174
934.014 .0237032
934.651 .0236893
935.288 .0236756
935.924 .0236618
936.560 .0236484
937.196 .0236356
937.831 .0236238
938.466 .0236120
939.100 .0236011
939.734 .0235907
940.368 .0235801
941.001 .0235695
941.634 .0235582
942.266 .0235461
942.899 .0235339
943.530 .0235207
944.162 .0235070
944.793 .0234928
945.423 .0234781
946.053 .0234633
946.683 .0234487
947.313 .0234340
947.942 .0234187
948.571 .0234026
949.199 .0233862
949.827 .0233692
950.455 .0233525
951.082 .0233366
951.709 .0233222
952.335 .0233098
952.961 .0232993
953.587 .0232901
954.212 .0232825
954.837 .0232751
955.462 .0232675
956.086 .0232592
956.710 .0232505
957.334 .0232409
957.957 .0232318
958.579 .0232233
959.202 .0232157
959.824 .0232087
960.445 .0232023
961.067 .0231958
961.688 .0231894
962.308 .0231818
962.928 .0231736
963.548 .0231644
964.168 .0231545
964.787 .0231438
965.406 .0231331
966.024 .0231229
966.642 .0231133
967.260 .0231043
967.877 .0230966
968.494 .0230890
969.110 .0230822
969.727 .0230751
970.342 .0230677
970.958 .0230604
971.573 .0230522
972.188 .0230430
972.802 .0230337
973.416 .0230244
974.030 .0230157
974.643 .0230076
975.256 .0230007
975.869 .0229949
976.481 .0229897
977.093 .0229856
977.705 .0229819
978.316 .0229784
978.927 .0229757
979.538 .0229731
980.148 .0229708
980.758 .0229697
981.367 .0229693
981.977 .0229710
982.586 .0229744
983.194 .0229795
983.802 .0229852
984.410 .0229916
985.018 .0229985
985.625 .0230051
986.232 .0230110
986.838 .0230172
987.445 .0230218
988.050 .0230258
988.656 .0230287
989.261 .0230299
989.866 .0230293
990.471 .0230278
991.075 .0230246
991.679 .0230197
992.282 .0230131
992.886 .0230053
993.489 .0229964
994.091 .0229868
994.694 .0229763
995.296 .0229655
995.897 .0229554
996.499 .0229459
997.100 .0229362
997.701 .0229284
998.301 .0229223
998.901 .0229180
999.501 .0229162
1000.101 .0229165
1000.700 .0229194
1001.299 .0229242
1001.898 .0229305
1002.496 .0229380
1003.094 .0229466
1003.692 .0229565
1004.289 .0229659
1004.887 .0229761
1005.484 .0229868
1006.080 .0229970
1006.677 .0230061
1007.273 .0230145
1007.868 .0230204
1008.464 .0230231
1009.059 .0230230
1009.654 .0230209
1010.249 .0230171
1010.843 .0230125
1011.437 .0230074
1012.031 .0230029
1012.625 .0229991
1013.218 .0229955
1013.811 .0229910
1014.404 .0229877
1014.997 .0229848
1015.589 .0229810
1016.181 .0229777
1016.773 .0229754
1017.365 .0229745
1017.956 .0229753
1018.547 .0229769
1019.138 .0229796
1019.728 .0229821
1020.319 .0229846
1020.909 .0229856
1021.499 .0229863
1022.088 .0229862
1022.678 .0229851
1023.267 .0229844
1023.856 .0229844
1024.445 .0229838
1025.033 .0229833
1025.621 .0229828
1026.209 .0229812
1026.797 .0229787
1027.385 .0229746
1027.972 .0229690
1028.560 .0229638
1029.147 .0229586
1029.734 .0229534
1030.320 .0229490
1030.907 .0229455
1031.493 .0229420
1032.079 .0229382
1032.665 .0229347
1033.250 .0229305
1033.836 .0229266
1034.421 .0229236
1035.006 .0229200
1035.591 .0229168
1036.176 .0229145
1036.761 .0229116
1037.345 .0229091
1037.929 .0229074
1038.514 .0229061
1039.097 .0229059
1039.681 .0229077
1040.265 .0229108
1040.848 .0229150
1041.432 .0229196
1042.015 .0229230
1042.598 .0229240
1043.181 .0229218
1043.764 .0229158
1044.346 .0229069
1044.929 .0228975
1045.511 .0228887
1046.094 .0228811
1046.676 .0228771
1047.258 .0228752
1047.840 .0228744
1048.422 .0228726
1049.003 .0228692
1049.585 .0228621
1050.166 .0228510
1050.748 .0228368
1051.329 .0228205
1051.910 .0228047
1052.491 .0227915
1053.072 .0227814
1053.653 .0227742
1054.234 .0227692
1054.815 .0227650
1055.396 .0227592
1055.976 .0227528
1056.557 .0227443
1057.138 .0227355
1057.718 .0227271
1058.298 .0227208
1058.879 .0227169
1059.459 .0227156
1060.039 .0227169
1060.620 .0227186
1061.200 .0227209
1061.780 .0227233
1062.360 .0227232
1062.940 .0227235
1063.520 .0227239
1064.101 .0227254
1064.681 .0227274
1065.261 .0227303
1065.841 .0227330
1066.421 .0227352
1067.001 .0227346
1067.581 .0227305
1068.161 .0227239
1068.741 .0227161
1069.321 .0227070
1069.901 .0226981
1070.482 .0226897
1071.062 .0226823
1071.642 .0226747
1072.222 .0226675
1072.803 .0226581
1073.383 .0226484
1073.963 .0226368
1074.544 .0226254
1075.124 .0226144
1075.705 .0226035
1076.286 .0225942
1076.866 .0225873
1077.447 .0225812
1078.028 .0225744
1078.609 .0225661
1079.190 .0225570
1079.771 .0225459
1080.352 .0225360
1080.934 .0225245
1081.515 .0225154
1082.097 .0225080
1082.679 .0225022
1083.260 .0224969
1083.842 .0224915
1084.424 .0224851
1085.007 .0224772
1085.589 .0224669
1086.172 .0224538
1086.754 .0224387
1087.337 .0224256
1087.920 .0224146
1088.503 .0224066
1089.087 .0224023
1089.670 .0224010
1090.254 .0224002
1090.838 .0224003
1091.422 .0223973
1092.006 .0223946
1092.590 .0223913
1093.175 .0223880
1093.760 .0223865
1094.345 .0223847
1094.930 .0223833
1095.516 .0223795
1096.102 .0223728
1096.688 .0223625
1097.274 .0223453
1097.860 .0223226
1098.447 .0222936
1099.034 .0222620
1099.622 .0222289
1100.209 .0221947
1100.797 .0221605
1101.385 .0221262
1101.973 .0220899
1102.562 .0220516
1103.151 .0220109
1103.740 .0219698
1104.330 .0219323
1104.920 .0218983
1105.510 .0218720
1106.101 .0218564
1106.691 .0218508
1107.283 .0218559
1107.874 .0218695
1108.466 .0218887
1109.058 .0219107
1109.651 .0219357
1110.244 .0219625
1110.837 .0219932
1111.431 .0220298
1112.025 .0220686
1112.620 .0221116
1113.215 .0221587
1113.810 .0222073
1114.406 .0222518
1115.002 .0222935
1115.599 .0223291
1116.196 .0223578
1116.793 .0223825
1117.391 .0224014
1117.989 .0224160
1118.588 .0224322
1119.187 .0224419
1119.787 .0224450
1120.387 .0224422
1120.988 .0224362
1121.589 .0224275
1122.190 .0224197
1122.793 .0224135
1123.395 .0224120
1123.998 .0224131
1124.602 .0224183
1125.206 .0224233
1125.811 .0224299
1126.416 .0224322
1127.022 .0224313
1127.628 .0224284
1128.235 .0224283
1128.843 .0224304
1129.451 .0224432
1130.059 .0224606
1130.669 .0224889
1131.278 .0225189
1131.889 .0225466
1132.500 .0225725
1133.112 .0225976
1133.724 .0226164
1134.337 .0226365
1134.950 .0226602
1135.564 .0226976
1136.179 .0227451
1136.795 .0228116
1137.411 .0228880
1138.028 .0229765
1138.645 .0230715
1139.263 .0231737
1139.882 .0232715
1140.502 .0233792
1141.122 .0234904
1141.743 .0236064
1142.365 .0237226
1142.987 .0237232
1143.611 .0240929
1144.235 .0242055
1144.859 .0242588
1145.485 .0242130
