Measurement Sequence started on: 10-20-44-796
Integration time: 35
Scans to Average: 2 
>>>>>Begin Spectral Data<<<<<
432.953 .0335619
433.882 .0443751
434.810 .0382861
435.737 .0392615
436.662 .0362138
437.586 .0366860
438.509 .0363586
439.431 .0358581
440.351 .0356544
441.269 .0354826
442.187 .0354165
443.103 .0353688
444.018 .0352966
444.932 .0352332
445.844 .0351734
446.756 .0351221
447.666 .0351016
448.575 .0351022
449.482 .0351059
450.388 .0351173
451.294 .0351342
452.198 .0351324
453.100 .0351131
454.002 .0350809
454.902 .0350233
455.801 .0349520
456.699 .0348732
457.596 .0347893
458.492 .0347061
459.387 .0346392
460.280 .0345883
461.172 .0345605
462.064 .0345559
462.954 .0345650
463.843 .0345811
464.730 .0346028
465.617 .0346215
466.503 .0346315
467.387 .0346336
468.271 .0346253
469.153 .0346081
470.035 .0345900
470.915 .0345772
471.794 .0345682
472.673 .0345609
473.550 .0345553
474.426 .0345487
475.301 .0345378
476.175 .0345187
477.048 .0344940
477.920 .0344622
478.791 .0344269
479.661 .0343898
480.530 .0343523
481.398 .0343196
482.266 .0342930
483.132 .0342764
483.997 .0342637
484.861 .0342578
485.724 .0342576
486.587 .0342611
487.448 .0342708
488.308 .0342827
489.168 .0342958
490.026 .0343126
490.884 .0343313
491.741 .0343473
492.597 .0343596
493.452 .0343676
494.306 .0343690
495.159 .0343657
496.011 .0343548
496.862 .0343395
497.713 .0343175
498.562 .0342940
499.411 .0342635
500.259 .0342232
501.106 .0341754
501.952 .0341166
502.798 .0340517
503.642 .0339762
504.486 .0338885
505.329 .0337948
506.171 .0336977
507.012 .0336002
507.852 .0335022
508.692 .0334072
509.531 .0333131
510.369 .0332175
511.206 .0331182
512.043 .0330136
512.878 .0329013
513.713 .0327835
514.547 .0326623
515.381 .0325347
516.213 .0324059
517.045 .0322696
517.876 .0321266
518.706 .0319797
519.536 .0318270
520.365 .0316636
521.193 .0314930
522.020 .0313176
522.847 .0311340
523.673 .0309442
524.498 .0307588
525.323 .0305722
526.146 .0303945
526.969 .0302305
527.792 .0300768
528.614 .0299322
529.435 .0298129
530.255 .0297072
531.075 .0296180
531.894 .0295425
532.712 .0294708
533.530 .0293936
534.347 .0293172
535.163 .0292303
535.979 .0291399
536.794 .0290510
537.608 .0289661
538.422 .0288790
539.235 .0287989
540.048 .0287193
540.860 .0286407
541.671 .0285635
542.481 .0284853
543.292 .0283960
544.101 .0283041
544.910 .0282117
545.718 .0281274
546.526 .0280642
547.333 .0280261
548.139 .0280156
548.945 .0280343
549.750 .0280707
550.555 .0281220
551.359 .0281829
552.162 .0282463
552.965 .0283101
553.768 .0283694
554.569 .0284274
555.371 .0284843
556.171 .0285440
556.972 .0286055
557.771 .0286668
558.570 .0287276
559.369 .0287886
560.167 .0288447
560.964 .0289012
561.761 .0289544
562.558 .0290126
563.354 .0290809
564.149 .0291536
564.944 .0292331
565.738 .0293180
566.532 .0294048
567.325 .0294902
568.118 .0295700
568.910 .0296494
569.702 .0297272
570.494 .0298072
571.285 .0298910
572.075 .0299793
572.865 .0300738
573.654 .0301741
574.443 .0302748
575.232 .0303737
576.020 .0304657
576.807 .0305473
577.594 .0306190
578.381 .0306814
579.167 .0307372
579.952 .0307900
580.738 .0308413
581.522 .0308936
582.307 .0309437
583.091 .0309948
583.874 .0310437
584.657 .0310893
585.440 .0311312
586.222 .0311684
587.004 .0311983
587.785 .0312226
588.566 .0312419
589.346 .0312588
590.126 .0312715
590.906 .0312820
591.685 .0312905
592.464 .0312965
593.242 .0313024
594.020 .0313073
594.797 .0313109
595.575 .0313144
596.351 .0313160
597.128 .0313166
597.904 .0313155
598.679 .0313132
599.454 .0313080
600.229 .0313000
601.004 .0312910
601.778 .0312799
602.551 .0312676
603.325 .0312554
604.097 .0312427
604.870 .0312298
605.642 .0312162
606.414 .0312014
607.185 .0311851
607.956 .0311677
608.727 .0311493
609.497 .0311294
610.267 .0311084
611.037 .0310868
611.806 .0310645
612.575 .0310424
613.344 .0310213
614.112 .0310007
614.880 .0309816
615.647 .0309631
616.414 .0309449
617.181 .0309275
617.948 .0309104
618.714 .0308936
619.480 .0308765
620.245 .0308593
621.011 .0308417
621.775 .0308228
622.540 .0308034
623.304 .0307836
624.068 .0307638
624.832 .0307446
625.595 .0307250
626.358 .0307048
627.120 .0306842
627.883 .0306622
628.645 .0306382
629.406 .0306127
630.168 .0305855
630.929 .0305572
631.689 .0305279
632.450 .0304978
633.210 .0304677
633.970 .0304383
634.729 .0304094
635.489 .0303804
636.248 .0303510
637.006 .0303213
637.765 .0302906
638.523 .0302602
639.280 .0302309
640.038 .0302024
640.795 .0301757
641.552 .0301508
642.309 .0301283
643.065 .0301081
643.821 .0300893
644.577 .0300722
645.332 .0300559
646.088 .0300399
646.843 .0300230
647.597 .0300061
648.352 .0299899
649.106 .0299745
649.860 .0299602
650.613 .0299469
651.367 .0299352
652.120 .0299243
652.872 .0299137
653.625 .0299026
654.377 .0298907
655.129 .0298772
655.881 .0298617
656.632 .0298446
657.384 .0298265
658.135 .0298080
658.885 .0297903
659.636 .0297730
660.386 .0297562
661.136 .0297399
661.885 .0297242
662.635 .0297084
663.384 .0296928
664.133 .0296768
664.881 .0296601
665.630 .0296432
666.378 .0296266
667.126 .0296109
667.874 .0295965
668.621 .0295832
669.368 .0295707
670.115 .0295587
670.862 .0295473
671.608 .0295361
672.354 .0295255
673.100 .0295157
673.846 .0295064
674.591 .0294975
675.337 .0294890
676.082 .0294808
676.826 .0294725
677.571 .0294638
678.315 .0294543
679.059 .0294437
679.803 .0294320
680.547 .0294193
681.290 .0294062
682.033 .0293921
682.776 .0293768
683.518 .0293607
684.261 .0293433
685.003 .0293249
685.745 .0293053
686.487 .0292850
687.228 .0292647
687.969 .0292444
688.710 .0292241
689.451 .0292041
690.192 .0291847
690.932 .0291654
691.672 .0291456
692.412 .0291257
693.152 .0291055
693.891 .0290852
694.630 .0290659
695.369 .0290479
696.108 .0290309
696.846 .0290157
697.585 .0290013
698.323 .0289876
699.061 .0289738
699.798 .0289591
700.536 .0289429
701.273 .0289253
702.010 .0289063
702.746 .0288861
703.483 .0288657
704.219 .0288457
704.955 .0288257
705.691 .0288061
706.427 .0287864
707.162 .0287663
707.897 .0287456
708.632 .0287243
709.367 .0287025
710.101 .0286804
710.835 .0286584
711.569 .0286369
712.303 .0286161
713.037 .0285962
713.770 .0285775
714.503 .0285595
715.236 .0285423
715.969 .0285253
716.702 .0285085
717.434 .0284920
718.166 .0284755
718.898 .0284588
719.629 .0284417
720.361 .0284243
721.092 .0284063
721.823 .0283876
722.554 .0283682
723.284 .0283482
724.014 .0283277
724.744 .0283068
725.474 .0282850
726.204 .0282628
726.933 .0282405
727.662 .0282178
728.391 .0281951
729.120 .0281727
729.849 .0281505
730.577 .0281292
731.305 .0281088
732.033 .0280896
732.760 .0280715
733.488 .0280541
734.215 .0280369
734.942 .0280197
735.669 .0280020
736.395 .0279834
737.122 .0279643
737.848 .0279452
738.573 .0279260
739.299 .0279071
740.024 .0278887
740.750 .0278712
741.474 .0278542
742.199 .0278377
742.924 .0278208
743.648 .0278037
744.372 .0277864
745.096 .0277686
745.819 .0277511
746.543 .0277342
747.266 .0277183
747.989 .0277040
748.711 .0276916
749.434 .0276808
750.156 .0276711
750.878 .0276628
751.599 .0276552
752.321 .0276481
753.042 .0276412
753.763 .0276343
754.484 .0276276
755.205 .0276208
755.925 .0276139
756.645 .0276064
757.365 .0275987
758.085 .0275902
758.804 .0275804
759.523 .0275696
760.242 .0275573
760.961 .0275434
761.679 .0275281
762.397 .0275117
763.115 .0274942
763.833 .0274756
764.551 .0274564
765.268 .0274368
765.985 .0274170
766.702 .0273972
767.418 .0273780
768.134 .0273600
768.850 .0273433
769.566 .0273278
770.282 .0273138
770.997 .0273010
771.712 .0272894
772.427 .0272785
773.142 .0272678
773.856 .0272571
774.570 .0272459
775.284 .0272341
775.998 .0272219
776.711 .0272095
777.424 .0271969
778.137 .0271841
778.849 .0271716
779.562 .0271586
780.274 .0271452
780.986 .0271318
781.697 .0271189
782.409 .0271064
783.120 .0270948
783.831 .0270841
784.541 .0270753
785.252 .0270682
785.962 .0270629
786.671 .0270586
787.381 .0270557
788.090 .0270532
788.799 .0270503
789.508 .0270467
790.217 .0270424
790.925 .0270369
791.633 .0270306
792.341 .0270229
793.048 .0270136
793.755 .0270023
794.462 .0269889
795.169 .0269734
795.875 .0269556
796.581 .0269356
797.287 .0269140
797.993 .0268916
798.698 .0268691
799.403 .0268469
800.108 .0268259
800.812 .0268063
801.517 .0267882
802.221 .0267713
802.924 .0267553
803.628 .0267403
804.331 .0267269
805.034 .0267147
805.736 .0267036
806.439 .0266940
807.141 .0266860
807.843 .0266795
808.544 .0266741
809.245 .0266687
809.946 .0266628
810.647 .0266560
811.347 .0266480
812.047 .0266383
812.747 .0266271
813.447 .0266147
814.146 .0266014
814.845 .0265883
815.543 .0265755
816.242 .0265635
816.940 .0265527
817.638 .0265430
818.335 .0265342
819.032 .0265260
819.729 .0265180
820.426 .0265102
821.122 .0265026
821.818 .0264944
822.514 .0264858
823.209 .0264770
823.905 .0264682
824.599 .0264600
825.294 .0264521
825.988 .0264442
826.682 .0264358
827.376 .0264267
828.069 .0264160
828.762 .0264035
829.455 .0263889
830.147 .0263724
830.840 .0263543
831.531 .0263353
832.223 .0263162
832.914 .0262975
833.605 .0262803
834.296 .0262649
834.986 .0262509
835.676 .0262381
836.366 .0262260
837.055 .0262148
837.744 .0262038
838.433 .0261934
839.121 .0261837
839.809 .0261747
840.497 .0261669
841.185 .0261607
841.872 .0261555
842.559 .0261519
843.245 .0261490
843.932 .0261466
844.617 .0261440
845.303 .0261412
845.988 .0261375
846.673 .0261333
847.358 .0261284
848.042 .0261232
848.726 .0261170
849.410 .0261108
850.093 .0261040
850.776 .0260968
851.459 .0260888
852.141 .0260798
852.823 .0260693
853.505 .0260581
854.186 .0260453
854.867 .0260316
855.548 .0260170
856.228 .0260023
856.908 .0259875
857.588 .0259730
858.267 .0259589
858.946 .0259460
859.625 .0259342
860.303 .0259237
860.981 .0259137
861.659 .0259047
862.336 .0258960
863.013 .0258880
863.690 .0258801
864.366 .0258725
865.042 .0258653
865.718 .0258592
866.393 .0258535
867.068 .0258489
867.743 .0258450
868.417 .0258412
869.091 .0258374
869.765 .0258328
870.438 .0258264
871.111 .0258187
871.783 .0258095
872.456 .0257993
873.127 .0257881
873.799 .0257768
874.470 .0257653
875.141 .0257543
875.811 .0257436
876.481 .0257330
877.151 .0257226
877.820 .0257124
878.489 .0257024
879.158 .0256930
879.826 .0256844
880.494 .0256770
881.162 .0256707
881.829 .0256659
882.496 .0256614
883.163 .0256571
883.829 .0256526
884.495 .0256476
885.160 .0256425
885.825 .0256370
886.490 .0256318
887.154 .0256272
887.818 .0256235
888.482 .0256203
889.145 .0256171
889.808 .0256139
890.471 .0256097
891.133 .0256047
891.795 .0255985
892.456 .0255913
893.117 .0255838
893.778 .0255763
894.439 .0255693
895.099 .0255628
895.758 .0255572
896.417 .0255520
897.076 .0255475
897.735 .0255431
898.393 .0255385
899.051 .0255339
899.708 .0255291
900.365 .0255240
901.022 .0255189
901.678 .0255141
902.334 .0255092
902.990 .0255045
903.645 .0255001
904.300 .0254959
904.954 .0254922
905.608 .0254885
906.262 .0254854
906.915 .0254822
907.568 .0254786
908.221 .0254741
908.873 .0254688
909.525 .0254628
910.176 .0254559
910.828 .0254489
911.478 .0254417
912.129 .0254346
912.778 .0254279
913.428 .0254215
914.077 .0254152
914.726 .0254085
915.375 .0254011
916.023 .0253927
916.670 .0253837
917.318 .0253737
917.964 .0253631
918.611 .0253522
919.257 .0253415
919.903 .0253307
920.548 .0253199
921.193 .0253090
921.838 .0252983
922.482 .0252873
923.126 .0252761
923.770 .0252647
924.413 .0252535
925.056 .0252421
925.698 .0252315
926.340 .0252214
926.982 .0252123
927.623 .0252039
928.264 .0251962
928.904 .0251891
929.544 .0251826
930.184 .0251763
930.823 .0251703
931.462 .0251645
932.101 .0251587
932.739 .0251523
933.377 .0251455
934.014 .0251377
934.651 .0251293
935.288 .0251195
935.924 .0251087
936.560 .0250970
937.196 .0250845
937.831 .0250707
938.466 .0250568
939.100 .0250422
939.734 .0250269
940.368 .0250112
941.001 .0249956
941.634 .0249796
942.266 .0249638
942.899 .0249475
943.530 .0249308
944.162 .0249136
944.793 .0248963
945.423 .0248780
946.053 .0248597
946.683 .0248419
947.313 .0248249
947.942 .0248087
948.571 .0247938
949.199 .0247791
949.827 .0247645
950.455 .0247494
951.082 .0247333
951.709 .0247158
952.335 .0246978
952.961 .0246791
953.587 .0246609
954.212 .0246436
954.837 .0246277
955.462 .0246131
956.086 .0246001
956.710 .0245880
957.334 .0245764
957.957 .0245643
958.579 .0245517
959.202 .0245386
959.824 .0245251
960.445 .0245114
961.067 .0244981
961.688 .0244856
962.308 .0244738
962.928 .0244626
963.548 .0244519
964.168 .0244412
964.787 .0244303
965.406 .0244190
966.024 .0244073
966.642 .0243951
967.260 .0243824
967.877 .0243696
968.494 .0243562
969.110 .0243421
969.727 .0243270
970.342 .0243110
970.958 .0242947
971.573 .0242786
972.188 .0242626
972.802 .0242476
973.416 .0242346
974.030 .0242227
974.643 .0242121
975.256 .0242030
975.869 .0241948
976.481 .0241870
977.093 .0241793
977.705 .0241719
978.316 .0241645
978.927 .0241576
979.538 .0241512
980.148 .0241448
980.758 .0241389
981.367 .0241333
981.977 .0241277
982.586 .0241222
983.194 .0241166
983.802 .0241102
984.410 .0241026
985.018 .0240937
985.625 .0240833
986.232 .0240717
986.838 .0240597
987.445 .0240477
988.050 .0240357
988.656 .0240249
989.261 .0240150
989.866 .0240061
990.471 .0239980
991.075 .0239900
991.679 .0239820
992.282 .0239742
992.886 .0239660
993.489 .0239578
994.091 .0239497
994.694 .0239426
995.296 .0239363
995.897 .0239307
996.499 .0239256
997.100 .0239207
997.701 .0239158
998.301 .0239114
998.901 .0239068
999.501 .0239031
1000.101 .0239000
1000.700 .0238983
1001.299 .0238969
1001.898 .0238966
1002.496 .0238963
1003.094 .0238962
1003.692 .0238957
1004.289 .0238945
1004.887 .0238924
1005.484 .0238899
1006.080 .0238868
1006.677 .0238837
1007.273 .0238802
1007.868 .0238768
1008.464 .0238728
1009.059 .0238687
1009.654 .0238632
1010.249 .0238574
1010.843 .0238507
1011.437 .0238440
1012.031 .0238369
1012.625 .0238300
1013.218 .0238234
1013.811 .0238170
1014.404 .0238118
1014.997 .0238071
1015.589 .0238026
1016.181 .0237991
1016.773 .0237953
1017.365 .0237919
1017.956 .0237883
1018.547 .0237843
1019.138 .0237801
1019.728 .0237766
1020.319 .0237735
1020.909 .0237718
1021.499 .0237716
1022.088 .0237725
1022.678 .0237738
1023.267 .0237748
1023.856 .0237756
1024.445 .0237752
1025.033 .0237736
1025.621 .0237706
1026.209 .0237664
1026.797 .0237625
1027.385 .0237579
1027.972 .0237539
1028.560 .0237506
1029.147 .0237473
1029.734 .0237441
1030.320 .0237399
1030.907 .0237354
1031.493 .0237308
1032.079 .0237264
1032.665 .0237233
1033.250 .0237219
1033.836 .0237221
1034.421 .0237237
1035.006 .0237264
1035.591 .0237295
1036.176 .0237319
1036.761 .0237332
1037.345 .0237337
1037.929 .0237330
1038.514 .0237313
1039.097 .0237290
1039.681 .0237270
1040.265 .0237256
1040.848 .0237239
1041.432 .0237216
1042.015 .0237192
1042.598 .0237154
1043.181 .0237099
1043.764 .0237025
1044.346 .0236941
1044.929 .0236857
1045.511 .0236771
1046.094 .0236689
1046.676 .0236623
1047.258 .0236570
1047.840 .0236533
1048.422 .0236511
1049.003 .0236501
1049.585 .0236488
1050.166 .0236470
1050.748 .0236440
1051.329 .0236394
1051.910 .0236337
1052.491 .0236272
1053.072 .0236200
1053.653 .0236135
1054.234 .0236066
1054.815 .0235989
1055.396 .0235916
1055.976 .0235855
1056.557 .0235785
1057.138 .0235715
1057.718 .0235640
1058.298 .0235563
1058.879 .0235489
1059.459 .0235424
1060.039 .0235372
1060.620 .0235328
1061.200 .0235295
1061.780 .0235263
1062.360 .0235223
1062.940 .0235185
1063.520 .0235135
1064.101 .0235076
1064.681 .0235011
1065.261 .0234937
1065.841 .0234843
1066.421 .0234740
1067.001 .0234634
1067.581 .0234522
1068.161 .0234400
1068.741 .0234272
1069.321 .0234136
1069.901 .0234005
1070.482 .0233880
1071.062 .0233761
1071.642 .0233645
1072.222 .0233547
1072.803 .0233444
1073.383 .0233355
1073.963 .0233271
1074.544 .0233213
1075.124 .0233187
1075.705 .0233188
1076.286 .0233214
1076.866 .0233259
1077.447 .0233309
1078.028 .0233363
1078.609 .0233403
1079.190 .0233443
1079.771 .0233463
1080.352 .0233483
1080.934 .0233502
1081.515 .0233530
1082.097 .0233577
1082.679 .0233643
1083.260 .0233716
1083.842 .0233804
1084.424 .0233891
1085.007 .0233972
1085.589 .0234042
1086.172 .0234105
1086.754 .0234157
1087.337 .0234203
1087.920 .0234248
1088.503 .0234288
1089.087 .0234313
1089.670 .0234336
1090.254 .0234338
1090.838 .0234328
1091.422 .0234305
1092.006 .0234270
1092.590 .0234235
1093.175 .0234194
1093.760 .0234156
1094.345 .0234107
1094.930 .0234046
1095.516 .0233993
1096.102 .0233926
1096.688 .0233846
1097.274 .0233770
1097.860 .0233686
1098.447 .0233607
1099.034 .0233539
1099.622 .0233483
1100.209 .0233452
1100.797 .0233440
1101.385 .0233448
1101.973 .0233471
1102.562 .0233519
1103.151 .0233605
1103.740 .0233699
1104.330 .0233810
1104.920 .0233925
1105.510 .0234026
1106.101 .0234136
1106.691 .0234237
1107.283 .0234349
1107.874 .0234477
1108.466 .0234614
1109.058 .0234778
1109.651 .0234952
1110.244 .0235125
1110.837 .0235287
1111.431 .0235397
1112.025 .0235453
1112.620 .0235429
1113.215 .0235333
1113.810 .0235187
1114.406 .0235014
1115.002 .0234854
1115.599 .0234692
1116.196 .0234531
1116.793 .0234394
1117.391 .0234243
1117.989 .0234078
1118.588 .0233892
1119.187 .0233669
1119.787 .0233428
1120.387 .0233177
1120.988 .0232947
1121.589 .0232781
1122.190 .0232698
1122.793 .0232696
1123.395 .0232758
1123.998 .0232896
1124.602 .0233093
1125.206 .0233322
1125.811 .0233616
1126.416 .0233933
1127.022 .0234283
1127.628 .0234670
1128.235 .0235086
1128.843 .0235545
1129.451 .0236023
1130.059 .0236531
1130.669 .0237050
1131.278 .0237566
1131.889 .0238088
1132.500 .0238621
1133.112 .0239197
1133.724 .0239791
1134.337 .0240398
1134.950 .0241004
1135.564 .0241601
1136.179 .0242211
1136.795 .0242840
1137.411 .0243513
1138.028 .0244227
1138.645 .0245017
1139.263 .0245906
1139.882 .0246901
1140.502 .0247978
1141.122 .0249158
1141.743 .0250527
1142.365 .0252147
1142.987 .0253402
1143.611 .0254073
1144.235 .0256163
1144.859 .0260452
1145.485 .0264995
