Measurement Sequence started on: 10-20-44-796
Integration time: 35
Scans to Average: 2 
>>>>>Begin Spectral Data<<<<<
432.953 .0379848
433.882 .0348341
434.810 .0356059
435.737 .0366006
436.662 .0343055
437.586 .0351141
438.509 .0348748
439.431 .0347351
440.351 .0345787
441.269 .0344221
442.187 .0343396
443.103 .0342510
444.018 .0341867
444.932 .0341470
445.844 .0341161
446.756 .0340942
447.666 .0340759
448.575 .0340582
449.482 .0340378
450.388 .0340241
451.294 .0340111
452.198 .0339967
453.100 .0339818
454.002 .0339722
454.902 .0339658
455.801 .0339674
456.699 .0339629
457.596 .0339586
458.492 .0339422
459.387 .0339195
460.280 .0338846
461.172 .0338411
462.064 .0337947
462.954 .0337435
463.843 .0336896
464.730 .0336429
465.617 .0336010
466.503 .0335671
467.387 .0335353
468.271 .0334994
469.153 .0334584
470.035 .0334098
470.915 .0333552
471.794 .0332976
472.673 .0332416
473.550 .0331937
474.426 .0331541
475.301 .0331242
476.175 .0331036
477.048 .0330893
477.920 .0330793
478.791 .0330651
479.661 .0330478
480.530 .0330280
481.398 .0329999
482.266 .0329700
483.132 .0329468
483.997 .0329267
484.861 .0329126
485.724 .0329049
486.587 .0329033
487.448 .0328989
488.308 .0328924
489.168 .0328790
490.026 .0328571
490.884 .0328312
491.741 .0327973
492.597 .0327557
493.452 .0327152
494.306 .0326727
495.159 .0326248
496.011 .0325762
496.862 .0325285
497.713 .0324709
498.562 .0324060
499.411 .0323356
500.259 .0322556
501.106 .0321673
501.952 .0320752
502.798 .0319782
503.642 .0318800
504.486 .0317824
505.329 .0316818
506.171 .0315816
507.012 .0314835
507.852 .0313849
508.692 .0312838
509.531 .0311825
510.369 .0310778
511.206 .0309660
512.043 .0308502
512.878 .0307260
513.713 .0305906
514.547 .0304445
515.381 .0302896
516.213 .0301249
517.045 .0299499
517.876 .0297666
518.706 .0295755
519.536 .0293780
520.365 .0291693
521.193 .0289471
522.020 .0287161
522.847 .0284715
523.673 .0282204
524.498 .0279662
525.323 .0277179
526.146 .0274860
526.969 .0272759
527.792 .0270900
528.614 .0269336
529.435 .0268074
530.255 .0267062
531.075 .0266209
531.894 .0265565
532.712 .0265008
533.530 .0264500
534.347 .0264093
535.163 .0263716
535.979 .0263399
536.794 .0263151
537.608 .0262942
538.422 .0262809
539.235 .0262728
540.048 .0262665
540.860 .0262575
541.671 .0262517
542.481 .0262493
543.292 .0262396
544.101 .0262351
544.910 .0262360
545.718 .0262450
546.526 .0262691
547.333 .0263088
548.139 .0263652
548.945 .0264416
549.750 .0265279
550.555 .0266227
551.359 .0267202
552.162 .0268167
552.965 .0269059
553.768 .0269855
554.569 .0270583
555.371 .0271233
556.171 .0271860
556.972 .0272551
557.771 .0273259
558.570 .0274048
559.369 .0274857
560.167 .0275709
560.964 .0276597
561.761 .0277447
562.558 .0278279
563.354 .0279077
564.149 .0279824
564.944 .0280578
565.738 .0281307
566.532 .0282057
567.325 .0282827
568.118 .0283630
568.910 .0284439
569.702 .0285251
570.494 .0286078
571.285 .0286884
572.075 .0287652
572.865 .0288375
573.654 .0289033
574.443 .0289631
575.232 .0290177
576.020 .0290666
576.807 .0291125
577.594 .0291594
578.381 .0292048
579.167 .0292510
579.952 .0292994
580.738 .0293495
581.522 .0293992
582.307 .0294461
583.091 .0294893
583.874 .0295278
584.657 .0295610
585.440 .0295909
586.222 .0296179
587.004 .0296453
587.785 .0296744
588.566 .0297061
589.346 .0297399
590.126 .0297742
590.906 .0298060
591.685 .0298348
592.464 .0298581
593.242 .0298762
594.020 .0298872
594.797 .0298929
595.575 .0298953
596.351 .0298954
597.128 .0298939
597.904 .0298922
598.679 .0298904
599.454 .0298885
600.229 .0298854
601.004 .0298811
601.778 .0298743
602.551 .0298650
603.325 .0298532
604.097 .0298385
604.870 .0298213
605.642 .0298031
606.414 .0297832
607.185 .0297640
607.956 .0297462
608.727 .0297297
609.497 .0297141
610.267 .0296991
611.037 .0296840
611.806 .0296680
612.575 .0296507
613.344 .0296310
614.112 .0296088
614.880 .0295852
615.647 .0295606
616.414 .0295358
617.181 .0295128
617.948 .0294925
618.714 .0294743
619.480 .0294587
620.245 .0294442
621.011 .0294301
621.775 .0294156
622.540 .0294004
623.304 .0293845
624.068 .0293680
624.832 .0293514
625.595 .0293349
626.358 .0293200
627.120 .0293071
627.883 .0292955
628.645 .0292847
629.406 .0292753
630.168 .0292658
630.929 .0292557
631.689 .0292451
632.450 .0292332
633.210 .0292215
633.970 .0292094
634.729 .0291965
635.489 .0291837
636.248 .0291702
637.006 .0291570
637.765 .0291429
638.523 .0291287
639.280 .0291141
640.038 .0290984
640.795 .0290828
641.552 .0290661
642.309 .0290489
643.065 .0290309
643.821 .0290121
644.577 .0289925
645.332 .0289726
646.088 .0289523
646.843 .0289321
647.597 .0289118
648.352 .0288920
649.106 .0288729
649.860 .0288540
650.613 .0288359
651.367 .0288188
652.120 .0288026
652.872 .0287874
653.625 .0287730
654.377 .0287603
655.129 .0287485
655.881 .0287382
656.632 .0287281
657.384 .0287182
658.135 .0287086
658.885 .0286982
659.636 .0286870
660.386 .0286757
661.136 .0286634
661.885 .0286501
662.635 .0286360
663.384 .0286215
664.133 .0286060
664.881 .0285899
665.630 .0285728
666.378 .0285552
667.126 .0285368
667.874 .0285179
668.621 .0284983
669.368 .0284788
670.115 .0284589
670.862 .0284386
671.608 .0284183
672.354 .0283979
673.100 .0283768
673.846 .0283557
674.591 .0283345
675.337 .0283139
676.082 .0282936
676.826 .0282741
677.571 .0282558
678.315 .0282384
679.059 .0282220
679.803 .0282066
680.547 .0281923
681.290 .0281791
682.033 .0281659
682.776 .0281530
683.518 .0281401
684.261 .0281270
685.003 .0281142
685.745 .0281018
686.487 .0280900
687.228 .0280788
687.969 .0280679
688.710 .0280574
689.451 .0280460
690.192 .0280341
690.932 .0280210
691.672 .0280068
692.412 .0279917
693.152 .0279758
693.891 .0279594
694.630 .0279436
695.369 .0279286
696.108 .0279145
696.846 .0279014
697.585 .0278885
698.323 .0278755
699.061 .0278624
699.798 .0278493
700.536 .0278358
701.273 .0278222
702.010 .0278091
702.746 .0277962
703.483 .0277843
704.219 .0277728
704.955 .0277621
705.691 .0277521
706.427 .0277421
707.162 .0277317
707.897 .0277206
708.632 .0277094
709.367 .0276981
710.101 .0276866
710.835 .0276757
711.569 .0276650
712.303 .0276547
713.037 .0276449
713.770 .0276351
714.503 .0276247
715.236 .0276135
715.969 .0276011
716.702 .0275875
717.434 .0275727
718.166 .0275566
718.898 .0275395
719.629 .0275222
720.361 .0275051
721.092 .0274878
721.823 .0274702
722.554 .0274528
723.284 .0274347
724.014 .0274153
724.744 .0273943
725.474 .0273717
726.204 .0273479
726.933 .0273233
727.662 .0272984
728.391 .0272738
729.120 .0272501
729.849 .0272273
730.577 .0272053
731.305 .0271838
732.033 .0271626
732.760 .0271406
733.488 .0271181
734.215 .0270955
734.942 .0270727
735.669 .0270505
736.395 .0270302
737.122 .0270119
737.848 .0269958
738.573 .0269821
739.299 .0269701
740.024 .0269589
740.750 .0269481
741.474 .0269364
742.199 .0269236
742.924 .0269097
743.648 .0268953
744.372 .0268800
745.096 .0268654
745.819 .0268515
746.543 .0268378
747.266 .0268252
747.989 .0268134
748.711 .0268017
749.434 .0267899
750.156 .0267781
750.878 .0267658
751.599 .0267538
752.321 .0267424
753.042 .0267315
753.763 .0267224
754.484 .0267149
755.205 .0267086
755.925 .0267036
756.645 .0266996
757.365 .0266960
758.085 .0266923
758.804 .0266881
759.523 .0266819
760.242 .0266746
760.961 .0266658
761.679 .0266553
762.397 .0266430
763.115 .0266293
763.833 .0266135
764.551 .0265961
765.268 .0265770
765.985 .0265559
766.702 .0265337
767.418 .0265108
768.134 .0264872
768.850 .0264637
769.566 .0264408
770.282 .0264188
770.997 .0263977
771.712 .0263782
772.427 .0263590
773.142 .0263403
773.856 .0263223
774.570 .0263049
775.284 .0262881
775.998 .0262723
776.711 .0262579
777.424 .0262453
778.137 .0262348
778.849 .0262256
779.562 .0262179
780.274 .0262116
780.986 .0262059
781.697 .0262006
782.409 .0261952
783.120 .0261905
783.831 .0261863
784.541 .0261830
785.252 .0261809
785.962 .0261796
786.671 .0261790
787.381 .0261786
788.090 .0261781
788.799 .0261775
789.508 .0261760
790.217 .0261739
790.925 .0261714
791.633 .0261681
792.341 .0261637
793.048 .0261582
793.755 .0261520
794.462 .0261447
795.169 .0261362
795.875 .0261270
796.581 .0261178
797.287 .0261090
797.993 .0261007
798.698 .0260931
799.403 .0260865
800.108 .0260807
800.812 .0260748
801.517 .0260689
802.221 .0260626
802.924 .0260559
803.628 .0260492
804.331 .0260431
805.034 .0260381
805.736 .0260339
806.439 .0260308
807.141 .0260285
807.843 .0260265
808.544 .0260241
809.245 .0260204
809.946 .0260160
810.647 .0260108
811.347 .0260048
812.047 .0259980
812.747 .0259919
813.447 .0259863
814.146 .0259812
814.845 .0259764
815.543 .0259717
816.242 .0259664
816.940 .0259607
817.638 .0259542
818.335 .0259472
819.032 .0259396
819.729 .0259317
820.426 .0259230
821.122 .0259134
821.818 .0259027
822.514 .0258909
823.209 .0258784
823.905 .0258654
824.599 .0258513
825.294 .0258364
825.988 .0258210
826.682 .0258053
827.376 .0257895
828.069 .0257736
828.762 .0257576
829.455 .0257413
830.147 .0257245
830.840 .0257076
831.531 .0256913
832.223 .0256759
832.914 .0256617
833.605 .0256484
834.296 .0256362
834.986 .0256248
835.676 .0256142
836.366 .0256040
837.055 .0255940
837.744 .0255840
838.433 .0255733
839.121 .0255623
839.809 .0255512
840.497 .0255404
841.185 .0255300
841.872 .0255197
842.559 .0255097
843.245 .0254996
843.932 .0254894
844.617 .0254791
845.303 .0254686
845.988 .0254578
846.673 .0254465
847.358 .0254347
848.042 .0254226
848.726 .0254102
849.410 .0253976
850.093 .0253848
850.776 .0253717
851.459 .0253578
852.141 .0253427
852.823 .0253267
853.505 .0253099
854.186 .0252925
854.867 .0252748
855.548 .0252568
856.228 .0252390
856.908 .0252214
857.588 .0252040
858.267 .0251867
858.946 .0251691
859.625 .0251515
860.303 .0251338
860.981 .0251163
861.659 .0250992
862.336 .0250825
863.013 .0250668
863.690 .0250519
864.366 .0250374
865.042 .0250226
865.718 .0250071
866.393 .0249903
867.068 .0249720
867.743 .0249522
868.417 .0249316
869.091 .0249107
869.765 .0248904
870.438 .0248709
871.111 .0248525
871.783 .0248350
872.456 .0248182
873.127 .0248016
873.799 .0247848
874.470 .0247676
875.141 .0247501
875.811 .0247326
876.481 .0247160
877.151 .0247002
877.820 .0246857
878.489 .0246728
879.158 .0246610
879.826 .0246503
880.494 .0246409
881.162 .0246321
881.829 .0246246
882.496 .0246177
883.163 .0246118
883.829 .0246060
884.495 .0246000
885.160 .0245938
885.825 .0245875
886.490 .0245810
887.154 .0245747
887.818 .0245688
888.482 .0245639
889.145 .0245596
889.808 .0245564
890.471 .0245542
891.133 .0245526
891.795 .0245505
892.456 .0245480
893.117 .0245437
893.778 .0245384
894.439 .0245316
895.099 .0245238
895.758 .0245158
896.417 .0245080
897.076 .0245004
897.735 .0244932
898.393 .0244867
899.051 .0244809
899.708 .0244751
900.365 .0244695
901.022 .0244631
901.678 .0244557
902.334 .0244473
902.990 .0244381
903.645 .0244281
904.300 .0244182
904.954 .0244081
905.608 .0243984
906.262 .0243894
906.915 .0243813
907.568 .0243740
908.221 .0243680
908.873 .0243630
909.525 .0243587
910.176 .0243547
910.828 .0243513
911.478 .0243487
912.129 .0243469
912.778 .0243462
913.428 .0243462
914.077 .0243471
914.726 .0243491
915.375 .0243516
916.023 .0243547
916.670 .0243588
917.318 .0243636
917.964 .0243685
918.611 .0243736
919.257 .0243785
919.903 .0243830
920.548 .0243875
921.193 .0243917
921.838 .0243958
922.482 .0244002
923.126 .0244053
923.770 .0244111
924.413 .0244175
925.056 .0244244
925.698 .0244314
926.340 .0244381
926.982 .0244443
927.623 .0244491
928.264 .0244526
928.904 .0244553
929.544 .0244569
930.184 .0244577
930.823 .0244575
931.462 .0244560
932.101 .0244529
932.739 .0244479
933.377 .0244408
934.014 .0244309
934.651 .0244196
935.288 .0244068
935.924 .0243930
936.560 .0243791
937.196 .0243657
937.831 .0243527
938.466 .0243407
939.100 .0243291
939.734 .0243175
940.368 .0243059
941.001 .0242942
941.634 .0242827
942.266 .0242721
942.899 .0242628
943.530 .0242548
944.162 .0242481
944.793 .0242428
945.423 .0242374
946.053 .0242317
946.683 .0242251
947.313 .0242176
947.942 .0242089
948.571 .0241991
949.199 .0241885
949.827 .0241779
950.455 .0241677
951.082 .0241583
951.709 .0241493
952.335 .0241409
952.961 .0241326
953.587 .0241243
954.212 .0241154
954.837 .0241060
955.462 .0240960
956.086 .0240854
956.710 .0240748
957.334 .0240640
957.957 .0240533
958.579 .0240428
959.202 .0240328
959.824 .0240230
960.445 .0240129
961.067 .0240025
961.688 .0239914
962.308 .0239789
962.928 .0239653
963.548 .0239502
964.168 .0239339
964.787 .0239173
965.406 .0239006
966.024 .0238841
966.642 .0238684
967.260 .0238541
967.877 .0238410
968.494 .0238289
969.110 .0238179
969.727 .0238074
970.342 .0237969
970.958 .0237871
971.573 .0237772
972.188 .0237682
972.802 .0237604
973.416 .0237541
974.030 .0237489
974.643 .0237450
975.256 .0237421
975.869 .0237404
976.481 .0237390
977.093 .0237385
977.705 .0237380
978.316 .0237382
978.927 .0237387
979.538 .0237390
980.148 .0237393
980.758 .0237396
981.367 .0237392
981.977 .0237382
982.586 .0237358
983.194 .0237327
983.802 .0237282
984.410 .0237227
985.018 .0237162
985.625 .0237088
986.232 .0237008
986.838 .0236926
987.445 .0236838
988.050 .0236742
988.656 .0236638
989.261 .0236520
989.866 .0236385
990.471 .0236233
991.075 .0236067
991.679 .0235891
992.282 .0235713
992.886 .0235545
993.489 .0235388
994.091 .0235251
994.694 .0235133
995.296 .0235020
995.897 .0234908
996.499 .0234782
997.100 .0234641
997.701 .0234483
998.301 .0234319
998.901 .0234155
999.501 .0234005
1000.101 .0233876
1000.700 .0233776
1001.299 .0233703
1001.898 .0233652
1002.496 .0233614
1003.094 .0233573
1003.692 .0233521
1004.289 .0233453
1004.887 .0233373
1005.484 .0233289
1006.080 .0233212
1006.677 .0233149
1007.273 .0233098
1007.868 .0233065
1008.464 .0233041
1009.059 .0233023
1009.654 .0233006
1010.249 .0232981
1010.843 .0232949
1011.437 .0232903
1012.031 .0232845
1012.625 .0232780
1013.218 .0232714
1013.811 .0232653
1014.404 .0232594
1014.997 .0232534
1015.589 .0232472
1016.181 .0232408
1016.773 .0232345
1017.365 .0232276
1017.956 .0232203
1018.547 .0232124
1019.138 .0232034
1019.728 .0231929
1020.319 .0231812
1020.909 .0231681
1021.499 .0231551
1022.088 .0231420
1022.678 .0231288
1023.267 .0231162
1023.856 .0231047
1024.445 .0230943
1025.033 .0230851
1025.621 .0230769
1026.209 .0230688
1026.797 .0230601
1027.385 .0230509
1027.972 .0230405
1028.560 .0230297
1029.147 .0230195
1029.734 .0230103
1030.320 .0230029
1030.907 .0229972
1031.493 .0229928
1032.079 .0229899
1032.665 .0229888
1033.250 .0229880
1033.836 .0229867
1034.421 .0229849
1035.006 .0229827
1035.591 .0229799
1036.176 .0229775
1036.761 .0229755
1037.345 .0229749
1037.929 .0229752
1038.514 .0229762
1039.097 .0229765
1039.681 .0229765
1040.265 .0229758
1040.848 .0229746
1041.432 .0229727
1042.015 .0229701
1042.598 .0229661
1043.181 .0229616
1043.764 .0229569
1044.346 .0229519
1044.929 .0229463
1045.511 .0229413
1046.094 .0229355
1046.676 .0229299
1047.258 .0229230
1047.840 .0229160
1048.422 .0229087
1049.003 .0229009
1049.585 .0228922
1050.166 .0228823
1050.748 .0228718
1051.329 .0228612
1051.910 .0228515
1052.491 .0228435
1053.072 .0228363
1053.653 .0228309
1054.234 .0228263
1054.815 .0228229
1055.396 .0228193
1055.976 .0228155
1056.557 .0228117
1057.138 .0228082
1057.718 .0228042
1058.298 .0227994
1058.879 .0227949
1059.459 .0227900
1060.039 .0227847
1060.620 .0227781
1061.200 .0227692
1061.780 .0227577
1062.360 .0227434
1062.940 .0227280
1063.520 .0227113
1064.101 .0226945
1064.681 .0226783
1065.261 .0226632
1065.841 .0226507
1066.421 .0226397
1067.001 .0226312
1067.581 .0226255
1068.161 .0226228
1068.741 .0226220
1069.321 .0226235
1069.901 .0226279
1070.482 .0226323
1071.062 .0226361
1071.642 .0226387
1072.222 .0226393
1072.803 .0226357
1073.383 .0226289
1073.963 .0226192
1074.544 .0226073
1075.124 .0225949
1075.705 .0225816
1076.286 .0225689
1076.866 .0225587
1077.447 .0225494
1078.028 .0225407
1078.609 .0225334
1079.190 .0225287
1079.771 .0225239
1080.352 .0225221
1080.934 .0225237
1081.515 .0225285
1082.097 .0225379
1082.679 .0225530
1083.260 .0225723
1083.842 .0225967
1084.424 .0226240
1085.007 .0226521
1085.589 .0226803
1086.172 .0227070
1086.754 .0227286
1087.337 .0227458
1087.920 .0227604
1088.503 .0227712
1089.087 .0227785
1089.670 .0227858
1090.254 .0227935
1090.838 .0228016
1091.422 .0228121
1092.006 .0228231
1092.590 .0228346
1093.175 .0228456
1093.760 .0228536
1094.345 .0228568
1094.930 .0228562
1095.516 .0228514
1096.102 .0228429
1096.688 .0228339
1097.274 .0228279
1097.860 .0228244
1098.447 .0228252
1099.034 .0228305
1099.622 .0228396
1100.209 .0228513
1100.797 .0228632
1101.385 .0228718
1101.973 .0228772
1102.562 .0228787
1103.151 .0228770
1103.740 .0228733
1104.330 .0228718
1104.920 .0228750
1105.510 .0228816
1106.101 .0228921
1106.691 .0229051
1107.283 .0229181
1107.874 .0229295
1108.466 .0229369
1109.058 .0229409
1109.651 .0229419
1110.244 .0229424
1110.837 .0229438
1111.431 .0229489
1112.025 .0229593
1112.620 .0229726
1113.215 .0229889
1113.810 .0230084
1114.406 .0230274
1115.002 .0230425
1115.599 .0230570
1116.196 .0230688
1116.793 .0230788
1117.391 .0230893
1117.989 .0231004
1118.588 .0231161
1119.187 .0231374
1119.787 .0231615
1120.387 .0231875
1120.988 .0232159
1121.589 .0232451
1122.190 .0232712
1122.793 .0232967
1123.395 .0233184
1123.998 .0233360
1124.602 .0233549
1125.206 .0233742
1125.811 .0233932
1126.416 .0234145
1127.022 .0234367
1127.628 .0234571
1128.235 .0234763
1128.843 .0234902
1129.451 .0234994
1130.059 .0235059
1130.669 .0235084
1131.278 .0235053
1131.889 .0234989
1132.500 .0234893
1133.112 .0234790
1133.724 .0234703
1134.337 .0234636
1134.950 .0234566
1135.564 .0234550
1136.179 .0234571
1136.795 .0234682
1137.411 .0234872
1138.028 .0235153
1138.645 .0235529
1139.263 .0235978
1139.882 .0236489
1140.502 .0237121
1141.122 .0237855
1141.743 .0238689
1142.365 .0239709
1142.987 .0239696
1143.611 .0242810
1144.235 .0243284
1144.859 .0243867
1145.485 .0247680
