Measurement Sequence started on: 10-20-44-796
Integration time: 35
Scans to Average: 2 
>>>>>Begin Spectral Data<<<<<
432.953 .0339702
433.882 .0351623
434.810 .0330376
435.737 .0339938
436.662 .0345330
437.586 .0347744
438.509 .0349399
439.431 .0350676
440.351 .0352383
441.269 .0353633
442.187 .0354676
443.103 .0355636
444.018 .0356803
444.932 .0357894
445.844 .0358818
446.756 .0359676
447.666 .0360458
448.575 .0360969
449.482 .0361362
450.388 .0361649
451.294 .0362000
452.198 .0362460
453.100 .0362928
454.002 .0363419
454.902 .0363823
455.801 .0364204
456.699 .0364442
457.596 .0364566
458.492 .0364499
459.387 .0364327
460.280 .0364034
461.172 .0363628
462.064 .0363178
462.954 .0362717
463.843 .0362241
464.730 .0361783
465.617 .0361337
466.503 .0360849
467.387 .0360306
468.271 .0359769
469.153 .0359164
470.035 .0358545
470.915 .0357921
471.794 .0357271
472.673 .0356645
473.550 .0356114
474.426 .0355617
475.301 .0355176
476.175 .0354846
477.048 .0354566
477.920 .0354309
478.791 .0354084
479.661 .0353871
480.530 .0353654
481.398 .0353473
482.266 .0353328
483.132 .0353222
483.997 .0353186
484.861 .0353181
485.724 .0353193
486.587 .0353236
487.448 .0353252
488.308 .0353213
489.168 .0353130
490.026 .0353004
490.884 .0352804
491.741 .0352544
492.597 .0352242
493.452 .0351923
494.306 .0351550
495.159 .0351114
496.011 .0350614
496.862 .0350064
497.713 .0349456
498.562 .0348792
499.411 .0348115
500.259 .0347429
501.106 .0346741
501.952 .0346046
502.798 .0345349
503.642 .0344662
504.486 .0343943
505.329 .0343212
506.171 .0342467
507.012 .0341702
507.852 .0340905
508.692 .0340113
509.531 .0339307
510.369 .0338480
511.206 .0337614
512.043 .0336661
512.878 .0335602
513.713 .0334422
514.547 .0333120
515.381 .0331729
516.213 .0330281
517.045 .0328795
517.876 .0327253
518.706 .0325736
519.536 .0324200
520.365 .0322649
521.193 .0321097
522.020 .0319537
522.847 .0317922
523.673 .0316239
524.498 .0314446
525.323 .0312567
526.146 .0310637
526.969 .0308718
527.792 .0306859
528.614 .0305052
529.435 .0303332
530.255 .0301789
531.075 .0300329
531.894 .0299053
532.712 .0297892
533.530 .0296827
534.347 .0295815
535.163 .0294852
535.979 .0293957
536.794 .0293135
537.608 .0292454
538.422 .0291966
539.235 .0291585
540.048 .0291428
540.860 .0291386
541.671 .0291448
542.481 .0291657
543.292 .0291916
544.101 .0292150
544.910 .0292401
545.718 .0292645
546.526 .0292853
547.333 .0293042
548.139 .0293261
548.945 .0293494
549.750 .0293703
550.555 .0293928
551.359 .0294146
552.162 .0294355
552.965 .0294563
553.768 .0294724
554.569 .0294907
555.371 .0295106
556.171 .0295274
556.972 .0295442
557.771 .0295628
558.570 .0295866
559.369 .0296124
560.167 .0296427
560.964 .0296801
561.761 .0297265
562.558 .0297774
563.354 .0298344
564.149 .0298976
564.944 .0299626
565.738 .0300290
566.532 .0300968
567.325 .0301630
568.118 .0302259
568.910 .0302837
569.702 .0303402
570.494 .0303948
571.285 .0304494
572.075 .0305011
572.865 .0305503
573.654 .0305989
574.443 .0306464
575.232 .0306912
576.020 .0307376
576.807 .0307855
577.594 .0308352
578.381 .0308860
579.167 .0309349
579.952 .0309832
580.738 .0310331
581.522 .0310831
582.307 .0311321
583.091 .0311804
583.874 .0312301
584.657 .0312797
585.440 .0313291
586.222 .0313762
587.004 .0314207
587.785 .0314609
588.566 .0314951
589.346 .0315223
590.126 .0315438
590.906 .0315609
591.685 .0315740
592.464 .0315834
593.242 .0315913
594.020 .0315966
594.797 .0316008
595.575 .0316044
596.351 .0316067
597.128 .0316065
597.904 .0316033
598.679 .0315982
599.454 .0315899
600.229 .0315798
601.004 .0315689
601.778 .0315569
602.551 .0315449
603.325 .0315324
604.097 .0315191
604.870 .0315054
605.642 .0314911
606.414 .0314759
607.185 .0314580
607.956 .0314407
608.727 .0314230
609.497 .0314054
610.267 .0313885
611.037 .0313726
611.806 .0313567
612.575 .0313407
613.344 .0313237
614.112 .0313048
614.880 .0312843
615.647 .0312625
616.414 .0312386
617.181 .0312134
617.948 .0311886
618.714 .0311648
619.480 .0311418
620.245 .0311211
621.011 .0311004
621.775 .0310792
622.540 .0310574
623.304 .0310343
624.068 .0310095
624.832 .0309828
625.595 .0309554
626.358 .0309273
627.120 .0308992
627.883 .0308713
628.645 .0308434
629.406 .0308166
630.168 .0307906
630.929 .0307646
631.689 .0307382
632.450 .0307118
633.210 .0306851
633.970 .0306576
634.729 .0306297
635.489 .0306011
636.248 .0305713
637.006 .0305409
637.765 .0305102
638.523 .0304791
639.280 .0304483
640.038 .0304187
640.795 .0303912
641.552 .0303652
642.309 .0303407
643.065 .0303179
643.821 .0302957
644.577 .0302742
645.332 .0302521
646.088 .0302291
646.843 .0302056
647.597 .0301818
648.352 .0301584
649.106 .0301365
649.860 .0301167
650.613 .0300988
651.367 .0300828
652.120 .0300692
652.872 .0300557
653.625 .0300421
654.377 .0300283
655.129 .0300141
655.881 .0299989
656.632 .0299836
657.384 .0299684
658.135 .0299543
658.885 .0299412
659.636 .0299287
660.386 .0299165
661.136 .0299049
661.885 .0298929
662.635 .0298802
663.384 .0298670
664.133 .0298538
664.881 .0298394
665.630 .0298246
666.378 .0298095
667.126 .0297942
667.874 .0297780
668.621 .0297615
669.368 .0297444
670.115 .0297261
670.862 .0297072
671.608 .0296888
672.354 .0296713
673.100 .0296555
673.846 .0296407
674.591 .0296275
675.337 .0296156
676.082 .0296050
676.826 .0295940
677.571 .0295831
678.315 .0295725
679.059 .0295617
679.803 .0295507
680.547 .0295408
681.290 .0295320
682.033 .0295241
682.776 .0295169
683.518 .0295093
684.261 .0295003
685.003 .0294897
685.745 .0294766
686.487 .0294618
687.228 .0294451
687.969 .0294272
688.710 .0294084
689.451 .0293896
690.192 .0293712
690.932 .0293522
691.672 .0293332
692.412 .0293135
693.152 .0292930
693.891 .0292716
694.630 .0292495
695.369 .0292277
696.108 .0292065
696.846 .0291861
697.585 .0291661
698.323 .0291471
699.061 .0291285
699.798 .0291100
700.536 .0290920
701.273 .0290736
702.010 .0290556
702.746 .0290381
703.483 .0290212
704.219 .0290046
704.955 .0289884
705.691 .0289719
706.427 .0289537
707.162 .0289342
707.897 .0289128
708.632 .0288894
709.367 .0288654
710.101 .0288407
710.835 .0288159
711.569 .0287912
712.303 .0287669
713.037 .0287424
713.770 .0287181
714.503 .0286935
715.236 .0286680
715.969 .0286423
716.702 .0286168
717.434 .0285921
718.166 .0285682
718.898 .0285461
719.629 .0285254
720.361 .0285060
721.092 .0284878
721.823 .0284694
722.554 .0284508
723.284 .0284316
724.014 .0284116
724.744 .0283906
725.474 .0283680
726.204 .0283447
726.933 .0283201
727.662 .0282950
728.391 .0282690
729.120 .0282419
729.849 .0282141
730.577 .0281860
731.305 .0281575
732.033 .0281288
732.760 .0281001
733.488 .0280720
734.215 .0280446
734.942 .0280181
735.669 .0279924
736.395 .0279677
737.122 .0279440
737.848 .0279220
738.573 .0279007
739.299 .0278806
740.024 .0278615
740.750 .0278441
741.474 .0278279
742.199 .0278127
742.924 .0277987
743.648 .0277859
744.372 .0277740
745.096 .0277632
745.819 .0277523
746.543 .0277418
747.266 .0277313
747.989 .0277209
748.711 .0277104
749.434 .0277002
750.156 .0276901
750.878 .0276806
751.599 .0276723
752.321 .0276646
753.042 .0276574
753.763 .0276512
754.484 .0276460
755.205 .0276413
755.925 .0276370
756.645 .0276323
757.365 .0276271
758.085 .0276215
758.804 .0276148
759.523 .0276071
760.242 .0275987
760.961 .0275895
761.679 .0275794
762.397 .0275682
763.115 .0275557
763.833 .0275414
764.551 .0275255
765.268 .0275073
765.985 .0274867
766.702 .0274638
767.418 .0274390
768.134 .0274129
768.850 .0273866
769.566 .0273608
770.282 .0273364
770.997 .0273140
771.712 .0272939
772.427 .0272761
773.142 .0272605
773.856 .0272466
774.570 .0272346
775.284 .0272240
775.998 .0272145
776.711 .0272062
777.424 .0271993
778.137 .0271936
778.849 .0271886
779.562 .0271839
780.274 .0271793
780.986 .0271744
781.697 .0271692
782.409 .0271631
783.120 .0271564
783.831 .0271499
784.541 .0271434
785.252 .0271372
785.962 .0271314
786.671 .0271261
787.381 .0271209
788.090 .0271158
788.799 .0271106
789.508 .0271050
790.217 .0270993
790.925 .0270936
791.633 .0270876
792.341 .0270815
793.048 .0270755
793.755 .0270697
794.462 .0270642
795.169 .0270589
795.875 .0270531
796.581 .0270468
797.287 .0270402
797.993 .0270329
798.698 .0270246
799.403 .0270158
800.108 .0270068
800.812 .0269979
801.517 .0269893
802.221 .0269813
802.924 .0269740
803.628 .0269676
804.331 .0269622
805.034 .0269572
805.736 .0269519
806.439 .0269465
807.141 .0269408
807.843 .0269347
808.544 .0269281
809.245 .0269208
809.946 .0269135
810.647 .0269063
811.347 .0268992
812.047 .0268919
812.747 .0268849
813.447 .0268778
814.146 .0268702
814.845 .0268619
815.543 .0268530
816.242 .0268431
816.940 .0268324
817.638 .0268209
818.335 .0268087
819.032 .0267962
819.729 .0267834
820.426 .0267699
821.122 .0267559
821.818 .0267412
822.514 .0267255
823.209 .0267092
823.905 .0266924
824.599 .0266752
825.294 .0266578
825.988 .0266402
826.682 .0266228
827.376 .0266056
828.069 .0265889
828.762 .0265728
829.455 .0265567
830.147 .0265406
830.840 .0265243
831.531 .0265077
832.223 .0264912
832.914 .0264746
833.605 .0264575
834.296 .0264405
834.986 .0264237
835.676 .0264067
836.366 .0263896
837.055 .0263726
837.744 .0263558
838.433 .0263389
839.121 .0263222
839.809 .0263053
840.497 .0262890
841.185 .0262736
841.872 .0262584
842.559 .0262434
843.245 .0262288
843.932 .0262141
844.617 .0261993
845.303 .0261847
845.988 .0261704
846.673 .0261561
847.358 .0261423
848.042 .0261287
848.726 .0261150
849.410 .0261014
850.093 .0260875
850.776 .0260733
851.459 .0260591
852.141 .0260442
852.823 .0260291
853.505 .0260145
854.186 .0260005
854.867 .0259872
855.548 .0259744
856.228 .0259624
856.908 .0259506
857.588 .0259388
858.267 .0259268
858.946 .0259142
859.625 .0259012
860.303 .0258875
860.981 .0258729
861.659 .0258581
862.336 .0258423
863.013 .0258257
863.690 .0258078
864.366 .0257889
865.042 .0257685
865.718 .0257469
866.393 .0257247
867.068 .0257029
867.743 .0256813
868.417 .0256607
869.091 .0256411
869.765 .0256228
870.438 .0256051
871.111 .0255878
871.783 .0255706
872.456 .0255537
873.127 .0255366
873.799 .0255196
874.470 .0255027
875.141 .0254866
875.811 .0254712
876.481 .0254566
877.151 .0254430
877.820 .0254297
878.489 .0254165
879.158 .0254030
879.826 .0253885
880.494 .0253732
881.162 .0253566
881.829 .0253393
882.496 .0253215
883.163 .0253036
883.829 .0252857
884.495 .0252688
885.160 .0252536
885.825 .0252402
886.490 .0252284
887.154 .0252180
887.818 .0252087
888.482 .0252000
889.145 .0251914
889.808 .0251827
890.471 .0251741
891.133 .0251663
891.795 .0251588
892.456 .0251522
893.117 .0251469
893.778 .0251425
894.439 .0251390
895.099 .0251359
895.758 .0251328
896.417 .0251293
897.076 .0251255
897.735 .0251210
898.393 .0251161
899.051 .0251113
899.708 .0251063
900.365 .0251012
901.022 .0250964
901.678 .0250918
902.334 .0250868
902.990 .0250821
903.645 .0250775
904.300 .0250728
904.954 .0250680
905.608 .0250629
906.262 .0250578
906.915 .0250525
907.568 .0250468
908.221 .0250412
908.873 .0250356
909.525 .0250304
910.176 .0250246
910.828 .0250189
911.478 .0250133
912.129 .0250070
912.778 .0250002
913.428 .0249931
914.077 .0249863
914.726 .0249795
915.375 .0249732
916.023 .0249684
916.670 .0249653
917.318 .0249636
917.964 .0249630
918.611 .0249630
919.257 .0249633
919.903 .0249632
920.548 .0249623
921.193 .0249618
921.838 .0249617
922.482 .0249623
923.126 .0249639
923.770 .0249664
924.413 .0249697
925.056 .0249723
925.698 .0249741
926.340 .0249741
926.982 .0249720
927.623 .0249680
928.264 .0249623
928.904 .0249562
929.544 .0249501
930.184 .0249443
930.823 .0249393
931.462 .0249349
932.101 .0249304
932.739 .0249247
933.377 .0249180
934.014 .0249095
934.651 .0248994
935.288 .0248881
935.924 .0248768
936.560 .0248657
937.196 .0248559
937.831 .0248469
938.466 .0248390
939.100 .0248323
939.734 .0248255
940.368 .0248180
941.001 .0248102
941.634 .0248016
942.266 .0247925
942.899 .0247828
943.530 .0247733
944.162 .0247637
944.793 .0247547
945.423 .0247453
946.053 .0247360
946.683 .0247267
947.313 .0247172
947.942 .0247072
948.571 .0246969
949.199 .0246859
949.827 .0246740
950.455 .0246616
951.082 .0246486
951.709 .0246349
952.335 .0246212
952.961 .0246072
953.587 .0245937
954.212 .0245806
954.837 .0245681
955.462 .0245563
956.086 .0245456
956.710 .0245356
957.334 .0245258
957.957 .0245164
958.579 .0245072
959.202 .0244981
959.824 .0244894
960.445 .0244810
961.067 .0244732
961.688 .0244660
962.308 .0244592
962.928 .0244528
963.548 .0244467
964.168 .0244402
964.787 .0244333
965.406 .0244263
966.024 .0244190
966.642 .0244115
967.260 .0244039
967.877 .0243965
968.494 .0243890
969.110 .0243810
969.727 .0243727
970.342 .0243637
970.958 .0243548
971.573 .0243458
972.188 .0243375
972.802 .0243304
973.416 .0243248
974.030 .0243205
974.643 .0243179
975.256 .0243168
975.869 .0243164
976.481 .0243164
977.093 .0243171
977.705 .0243182
978.316 .0243191
978.927 .0243202
979.538 .0243218
980.148 .0243235
980.758 .0243254
981.367 .0243267
981.977 .0243278
982.586 .0243288
983.194 .0243291
983.802 .0243284
984.410 .0243270
985.018 .0243254
985.625 .0243228
986.232 .0243197
986.838 .0243164
987.445 .0243126
988.050 .0243082
988.656 .0243034
989.261 .0242984
989.866 .0242929
990.471 .0242873
991.075 .0242817
991.679 .0242765
992.282 .0242710
992.886 .0242652
993.489 .0242590
994.091 .0242532
994.694 .0242469
995.296 .0242404
995.897 .0242336
996.499 .0242268
997.100 .0242196
997.701 .0242124
998.301 .0242053
998.901 .0241988
999.501 .0241929
1000.101 .0241882
1000.700 .0241841
1001.299 .0241807
1001.898 .0241766
1002.496 .0241722
1003.094 .0241663
1003.692 .0241589
1004.289 .0241491
1004.887 .0241380
1005.484 .0241252
1006.080 .0241119
1006.677 .0240982
1007.273 .0240847
1007.868 .0240721
1008.464 .0240603
1009.059 .0240490
1009.654 .0240387
1010.249 .0240283
1010.843 .0240191
1011.437 .0240107
1012.031 .0240036
1012.625 .0239971
1013.218 .0239919
1013.811 .0239879
1014.404 .0239847
1014.997 .0239825
1015.589 .0239807
1016.181 .0239791
1016.773 .0239782
1017.365 .0239769
1017.956 .0239747
1018.547 .0239716
1019.138 .0239674
1019.728 .0239612
1020.319 .0239537
1020.909 .0239445
1021.499 .0239339
1022.088 .0239227
1022.678 .0239121
1023.267 .0239021
1023.856 .0238931
1024.445 .0238856
1025.033 .0238789
1025.621 .0238724
1026.209 .0238650
1026.797 .0238561
1027.385 .0238459
1027.972 .0238350
1028.560 .0238234
1029.147 .0238116
1029.734 .0238008
1030.320 .0237911
1030.907 .0237817
1031.493 .0237727
1032.079 .0237633
1032.665 .0237536
1033.250 .0237427
1033.836 .0237312
1034.421 .0237185
1035.006 .0237060
1035.591 .0236946
1036.176 .0236851
1036.761 .0236774
1037.345 .0236712
1037.929 .0236656
1038.514 .0236607
1039.097 .0236561
1039.681 .0236512
1040.265 .0236457
1040.848 .0236405
1041.432 .0236351
1042.015 .0236295
1042.598 .0236240
1043.181 .0236191
1043.764 .0236146
1044.346 .0236099
1044.929 .0236042
1045.511 .0235967
1046.094 .0235875
1046.676 .0235774
1047.258 .0235668
1047.840 .0235568
1048.422 .0235477
1049.003 .0235394
1049.585 .0235319
1050.166 .0235251
1050.748 .0235186
1051.329 .0235112
1051.910 .0235029
1052.491 .0234934
1053.072 .0234833
1053.653 .0234727
1054.234 .0234625
1054.815 .0234537
1055.396 .0234464
1055.976 .0234401
1056.557 .0234340
1057.138 .0234290
1057.718 .0234242
1058.298 .0234202
1058.879 .0234172
1059.459 .0234150
1060.039 .0234145
1060.620 .0234139
1061.200 .0234142
1061.780 .0234144
1062.360 .0234136
1062.940 .0234112
1063.520 .0234059
1064.101 .0234000
1064.681 .0233903
1065.261 .0233784
1065.841 .0233656
1066.421 .0233521
1067.001 .0233374
1067.581 .0233214
1068.161 .0233031
1068.741 .0232831
1069.321 .0232621
1069.901 .0232405
1070.482 .0232197
1071.062 .0232023
1071.642 .0231876
1072.222 .0231762
1072.803 .0231687
1073.383 .0231661
1073.963 .0231650
1074.544 .0231683
1075.124 .0231725
1075.705 .0231763
1076.286 .0231796
1076.866 .0231816
1077.447 .0231831
1078.028 .0231836
1078.609 .0231823
1079.190 .0231794
1079.771 .0231747
1080.352 .0231694
1080.934 .0231605
1081.515 .0231514
1082.097 .0231420
1082.679 .0231307
1083.260 .0231181
1083.842 .0231037
1084.424 .0230883
1085.007 .0230734
1085.589 .0230576
1086.172 .0230418
1086.754 .0230253
1087.337 .0230079
1087.920 .0229898
1088.503 .0229719
1089.087 .0229537
1089.670 .0229363
1090.254 .0229193
1090.838 .0229045
1091.422 .0228908
1092.006 .0228783
1092.590 .0228685
1093.175 .0228590
1093.760 .0228530
1094.345 .0228483
1094.930 .0228450
1095.516 .0228455
1096.102 .0228492
1096.688 .0228573
1097.274 .0228685
1097.860 .0228833
1098.447 .0229027
1099.034 .0229251
1099.622 .0229501
1100.209 .0229758
1100.797 .0230023
1101.385 .0230268
1101.973 .0230484
1102.562 .0230652
1103.151 .0230786
1103.740 .0230861
1104.330 .0230892
1104.920 .0230902
1105.510 .0230895
1106.101 .0230908
1106.691 .0230920
1107.283 .0230943
1107.874 .0230966
1108.466 .0230951
1109.058 .0230889
1109.651 .0230792
1110.244 .0230662
1110.837 .0230501
1111.431 .0230347
1112.025 .0230235
1112.620 .0230166
1113.215 .0230155
1113.810 .0230197
1114.406 .0230301
1115.002 .0230407
1115.599 .0230495
1116.196 .0230512
1116.793 .0230485
1117.391 .0230421
1117.989 .0230337
1118.588 .0230281
1119.187 .0230277
1119.787 .0230338
1120.387 .0230472
1120.988 .0230650
1121.589 .0230867
1122.190 .0231080
1122.793 .0231298
1123.395 .0231475
1123.998 .0231606
1124.602 .0231695
1125.206 .0231777
1125.811 .0231871
1126.416 .0231969
1127.022 .0232070
1127.628 .0232175
1128.235 .0232283
1128.843 .0232413
1129.451 .0232543
1130.059 .0232678
1130.669 .0232827
1131.278 .0232984
1131.889 .0233137
1132.500 .0233298
1133.112 .0233446
1133.724 .0233598
1134.337 .0233784
1134.950 .0233985
1135.564 .0234238
1136.179 .0234559
1136.795 .0234986
1137.411 .0235529
1138.028 .0236178
1138.645 .0236879
1139.263 .0237669
1139.882 .0238507
1140.502 .0239354
1141.122 .0240257
1141.743 .0241259
1142.365 .0242355
1142.987 .0242686
1143.611 .0243711
1144.235 .0246282
1144.859 .0248329
1145.485 .0250146
