Measurement Sequence started on: 10-20-44-796
Integration time: 35
Scans to Average: 2 
>>>>>Begin Spectral Data<<<<<
432.953 .0484803
433.882 .0444160
434.810 .0421185
435.737 .0438787
436.662 .0420843
437.586 .0424738
438.509 .0420951
439.431 .0419164
440.351 .0418261
441.269 .0417030
442.187 .0416286
443.103 .0415217
444.018 .0414348
444.932 .0413023
445.844 .0411708
446.756 .0410576
447.666 .0409736
448.575 .0409145
449.482 .0408807
450.388 .0408647
451.294 .0408521
452.198 .0408281
453.100 .0407913
454.002 .0407366
454.902 .0406698
455.801 .0405937
456.699 .0405135
457.596 .0404311
458.492 .0403583
459.387 .0402897
460.280 .0402279
461.172 .0401671
462.064 .0401122
462.954 .0400614
463.843 .0400088
464.730 .0399588
465.617 .0399117
466.503 .0398531
467.387 .0397953
468.271 .0397270
469.153 .0396584
470.035 .0395801
470.915 .0395104
471.794 .0394412
472.673 .0393776
473.550 .0393279
474.426 .0392852
475.301 .0392452
476.175 .0392135
477.048 .0391720
477.920 .0391274
478.791 .0390737
479.661 .0390167
480.530 .0389550
481.398 .0389034
482.266 .0388553
483.132 .0388134
483.997 .0387773
484.861 .0387479
485.724 .0387181
486.587 .0386923
487.448 .0386648
488.308 .0386359
489.168 .0386111
490.026 .0385887
490.884 .0385639
491.741 .0385444
492.597 .0385141
493.452 .0384779
494.306 .0384295
495.159 .0383690
496.011 .0382989
496.862 .0382255
497.713 .0381558
498.562 .0380874
499.411 .0380264
500.259 .0379726
501.106 .0379143
501.952 .0378571
502.798 .0377884
503.642 .0377063
504.486 .0376151
505.329 .0375183
506.171 .0374199
507.012 .0373335
507.852 .0372590
508.692 .0371953
509.531 .0371392
510.369 .0370844
511.206 .0370233
512.043 .0369468
512.878 .0368535
513.713 .0367415
514.547 .0366107
515.381 .0364735
516.213 .0363238
517.045 .0361746
517.876 .0360194
518.706 .0358560
519.536 .0356887
520.365 .0355076
521.193 .0353127
522.020 .0351066
522.847 .0348898
523.673 .0346672
524.498 .0344306
525.323 .0341908
526.146 .0339477
526.969 .0337066
527.792 .0334577
528.614 .0332035
529.435 .0329535
530.255 .0327096
531.075 .0324639
531.894 .0322328
532.712 .0320200
533.530 .0318247
534.347 .0316523
535.163 .0315040
535.979 .0313834
536.794 .0313021
537.608 .0312527
538.422 .0312425
539.235 .0312545
540.048 .0312901
540.860 .0313330
541.671 .0313847
542.481 .0314331
543.292 .0314633
544.101 .0314858
544.910 .0315073
545.718 .0315276
546.526 .0315514
547.333 .0315841
548.139 .0316304
548.945 .0316771
549.750 .0317127
550.555 .0317314
551.359 .0317418
552.162 .0317379
552.965 .0317274
553.768 .0317154
554.569 .0317170
555.371 .0317374
556.171 .0317779
556.972 .0318497
557.771 .0319348
558.570 .0320272
559.369 .0321245
560.167 .0322156
560.964 .0322950
561.761 .0323589
562.558 .0324122
563.354 .0324605
564.149 .0325077
564.944 .0325529
565.738 .0326010
566.532 .0326564
567.325 .0327169
568.118 .0327738
568.910 .0328316
569.702 .0328911
570.494 .0329419
571.285 .0329884
572.075 .0330285
572.865 .0330621
573.654 .0330926
574.443 .0331180
575.232 .0331446
576.020 .0331730
576.807 .0332024
577.594 .0332337
578.381 .0332666
579.167 .0333024
579.952 .0333363
580.738 .0333688
581.522 .0333993
582.307 .0334264
583.091 .0334536
583.874 .0334831
584.657 .0335180
585.440 .0335588
586.222 .0336028
587.004 .0336508
587.785 .0337008
588.566 .0337508
589.346 .0337944
590.126 .0338320
590.906 .0338605
591.685 .0338796
592.464 .0338899
593.242 .0338935
594.020 .0338933
594.797 .0338918
595.575 .0338890
596.351 .0338840
597.128 .0338751
597.904 .0338607
598.679 .0338409
599.454 .0338153
600.229 .0337840
601.004 .0337487
601.778 .0337113
602.551 .0336753
603.325 .0336413
604.097 .0336099
604.870 .0335815
605.642 .0335556
606.414 .0335310
607.185 .0335057
607.956 .0334798
608.727 .0334537
609.497 .0334284
610.267 .0334046
611.037 .0333840
611.806 .0333663
612.575 .0333513
613.344 .0333379
614.112 .0333249
614.880 .0333111
615.647 .0332952
616.414 .0332766
617.181 .0332557
617.948 .0332328
618.714 .0332087
619.480 .0331836
620.245 .0331587
621.011 .0331341
621.775 .0331089
622.540 .0330834
623.304 .0330565
624.068 .0330287
624.832 .0329991
625.595 .0329679
626.358 .0329349
627.120 .0329005
627.883 .0328639
628.645 .0328266
629.406 .0327886
630.168 .0327511
630.929 .0327133
631.689 .0326761
632.450 .0326383
633.210 .0326004
633.970 .0325611
634.729 .0325203
635.489 .0324768
636.248 .0324327
637.006 .0323864
637.765 .0323392
638.523 .0322920
639.280 .0322468
640.038 .0322040
640.795 .0321655
641.552 .0321302
642.309 .0320991
643.065 .0320712
643.821 .0320463
644.577 .0320227
645.332 .0320010
646.088 .0319792
646.843 .0319579
647.597 .0319361
648.352 .0319139
649.106 .0318908
649.860 .0318679
650.613 .0318448
651.367 .0318221
652.120 .0317993
652.872 .0317773
653.625 .0317555
654.377 .0317348
655.129 .0317143
655.881 .0316938
656.632 .0316728
657.384 .0316507
658.135 .0316285
658.885 .0316065
659.636 .0315843
660.386 .0315624
661.136 .0315417
661.885 .0315221
662.635 .0315032
663.384 .0314846
664.133 .0314665
664.881 .0314479
665.630 .0314288
666.378 .0314074
667.126 .0313845
667.874 .0313601
668.621 .0313349
669.368 .0313095
670.115 .0312852
670.862 .0312623
671.608 .0312426
672.354 .0312263
673.100 .0312138
673.846 .0312042
674.591 .0311972
675.337 .0311920
676.082 .0311884
676.826 .0311854
677.571 .0311829
678.315 .0311804
679.059 .0311787
679.803 .0311772
680.547 .0311765
681.290 .0311762
682.033 .0311754
682.776 .0311740
683.518 .0311705
684.261 .0311637
685.003 .0311539
685.745 .0311410
686.487 .0311262
687.228 .0311093
687.969 .0310916
688.710 .0310735
689.451 .0310557
690.192 .0310381
690.932 .0310208
691.672 .0310031
692.412 .0309844
693.152 .0309634
693.891 .0309405
694.630 .0309159
695.369 .0308898
696.108 .0308625
696.846 .0308347
697.585 .0308076
698.323 .0307814
699.061 .0307555
699.798 .0307319
700.536 .0307099
701.273 .0306887
702.010 .0306679
702.746 .0306472
703.483 .0306267
704.219 .0306065
704.955 .0305862
705.691 .0305666
706.427 .0305478
707.162 .0305299
707.897 .0305126
708.632 .0304965
709.367 .0304814
710.101 .0304651
710.835 .0304477
711.569 .0304288
712.303 .0304072
713.037 .0303833
713.770 .0303573
714.503 .0303303
715.236 .0303026
715.969 .0302741
716.702 .0302452
717.434 .0302159
718.166 .0301862
718.898 .0301545
719.629 .0301210
720.361 .0300866
721.092 .0300512
721.823 .0300150
722.554 .0299793
723.284 .0299444
724.014 .0299103
724.744 .0298764
725.474 .0298420
726.204 .0298072
726.933 .0297721
727.662 .0297366
728.391 .0297012
729.120 .0296669
729.849 .0296347
730.577 .0296045
731.305 .0295769
732.033 .0295519
732.760 .0295282
733.488 .0295054
734.215 .0294830
734.942 .0294598
735.669 .0294362
736.395 .0294121
737.122 .0293879
737.848 .0293633
738.573 .0293393
739.299 .0293154
740.024 .0292919
740.750 .0292686
741.474 .0292451
742.199 .0292210
742.924 .0291972
743.648 .0291732
744.372 .0291494
745.096 .0291265
745.819 .0291041
746.543 .0290822
747.266 .0290617
747.989 .0290424
748.711 .0290248
749.434 .0290087
750.156 .0289952
750.878 .0289835
751.599 .0289739
752.321 .0289657
753.042 .0289580
753.763 .0289513
754.484 .0289451
755.205 .0289381
755.925 .0289314
756.645 .0289250
757.365 .0289186
758.085 .0289121
758.804 .0289058
759.523 .0288991
760.242 .0288908
760.961 .0288813
761.679 .0288699
762.397 .0288558
763.115 .0288399
763.833 .0288215
764.551 .0288017
765.268 .0287811
765.985 .0287592
766.702 .0287376
767.418 .0287162
768.134 .0286953
768.850 .0286744
769.566 .0286543
770.282 .0286351
770.997 .0286163
771.712 .0285980
772.427 .0285810
773.142 .0285649
773.856 .0285509
774.570 .0285379
775.284 .0285269
775.998 .0285176
776.711 .0285104
777.424 .0285051
778.137 .0285018
778.849 .0284991
779.562 .0284973
780.274 .0284953
780.986 .0284930
781.697 .0284897
782.409 .0284859
783.120 .0284820
783.831 .0284792
784.541 .0284771
785.252 .0284768
785.962 .0284776
786.671 .0284801
787.381 .0284823
788.090 .0284838
788.799 .0284830
789.508 .0284795
790.217 .0284736
790.925 .0284662
791.633 .0284581
792.341 .0284504
793.048 .0284442
793.755 .0284405
794.462 .0284383
795.169 .0284377
795.875 .0284378
796.581 .0284379
797.287 .0284372
797.993 .0284350
798.698 .0284315
799.403 .0284274
800.108 .0284233
800.812 .0284197
801.517 .0284170
802.221 .0284151
802.924 .0284128
803.628 .0284102
804.331 .0284074
805.034 .0284043
805.736 .0284002
806.439 .0283962
807.141 .0283919
807.843 .0283881
808.544 .0283844
809.245 .0283801
809.946 .0283749
810.647 .0283689
811.347 .0283617
812.047 .0283534
812.747 .0283449
813.447 .0283373
814.146 .0283305
814.845 .0283253
815.543 .0283210
816.242 .0283171
816.940 .0283119
817.638 .0283052
818.335 .0282962
819.032 .0282845
819.729 .0282701
820.426 .0282542
821.122 .0282374
821.818 .0282212
822.514 .0282046
823.209 .0281884
823.905 .0281722
824.599 .0281551
825.294 .0281361
825.988 .0281151
826.682 .0280923
827.376 .0280683
828.069 .0280434
828.762 .0280190
829.455 .0279951
830.147 .0279732
830.840 .0279528
831.531 .0279341
832.223 .0279169
832.914 .0279006
833.605 .0278848
834.296 .0278701
834.986 .0278560
835.676 .0278429
836.366 .0278308
837.055 .0278197
837.744 .0278097
838.433 .0278000
839.121 .0277907
839.809 .0277816
840.497 .0277720
841.185 .0277616
841.872 .0277496
842.559 .0277368
843.245 .0277225
843.932 .0277069
844.617 .0276903
845.303 .0276728
845.988 .0276551
846.673 .0276371
847.358 .0276183
848.042 .0275993
848.726 .0275795
849.410 .0275583
850.093 .0275362
850.776 .0275133
851.459 .0274902
852.141 .0274668
852.823 .0274445
853.505 .0274232
854.186 .0274025
854.867 .0273832
855.548 .0273643
856.228 .0273461
856.908 .0273281
857.588 .0273102
858.267 .0272926
858.946 .0272758
859.625 .0272598
860.303 .0272442
860.981 .0272297
861.659 .0272153
862.336 .0272000
863.013 .0271830
863.690 .0271644
864.366 .0271437
865.042 .0271208
865.718 .0270965
866.393 .0270712
867.068 .0270453
867.743 .0270189
868.417 .0269925
869.091 .0269666
869.765 .0269406
870.438 .0269146
871.111 .0268884
871.783 .0268626
872.456 .0268373
873.127 .0268133
873.799 .0267916
874.470 .0267719
875.141 .0267543
875.811 .0267381
876.481 .0267233
877.151 .0267098
877.820 .0266963
878.489 .0266831
879.158 .0266699
879.826 .0266567
880.494 .0266424
881.162 .0266282
881.829 .0266148
882.496 .0266019
883.163 .0265895
883.829 .0265778
884.495 .0265664
885.160 .0265555
885.825 .0265449
886.490 .0265345
887.154 .0265243
887.818 .0265144
888.482 .0265039
889.145 .0264933
889.808 .0264829
890.471 .0264729
891.133 .0264638
891.795 .0264551
892.456 .0264471
893.117 .0264392
893.778 .0264317
894.439 .0264246
895.099 .0264174
895.758 .0264098
896.417 .0264015
897.076 .0263919
897.735 .0263818
898.393 .0263705
899.051 .0263587
899.708 .0263470
900.365 .0263355
901.022 .0263244
901.678 .0263138
902.334 .0263033
902.990 .0262933
903.645 .0262825
904.300 .0262710
904.954 .0262577
905.608 .0262431
906.262 .0262273
906.915 .0262112
907.568 .0261953
908.221 .0261808
908.873 .0261678
909.525 .0261574
910.176 .0261485
910.828 .0261413
911.478 .0261349
912.129 .0261284
912.778 .0261214
913.428 .0261135
914.077 .0261048
914.726 .0260965
915.375 .0260888
916.023 .0260824
916.670 .0260777
917.318 .0260746
917.964 .0260724
918.611 .0260697
919.257 .0260668
919.903 .0260626
920.548 .0260568
921.193 .0260500
921.838 .0260427
922.482 .0260355
923.126 .0260297
923.770 .0260246
924.413 .0260210
925.056 .0260183
925.698 .0260162
926.340 .0260138
926.982 .0260116
927.623 .0260088
928.264 .0260059
928.904 .0260032
929.544 .0260012
930.184 .0259990
930.823 .0259972
931.462 .0259955
932.101 .0259938
932.739 .0259915
933.377 .0259881
934.014 .0259830
934.651 .0259776
935.288 .0259711
935.924 .0259645
936.560 .0259578
937.196 .0259517
937.831 .0259454
938.466 .0259388
939.100 .0259316
939.734 .0259232
940.368 .0259136
941.001 .0259039
941.634 .0258936
942.266 .0258838
942.899 .0258744
943.530 .0258657
944.162 .0258580
944.793 .0258511
945.423 .0258440
946.053 .0258367
946.683 .0258287
947.313 .0258197
947.942 .0258088
948.571 .0257969
949.199 .0257835
949.827 .0257696
950.455 .0257556
951.082 .0257419
951.709 .0257292
952.335 .0257179
952.961 .0257079
953.587 .0256995
954.212 .0256919
954.837 .0256845
955.462 .0256776
956.086 .0256712
956.710 .0256649
957.334 .0256594
957.957 .0256548
958.579 .0256518
959.202 .0256498
959.824 .0256486
960.445 .0256474
961.067 .0256463
961.688 .0256453
962.308 .0256425
962.928 .0256383
963.548 .0256327
964.168 .0256256
964.787 .0256182
965.406 .0256111
966.024 .0256053
966.642 .0256008
967.260 .0255978
967.877 .0255955
968.494 .0255936
969.110 .0255913
969.727 .0255879
970.342 .0255835
970.958 .0255780
971.573 .0255719
972.188 .0255657
972.802 .0255607
973.416 .0255579
974.030 .0255560
974.643 .0255551
975.256 .0255539
975.869 .0255525
976.481 .0255501
977.093 .0255463
977.705 .0255415
978.316 .0255359
978.927 .0255304
979.538 .0255254
980.148 .0255211
980.758 .0255187
981.367 .0255178
981.977 .0255181
982.586 .0255186
983.194 .0255192
983.802 .0255191
984.410 .0255183
985.018 .0255175
985.625 .0255171
986.232 .0255175
986.838 .0255179
987.445 .0255191
988.050 .0255209
988.656 .0255230
989.261 .0255242
989.866 .0255235
990.471 .0255217
991.075 .0255176
991.679 .0255111
992.282 .0255024
992.886 .0254926
993.489 .0254830
994.091 .0254728
994.694 .0254624
995.296 .0254513
995.897 .0254394
996.499 .0254258
997.100 .0254103
997.701 .0253930
998.301 .0253738
998.901 .0253542
999.501 .0253356
1000.101 .0253198
1000.700 .0253075
1001.299 .0252996
1001.898 .0252967
1002.496 .0252975
1003.094 .0253012
1003.692 .0253054
1004.289 .0253099
1004.887 .0253143
1005.484 .0253182
1006.080 .0253210
1006.677 .0253230
1007.273 .0253248
1007.868 .0253258
1008.464 .0253266
1009.059 .0253269
1009.654 .0253258
1010.249 .0253235
1010.843 .0253197
1011.437 .0253141
1012.031 .0253063
1012.625 .0252977
1013.218 .0252884
1013.811 .0252788
1014.404 .0252698
1014.997 .0252604
1015.589 .0252513
1016.181 .0252435
1016.773 .0252371
1017.365 .0252312
1017.956 .0252258
1018.547 .0252211
1019.138 .0252168
1019.728 .0252135
1020.319 .0252109
1020.909 .0252081
1021.499 .0252049
1022.088 .0252014
1022.678 .0251958
1023.267 .0251872
1023.856 .0251761
1024.445 .0251620
1025.033 .0251463
1025.621 .0251287
1026.209 .0251102
1026.797 .0250914
1027.385 .0250741
1027.972 .0250589
1028.560 .0250447
1029.147 .0250319
1029.734 .0250203
1030.320 .0250085
1030.907 .0249964
1031.493 .0249840
1032.079 .0249722
1032.665 .0249613
1033.250 .0249527
1033.836 .0249467
1034.421 .0249430
1035.006 .0249422
1035.591 .0249430
1036.176 .0249445
1036.761 .0249455
1037.345 .0249450
1037.929 .0249414
1038.514 .0249361
1039.097 .0249297
1039.681 .0249222
1040.265 .0249150
1040.848 .0249091
1041.432 .0249053
1042.015 .0249029
1042.598 .0249021
1043.181 .0249025
1043.764 .0249025
1044.346 .0249019
1044.929 .0248988
1045.511 .0248937
1046.094 .0248866
1046.676 .0248778
1047.258 .0248680
1047.840 .0248580
1048.422 .0248484
1049.003 .0248376
1049.585 .0248253
1050.166 .0248123
1050.748 .0247974
1051.329 .0247791
1051.910 .0247588
1052.491 .0247375
1053.072 .0247156
1053.653 .0246951
1054.234 .0246781
1054.815 .0246645
1055.396 .0246557
1055.976 .0246504
1056.557 .0246461
1057.138 .0246443
1057.718 .0246433
1058.298 .0246411
1058.879 .0246381
1059.459 .0246345
1060.039 .0246291
1060.620 .0246220
1061.200 .0246159
1061.780 .0246082
1062.360 .0245989
1062.940 .0245876
1063.520 .0245725
1064.101 .0245537
1064.681 .0245310
1065.261 .0245051
1065.841 .0244770
1066.421 .0244491
1067.001 .0244194
1067.581 .0243888
1068.161 .0243604
1068.741 .0243345
1069.321 .0243105
1069.901 .0242887
1070.482 .0242709
1071.062 .0242566
1071.642 .0242452
1072.222 .0242374
1072.803 .0242317
1073.383 .0242309
1073.963 .0242325
1074.544 .0242344
1075.124 .0242364
1075.705 .0242384
1076.286 .0242387
1076.866 .0242380
1077.447 .0242369
1078.028 .0242351
1078.609 .0242328
1079.190 .0242327
1079.771 .0242332
1080.352 .0242337
1080.934 .0242328
1081.515 .0242310
1082.097 .0242255
1082.679 .0242158
1083.260 .0241986
1083.842 .0241767
1084.424 .0241542
1085.007 .0241310
1085.589 .0241073
1086.172 .0240885
1086.754 .0240745
1087.337 .0240653
1087.920 .0240579
1088.503 .0240520
1089.087 .0240445
1089.670 .0240337
1090.254 .0240172
1090.838 .0239940
1091.422 .0239676
1092.006 .0239403
1092.590 .0239120
1093.175 .0238884
1093.760 .0238693
1094.345 .0238533
1094.930 .0238413
1095.516 .0238326
1096.102 .0238239
1096.688 .0238153
1097.274 .0238058
1097.860 .0237943
1098.447 .0237824
1099.034 .0237721
1099.622 .0237641
1100.209 .0237616
1100.797 .0237648
1101.385 .0237722
1101.973 .0237831
1102.562 .0237984
1103.151 .0238148
1103.740 .0238318
1104.330 .0238492
1104.920 .0238634
1105.510 .0238769
1106.101 .0238895
1106.691 .0238989
1107.283 .0239087
1107.874 .0239155
1108.466 .0239202
1109.058 .0239196
1109.651 .0239147
1110.244 .0239057
1110.837 .0238947
1111.431 .0238833
1112.025 .0238690
1112.620 .0238546
1113.215 .0238395
1113.810 .0238210
1114.406 .0238016
1115.002 .0237783
1115.599 .0237525
1116.196 .0237231
1116.793 .0236945
1117.391 .0236686
1117.989 .0236483
1118.588 .0236339
1119.187 .0236268
1119.787 .0236267
1120.387 .0236305
1120.988 .0236348
1121.589 .0236356
1122.190 .0236341
1122.793 .0236325
1123.395 .0236332
1123.998 .0236404
1124.602 .0236584
1125.206 .0236901
1125.811 .0237333
1126.416 .0237874
1127.022 .0238448
1127.628 .0239020
1128.235 .0239567
1128.843 .0240078
1129.451 .0240518
1130.059 .0240944
1130.669 .0241412
1131.278 .0241979
1131.889 .0242697
1132.500 .0243550
1133.112 .0244491
1133.724 .0245484
1134.337 .0246484
1134.950 .0247379
1135.564 .0248153
1136.179 .0248834
1136.795 .0249445
1137.411 .0250000
1138.028 .0250526
1138.645 .0251096
1139.263 .0251748
1139.882 .0252385
1140.502 .0253049
1141.122 .0253663
1141.743 .0254358
1142.365 .0254907
1142.987 .0253935
1143.611 .0255447
1144.235 .0256208
1144.859 .0259635
1145.485 .0256359
