Measurement Sequence started on: 10-20-44-796
Integration time: 35
Scans to Average: 2 
>>>>>Begin Spectral Data<<<<<
432.953 .0329630
433.882 .0363249
434.810 .0372593
435.737 .0381978
436.662 .0371720
437.586 .0376876
438.509 .0379038
439.431 .0379193
440.351 .0378446
441.269 .0377086
442.187 .0375698
443.103 .0373976
444.018 .0372310
444.932 .0370863
445.844 .0369646
446.756 .0368591
447.666 .0367648
448.575 .0366774
449.482 .0365989
450.388 .0365145
451.294 .0364301
452.198 .0363570
453.100 .0362895
454.002 .0362337
454.902 .0361949
455.801 .0361615
456.699 .0361412
457.596 .0361262
458.492 .0361142
459.387 .0361048
460.280 .0361040
461.172 .0360916
462.064 .0360722
462.954 .0360471
463.843 .0360122
464.730 .0359671
465.617 .0359222
466.503 .0358717
467.387 .0358172
468.271 .0357559
469.153 .0356978
470.035 .0356410
470.915 .0355914
471.794 .0355386
472.673 .0354890
473.550 .0354421
474.426 .0353966
475.301 .0353501
476.175 .0353121
477.048 .0352814
477.920 .0352573
478.791 .0352392
479.661 .0352268
480.530 .0352193
481.398 .0352160
482.266 .0352170
483.132 .0352262
483.997 .0352391
484.861 .0352557
485.724 .0352757
486.587 .0353010
487.448 .0353232
488.308 .0353405
489.168 .0353504
490.026 .0353497
490.884 .0353356
491.741 .0353060
492.597 .0352643
493.452 .0352153
494.306 .0351623
495.159 .0351044
496.011 .0350449
496.862 .0349845
497.713 .0349180
498.562 .0348422
499.411 .0347556
500.259 .0346570
501.106 .0345470
501.952 .0344316
502.798 .0343134
503.642 .0341968
504.486 .0340838
505.329 .0339778
506.171 .0338785
507.012 .0337830
507.852 .0336879
508.692 .0335898
509.531 .0334864
510.369 .0333766
511.206 .0332616
512.043 .0331404
512.878 .0330181
513.713 .0328960
514.547 .0327737
515.381 .0326481
516.213 .0325210
517.045 .0323869
517.876 .0322455
518.706 .0320932
519.536 .0319292
520.365 .0317563
521.193 .0315794
522.020 .0313982
522.847 .0312153
523.673 .0310369
524.498 .0308677
525.323 .0306932
526.146 .0305260
526.969 .0303600
527.792 .0301957
528.614 .0300320
529.435 .0298766
530.255 .0297273
531.075 .0295885
531.894 .0294613
532.712 .0293546
533.530 .0292654
534.347 .0291998
535.163 .0291425
535.979 .0291044
536.794 .0290821
537.608 .0290648
538.422 .0290520
539.235 .0290497
540.048 .0290477
540.860 .0290452
541.671 .0290313
542.481 .0290192
543.292 .0290026
544.101 .0289803
544.910 .0289531
545.718 .0289230
546.526 .0289007
547.333 .0288804
548.139 .0288637
548.945 .0288553
549.750 .0288490
550.555 .0288439
551.359 .0288383
552.162 .0288321
552.965 .0288319
553.768 .0288371
554.569 .0288533
555.371 .0288835
556.171 .0289250
556.972 .0289817
557.771 .0290479
558.570 .0291187
559.369 .0291917
560.167 .0292556
560.964 .0293189
561.761 .0293762
562.558 .0294299
563.354 .0294833
564.149 .0295356
564.944 .0295922
565.738 .0296515
566.532 .0297107
567.325 .0297715
568.118 .0298287
568.910 .0298854
569.702 .0299353
570.494 .0299813
571.285 .0300256
572.075 .0300725
572.865 .0301209
573.654 .0301731
574.443 .0302253
575.232 .0302819
576.020 .0303410
576.807 .0304003
577.594 .0304604
578.381 .0305200
579.167 .0305786
579.952 .0306388
580.738 .0307009
581.522 .0307657
582.307 .0308320
583.091 .0309017
583.874 .0309713
584.657 .0310384
585.440 .0311030
586.222 .0311631
587.004 .0312192
587.785 .0312703
588.566 .0313149
589.346 .0313535
590.126 .0313869
590.906 .0314150
591.685 .0314379
592.464 .0314551
593.242 .0314667
594.020 .0314724
594.797 .0314729
595.575 .0314688
596.351 .0314606
597.128 .0314484
597.904 .0314334
598.679 .0314150
599.454 .0313936
600.229 .0313692
601.004 .0313428
601.778 .0313150
602.551 .0312868
603.325 .0312589
604.097 .0312317
604.870 .0312063
605.642 .0311843
606.414 .0311634
607.185 .0311452
607.956 .0311285
608.727 .0311130
609.497 .0310983
610.267 .0310845
611.037 .0310707
611.806 .0310578
612.575 .0310454
613.344 .0310334
614.112 .0310206
614.880 .0310079
615.647 .0309936
616.414 .0309788
617.181 .0309631
617.948 .0309462
618.714 .0309275
619.480 .0309083
620.245 .0308869
621.011 .0308644
621.775 .0308401
622.540 .0308146
623.304 .0307877
624.068 .0307603
624.832 .0307315
625.595 .0307023
626.358 .0306730
627.120 .0306445
627.883 .0306160
628.645 .0305879
629.406 .0305594
630.168 .0305312
630.929 .0305032
631.689 .0304759
632.450 .0304487
633.210 .0304223
633.970 .0303964
634.729 .0303711
635.489 .0303453
636.248 .0303198
637.006 .0302940
637.765 .0302673
638.523 .0302396
639.280 .0302117
640.038 .0301835
640.795 .0301563
641.552 .0301305
642.309 .0301055
643.065 .0300810
643.821 .0300569
644.577 .0300315
645.332 .0300056
646.088 .0299786
646.843 .0299507
647.597 .0299221
648.352 .0298947
649.106 .0298689
649.860 .0298451
650.613 .0298245
651.367 .0298068
652.120 .0297906
652.872 .0297760
653.625 .0297611
654.377 .0297462
655.129 .0297307
655.881 .0297147
656.632 .0296983
657.384 .0296824
658.135 .0296681
658.885 .0296552
659.636 .0296437
660.386 .0296339
661.136 .0296248
661.885 .0296156
662.635 .0296059
663.384 .0295956
664.133 .0295847
664.881 .0295731
665.630 .0295609
666.378 .0295486
667.126 .0295358
667.874 .0295236
668.621 .0295110
669.368 .0294983
670.115 .0294859
670.862 .0294727
671.608 .0294591
672.354 .0294452
673.100 .0294311
673.846 .0294164
674.591 .0294011
675.337 .0293859
676.082 .0293700
676.826 .0293544
677.571 .0293398
678.315 .0293257
679.059 .0293130
679.803 .0293013
680.547 .0292902
681.290 .0292796
682.033 .0292691
682.776 .0292576
683.518 .0292452
684.261 .0292319
685.003 .0292176
685.745 .0292023
686.487 .0291876
687.228 .0291733
687.969 .0291595
688.710 .0291462
689.451 .0291323
690.192 .0291175
690.932 .0291017
691.672 .0290844
692.412 .0290656
693.152 .0290459
693.891 .0290259
694.630 .0290056
695.369 .0289860
696.108 .0289669
696.846 .0289481
697.585 .0289297
698.323 .0289107
699.061 .0288904
699.798 .0288691
700.536 .0288470
701.273 .0288242
702.010 .0288016
702.746 .0287794
703.483 .0287578
704.219 .0287371
704.955 .0287171
705.691 .0286975
706.427 .0286778
707.162 .0286579
707.897 .0286368
708.632 .0286155
709.367 .0285942
710.101 .0285730
710.835 .0285526
711.569 .0285331
712.303 .0285142
713.037 .0284958
713.770 .0284773
714.503 .0284584
715.236 .0284389
715.969 .0284190
716.702 .0283981
717.434 .0283772
718.166 .0283566
718.898 .0283365
719.629 .0283175
720.361 .0282993
721.092 .0282808
721.823 .0282621
722.554 .0282421
723.284 .0282208
724.014 .0281976
724.744 .0281729
725.474 .0281467
726.204 .0281198
726.933 .0280929
727.662 .0280661
728.391 .0280395
729.120 .0280130
729.849 .0279861
730.577 .0279587
731.305 .0279306
732.033 .0279021
732.760 .0278739
733.488 .0278468
734.215 .0278208
734.942 .0277970
735.669 .0277750
736.395 .0277554
737.122 .0277374
737.848 .0277208
738.573 .0277054
739.299 .0276901
740.024 .0276749
740.750 .0276596
741.474 .0276444
742.199 .0276293
742.924 .0276137
743.648 .0275983
744.372 .0275828
745.096 .0275673
745.819 .0275515
746.543 .0275356
747.266 .0275194
747.989 .0275037
748.711 .0274880
749.434 .0274728
750.156 .0274585
750.878 .0274452
751.599 .0274332
752.321 .0274224
753.042 .0274132
753.763 .0274053
754.484 .0273987
755.205 .0273936
755.925 .0273891
756.645 .0273851
757.365 .0273810
758.085 .0273770
758.804 .0273724
759.523 .0273669
760.242 .0273604
760.961 .0273531
761.679 .0273453
762.397 .0273366
763.115 .0273271
763.833 .0273166
764.551 .0273051
765.268 .0272926
765.985 .0272785
766.702 .0272634
767.418 .0272474
768.134 .0272306
768.850 .0272138
769.566 .0271975
770.282 .0271815
770.997 .0271665
771.712 .0271525
772.427 .0271390
773.142 .0271254
773.856 .0271120
774.570 .0270982
775.284 .0270844
775.998 .0270709
776.711 .0270581
777.424 .0270460
778.137 .0270361
778.849 .0270275
779.562 .0270199
780.274 .0270136
780.986 .0270077
781.697 .0270016
782.409 .0269957
783.120 .0269896
783.831 .0269836
784.541 .0269782
785.252 .0269739
785.962 .0269701
786.671 .0269674
787.381 .0269650
788.090 .0269628
788.799 .0269601
789.508 .0269567
790.217 .0269518
790.925 .0269457
791.633 .0269388
792.341 .0269312
793.048 .0269232
793.755 .0269154
794.462 .0269071
795.169 .0268989
795.875 .0268905
796.581 .0268821
797.287 .0268732
797.993 .0268639
798.698 .0268542
799.403 .0268443
800.108 .0268342
800.812 .0268239
801.517 .0268137
802.221 .0268039
802.924 .0267943
803.628 .0267850
804.331 .0267760
805.034 .0267673
805.736 .0267588
806.439 .0267503
807.141 .0267416
807.843 .0267331
808.544 .0267244
809.245 .0267156
809.946 .0267069
810.647 .0266985
811.347 .0266905
812.047 .0266826
812.747 .0266755
813.447 .0266685
814.146 .0266613
814.845 .0266543
815.543 .0266470
816.242 .0266392
816.940 .0266306
817.638 .0266209
818.335 .0266106
819.032 .0265991
819.729 .0265869
820.426 .0265734
821.122 .0265591
821.818 .0265440
822.514 .0265278
823.209 .0265105
823.905 .0264931
824.599 .0264750
825.294 .0264567
825.988 .0264379
826.682 .0264194
827.376 .0264006
828.069 .0263816
828.762 .0263623
829.455 .0263426
830.147 .0263224
830.840 .0263025
831.531 .0262827
832.223 .0262636
832.914 .0262454
833.605 .0262277
834.296 .0262106
834.986 .0261941
835.676 .0261774
836.366 .0261606
837.055 .0261440
837.744 .0261278
838.433 .0261110
839.121 .0260948
839.809 .0260789
840.497 .0260635
841.185 .0260485
841.872 .0260333
842.559 .0260181
843.245 .0260028
843.932 .0259870
844.617 .0259712
845.303 .0259551
845.988 .0259392
846.673 .0259233
847.358 .0259077
848.042 .0258922
848.726 .0258766
849.410 .0258612
850.093 .0258460
850.776 .0258307
851.459 .0258152
852.141 .0257988
852.823 .0257823
853.505 .0257659
854.186 .0257489
854.867 .0257321
855.548 .0257156
856.228 .0256993
856.908 .0256835
857.588 .0256679
858.267 .0256525
858.946 .0256368
859.625 .0256209
860.303 .0256039
860.981 .0255856
861.659 .0255665
862.336 .0255465
863.013 .0255264
863.690 .0255072
864.366 .0254888
865.042 .0254712
865.718 .0254549
866.393 .0254394
867.068 .0254244
867.743 .0254093
868.417 .0253940
869.091 .0253784
869.765 .0253623
870.438 .0253458
871.111 .0253294
871.783 .0253134
872.456 .0252979
873.127 .0252824
873.799 .0252670
874.470 .0252511
875.141 .0252347
875.811 .0252175
876.481 .0251998
877.151 .0251816
877.820 .0251627
878.489 .0251433
879.158 .0251238
879.826 .0251042
880.494 .0250846
881.162 .0250651
881.829 .0250465
882.496 .0250280
883.163 .0250102
883.829 .0249935
884.495 .0249775
885.160 .0249629
885.825 .0249496
886.490 .0249379
887.154 .0249278
887.818 .0249192
888.482 .0249118
889.145 .0249056
889.808 .0249006
890.471 .0248961
891.133 .0248922
891.795 .0248888
892.456 .0248853
893.117 .0248816
893.778 .0248781
894.439 .0248745
895.099 .0248703
895.758 .0248661
896.417 .0248612
897.076 .0248559
897.735 .0248504
898.393 .0248444
899.051 .0248387
899.708 .0248333
900.365 .0248281
901.022 .0248232
901.678 .0248188
902.334 .0248145
902.990 .0248098
903.645 .0248049
904.300 .0247995
904.954 .0247938
905.608 .0247878
906.262 .0247824
906.915 .0247779
907.568 .0247741
908.221 .0247710
908.873 .0247687
909.525 .0247663
910.176 .0247633
910.828 .0247593
911.478 .0247541
912.129 .0247480
912.778 .0247412
913.428 .0247341
914.077 .0247277
914.726 .0247229
915.375 .0247194
916.023 .0247171
916.670 .0247161
917.318 .0247156
917.964 .0247150
918.611 .0247140
919.257 .0247124
919.903 .0247099
920.548 .0247071
921.193 .0247042
921.838 .0247019
922.482 .0247006
923.126 .0247005
923.770 .0247011
924.413 .0247028
925.056 .0247045
925.698 .0247064
926.340 .0247075
926.982 .0247081
927.623 .0247081
928.264 .0247075
928.904 .0247060
929.544 .0247045
930.184 .0247025
930.823 .0247004
931.462 .0246978
932.101 .0246948
932.739 .0246908
933.377 .0246864
934.014 .0246810
934.651 .0246748
935.288 .0246680
935.924 .0246608
936.560 .0246532
937.196 .0246460
937.831 .0246389
938.466 .0246318
939.100 .0246245
939.734 .0246170
940.368 .0246094
941.001 .0246018
941.634 .0245940
942.266 .0245868
942.899 .0245798
943.530 .0245723
944.162 .0245638
944.793 .0245541
945.423 .0245429
946.053 .0245301
946.683 .0245156
947.313 .0244994
947.942 .0244823
948.571 .0244648
949.199 .0244471
949.827 .0244300
950.455 .0244134
951.082 .0243975
951.709 .0243824
952.335 .0243680
952.961 .0243539
953.587 .0243406
954.212 .0243281
954.837 .0243167
955.462 .0243066
956.086 .0242980
956.710 .0242909
957.334 .0242856
957.957 .0242820
958.579 .0242793
959.202 .0242773
959.824 .0242755
960.445 .0242735
961.067 .0242715
961.688 .0242694
962.308 .0242672
962.928 .0242656
963.548 .0242643
964.168 .0242632
964.787 .0242620
965.406 .0242609
966.024 .0242596
966.642 .0242580
967.260 .0242556
967.877 .0242528
968.494 .0242493
969.110 .0242453
969.727 .0242408
970.342 .0242356
970.958 .0242297
971.573 .0242234
972.188 .0242164
972.802 .0242088
973.416 .0242002
974.030 .0241912
974.643 .0241810
975.256 .0241706
975.869 .0241592
976.481 .0241474
977.093 .0241359
977.705 .0241249
978.316 .0241143
978.927 .0241045
979.538 .0240957
980.148 .0240879
980.758 .0240806
981.367 .0240745
981.977 .0240689
982.586 .0240640
983.194 .0240597
983.802 .0240559
984.410 .0240521
985.018 .0240489
985.625 .0240456
986.232 .0240428
986.838 .0240403
987.445 .0240376
988.050 .0240343
988.656 .0240309
989.261 .0240270
989.866 .0240215
990.471 .0240152
991.075 .0240089
991.679 .0240017
992.282 .0239939
992.886 .0239861
993.489 .0239784
994.091 .0239708
994.694 .0239631
995.296 .0239551
995.897 .0239466
996.499 .0239382
997.100 .0239287
997.701 .0239186
998.301 .0239094
998.901 .0239006
999.501 .0238920
1000.101 .0238849
1000.700 .0238785
1001.299 .0238726
1001.898 .0238666
1002.496 .0238605
1003.094 .0238537
1003.692 .0238465
1004.289 .0238388
1004.887 .0238311
1005.484 .0238243
1006.080 .0238187
1006.677 .0238135
1007.273 .0238098
1007.868 .0238068
1008.464 .0238040
1009.059 .0238008
1009.654 .0237971
1010.249 .0237928
1010.843 .0237884
1011.437 .0237837
1012.031 .0237795
1012.625 .0237763
1013.218 .0237742
1013.811 .0237728
1014.404 .0237725
1014.997 .0237730
1015.589 .0237740
1016.181 .0237754
1016.773 .0237768
1017.365 .0237780
1017.956 .0237788
1018.547 .0237783
1019.138 .0237768
1019.728 .0237741
1020.319 .0237702
1020.909 .0237640
1021.499 .0237564
1022.088 .0237473
1022.678 .0237361
1023.267 .0237236
1023.856 .0237099
1024.445 .0236952
1025.033 .0236793
1025.621 .0236622
1026.209 .0236444
1026.797 .0236261
1027.385 .0236078
1027.972 .0235894
1028.560 .0235721
1029.147 .0235567
1029.734 .0235429
1030.320 .0235312
1030.907 .0235219
1031.493 .0235146
1032.079 .0235082
1032.665 .0235035
1033.250 .0234991
1033.836 .0234947
1034.421 .0234904
1035.006 .0234864
1035.591 .0234818
1036.176 .0234770
1036.761 .0234725
1037.345 .0234672
1037.929 .0234613
1038.514 .0234544
1039.097 .0234450
1039.681 .0234348
1040.265 .0234233
1040.848 .0234107
1041.432 .0233972
1042.015 .0233844
1042.598 .0233712
1043.181 .0233581
1043.764 .0233457
1044.346 .0233334
1044.929 .0233214
1045.511 .0233103
1046.094 .0232995
1046.676 .0232897
1047.258 .0232807
1047.840 .0232733
1048.422 .0232675
1049.003 .0232644
1049.585 .0232626
1050.166 .0232617
1050.748 .0232611
1051.329 .0232599
1051.910 .0232578
1052.491 .0232541
1053.072 .0232486
1053.653 .0232415
1054.234 .0232328
1054.815 .0232224
1055.396 .0232109
1055.976 .0231988
1056.557 .0231854
1057.138 .0231718
1057.718 .0231571
1058.298 .0231406
1058.879 .0231239
1059.459 .0231065
1060.039 .0230891
1060.620 .0230719
1061.200 .0230565
1061.780 .0230414
1062.360 .0230278
1062.940 .0230161
1063.520 .0230053
1064.101 .0229962
1064.681 .0229885
1065.261 .0229817
1065.841 .0229764
1066.421 .0229726
1067.001 .0229693
1067.581 .0229669
1068.161 .0229664
1068.741 .0229663
1069.321 .0229670
1069.901 .0229686
1070.482 .0229701
1071.062 .0229716
1071.642 .0229731
1072.222 .0229749
1072.803 .0229750
1073.383 .0229749
1073.963 .0229721
1074.544 .0229678
1075.124 .0229620
1075.705 .0229538
1076.286 .0229443
1076.866 .0229366
1077.447 .0229286
1078.028 .0229209
1078.609 .0229126
1079.190 .0229043
1079.771 .0228940
1080.352 .0228819
1080.934 .0228658
1081.515 .0228459
1082.097 .0228238
1082.679 .0228004
1083.260 .0227761
1083.842 .0227544
1084.424 .0227346
1085.007 .0227173
1085.589 .0227006
1086.172 .0226844
1086.754 .0226657
1087.337 .0226460
1087.920 .0226251
1088.503 .0226020
1089.087 .0225774
1089.670 .0225537
1090.254 .0225317
1090.838 .0225143
1091.422 .0225021
1092.006 .0224967
1092.590 .0224968
1093.175 .0225041
1093.760 .0225158
1094.345 .0225312
1094.930 .0225499
1095.516 .0225703
1096.102 .0225903
1096.688 .0226106
1097.274 .0226296
1097.860 .0226458
1098.447 .0226613
1099.034 .0226774
1099.622 .0226914
1100.209 .0227053
1100.797 .0227168
1101.385 .0227250
1101.973 .0227303
1102.562 .0227319
1103.151 .0227279
1103.740 .0227199
1104.330 .0227099
1104.920 .0226971
1105.510 .0226843
1106.101 .0226745
1106.691 .0226664
1107.283 .0226631
1107.874 .0226641
1108.466 .0226683
1109.058 .0226751
1109.651 .0226863
1110.244 .0226974
1110.837 .0227089
1111.431 .0227214
1112.025 .0227325
1112.620 .0227430
1113.215 .0227561
1113.810 .0227693
1114.406 .0227847
1115.002 .0228031
1115.599 .0228230
1116.196 .0228402
1116.793 .0228567
1117.391 .0228685
1117.989 .0228741
1118.588 .0228764
1119.187 .0228752
1119.787 .0228705
1120.387 .0228682
1120.988 .0228700
1121.589 .0228758
1122.190 .0228859
1122.793 .0229024
1123.395 .0229187
1123.998 .0229342
1124.602 .0229468
1125.206 .0229544
1125.811 .0229604
1126.416 .0229667
1127.022 .0229742
1127.628 .0229882
1128.235 .0230141
1128.843 .0230493
1129.451 .0230926
1130.059 .0231419
1130.669 .0231948
1131.278 .0232458
1131.889 .0232931
1132.500 .0233359
1133.112 .0233744
1133.724 .0234131
1134.337 .0234545
1134.950 .0234996
1135.564 .0235525
1136.179 .0236089
1136.795 .0236682
1137.411 .0237280
1138.028 .0237835
1138.645 .0238338
1139.263 .0238766
1139.882 .0239123
1140.502 .0239420
1141.122 .0239664
1141.743 .0239848
1142.365 .0239958
1142.987 .0240172
1143.611 .0240750
1144.235 .0241018
1144.859 .0239836
1145.485 .0238870
