Measurement Sequence started on: 10-20-44-796
Integration time: 35
Scans to Average: 2 
>>>>>Begin Spectral Data<<<<<
432.953 .0467219
433.882 .0414825
434.810 .0369305
435.737 .0395276
436.662 .0383149
437.586 .0389675
438.509 .0386086
439.431 .0384974
440.351 .0385139
441.269 .0384537
442.187 .0384157
443.103 .0383538
444.018 .0382742
444.932 .0381641
445.844 .0380200
446.756 .0378521
447.666 .0376731
448.575 .0374800
449.482 .0372975
450.388 .0371455
451.294 .0370126
452.198 .0368998
453.100 .0368004
454.002 .0367153
454.902 .0366383
455.801 .0365658
456.699 .0365025
457.596 .0364554
458.492 .0364216
459.387 .0364024
460.280 .0363934
461.172 .0364001
462.064 .0364155
462.954 .0364182
463.843 .0364197
464.730 .0364094
465.617 .0363908
466.503 .0363598
467.387 .0363252
468.271 .0362908
469.153 .0362550
470.035 .0362199
470.915 .0361911
471.794 .0361592
472.673 .0361296
473.550 .0360984
474.426 .0360695
475.301 .0360403
476.175 .0360144
477.048 .0359873
477.920 .0359656
478.791 .0359470
479.661 .0359319
480.530 .0359164
481.398 .0359063
482.266 .0359003
483.132 .0358959
483.997 .0358927
484.861 .0358928
485.724 .0358943
486.587 .0358962
487.448 .0358952
488.308 .0358910
489.168 .0358821
490.026 .0358689
490.884 .0358477
491.741 .0358203
492.597 .0357884
493.452 .0357506
494.306 .0357080
495.159 .0356607
496.011 .0356094
496.862 .0355507
497.713 .0354843
498.562 .0354100
499.411 .0353267
500.259 .0352331
501.106 .0351328
501.952 .0350244
502.798 .0349136
503.642 .0347991
504.486 .0346828
505.329 .0345671
506.171 .0344505
507.012 .0343340
507.852 .0342187
508.692 .0341003
509.531 .0339787
510.369 .0338532
511.206 .0337281
512.043 .0335974
512.878 .0334641
513.713 .0333276
514.547 .0331868
515.381 .0330434
516.213 .0328935
517.045 .0327350
517.876 .0325687
518.706 .0323960
519.536 .0322195
520.365 .0320470
521.193 .0318793
522.020 .0317170
522.847 .0315651
523.673 .0314252
524.498 .0312841
525.323 .0311355
526.146 .0309845
526.969 .0308307
527.792 .0306646
528.614 .0304943
529.435 .0303322
530.255 .0301905
531.075 .0300669
531.894 .0299704
532.712 .0298958
533.530 .0298442
534.347 .0298074
535.163 .0297728
535.979 .0297429
536.794 .0297130
537.608 .0296781
538.422 .0296413
539.235 .0296108
540.048 .0295905
540.860 .0295723
541.671 .0295679
542.481 .0295752
543.292 .0295779
544.101 .0295801
544.910 .0295776
545.718 .0295711
546.526 .0295569
547.333 .0295354
548.139 .0295078
548.945 .0294794
549.750 .0294505
550.555 .0294268
551.359 .0294130
552.162 .0294144
552.965 .0294232
553.768 .0294413
554.569 .0294758
555.371 .0295203
556.171 .0295741
556.972 .0296376
557.771 .0297048
558.570 .0297763
559.369 .0298488
560.167 .0299259
560.964 .0300109
561.761 .0301013
562.558 .0301970
563.354 .0302966
564.149 .0304001
564.944 .0305040
565.738 .0306084
566.532 .0307106
567.325 .0308103
568.118 .0309048
568.910 .0309951
569.702 .0310817
570.494 .0311691
571.285 .0312573
572.075 .0313434
572.865 .0314264
573.654 .0315057
574.443 .0315779
575.232 .0316454
576.020 .0317042
576.807 .0317578
577.594 .0318088
578.381 .0318560
579.167 .0319000
579.952 .0319449
580.738 .0319895
581.522 .0320343
582.307 .0320779
583.091 .0321202
583.874 .0321584
584.657 .0321944
585.440 .0322266
586.222 .0322549
587.004 .0322828
587.785 .0323090
588.566 .0323340
589.346 .0323592
590.126 .0323826
590.906 .0324029
591.685 .0324197
592.464 .0324320
593.242 .0324386
594.020 .0324403
594.797 .0324384
595.575 .0324336
596.351 .0324275
597.128 .0324209
597.904 .0324150
598.679 .0324104
599.454 .0324067
600.229 .0324022
601.004 .0323961
601.778 .0323872
602.551 .0323754
603.325 .0323595
604.097 .0323401
604.870 .0323177
605.642 .0322935
606.414 .0322689
607.185 .0322439
607.956 .0322188
608.727 .0321942
609.497 .0321695
610.267 .0321439
611.037 .0321168
611.806 .0320890
612.575 .0320594
613.344 .0320293
614.112 .0319999
614.880 .0319709
615.647 .0319430
616.414 .0319173
617.181 .0318937
617.948 .0318721
618.714 .0318526
619.480 .0318340
620.245 .0318167
621.011 .0317999
621.775 .0317828
622.540 .0317648
623.304 .0317465
624.068 .0317275
624.832 .0317062
625.595 .0316847
626.358 .0316625
627.120 .0316400
627.883 .0316181
628.645 .0315969
629.406 .0315770
630.168 .0315580
630.929 .0315401
631.689 .0315225
632.450 .0315052
633.210 .0314883
633.970 .0314707
634.729 .0314532
635.489 .0314358
636.248 .0314183
637.006 .0314006
637.765 .0313833
638.523 .0313653
639.280 .0313466
640.038 .0313273
640.795 .0313080
641.552 .0312879
642.309 .0312680
643.065 .0312486
643.821 .0312292
644.577 .0312101
645.332 .0311907
646.088 .0311701
646.843 .0311491
647.597 .0311275
648.352 .0311055
649.106 .0310835
649.860 .0310620
650.613 .0310413
651.367 .0310218
652.120 .0310032
652.872 .0309850
653.625 .0309666
654.377 .0309484
655.129 .0309288
655.881 .0309085
656.632 .0308880
657.384 .0308674
658.135 .0308475
658.885 .0308280
659.636 .0308093
660.386 .0307915
661.136 .0307744
661.885 .0307583
662.635 .0307428
663.384 .0307286
664.133 .0307156
664.881 .0307032
665.630 .0306918
666.378 .0306810
667.126 .0306698
667.874 .0306582
668.621 .0306452
669.368 .0306304
670.115 .0306137
670.862 .0305956
671.608 .0305772
672.354 .0305588
673.100 .0305409
673.846 .0305240
674.591 .0305075
675.337 .0304925
676.082 .0304775
676.826 .0304622
677.571 .0304469
678.315 .0304309
679.059 .0304144
679.803 .0303974
680.547 .0303807
681.290 .0303651
682.033 .0303498
682.776 .0303357
683.518 .0303216
684.261 .0303075
685.003 .0302934
685.745 .0302783
686.487 .0302626
687.228 .0302468
687.969 .0302298
688.710 .0302125
689.451 .0301948
690.192 .0301769
690.932 .0301588
691.672 .0301402
692.412 .0301218
693.152 .0301034
693.891 .0300851
694.630 .0300671
695.369 .0300494
696.108 .0300323
696.846 .0300153
697.585 .0299975
698.323 .0299793
699.061 .0299601
699.798 .0299407
700.536 .0299205
701.273 .0299003
702.010 .0298804
702.746 .0298609
703.483 .0298415
704.219 .0298220
704.955 .0298017
705.691 .0297808
706.427 .0297581
707.162 .0297342
707.897 .0297088
708.632 .0296828
709.367 .0296569
710.101 .0296321
710.835 .0296086
711.569 .0295869
712.303 .0295664
713.037 .0295469
713.770 .0295278
714.503 .0295089
715.236 .0294895
715.969 .0294694
716.702 .0294490
717.434 .0294285
718.166 .0294079
718.898 .0293878
719.629 .0293681
720.361 .0293493
721.092 .0293306
721.823 .0293116
722.554 .0292916
723.284 .0292712
724.014 .0292495
724.744 .0292262
725.474 .0292014
726.204 .0291758
726.933 .0291496
727.662 .0291234
728.391 .0290980
729.120 .0290737
729.849 .0290514
730.577 .0290311
731.305 .0290122
732.033 .0289952
732.760 .0289795
733.488 .0289645
734.215 .0289497
734.942 .0289346
735.669 .0289188
736.395 .0289023
737.122 .0288853
737.848 .0288681
738.573 .0288512
739.299 .0288345
740.024 .0288186
740.750 .0288033
741.474 .0287885
742.199 .0287733
742.924 .0287579
743.648 .0287417
744.372 .0287246
745.096 .0287067
745.819 .0286886
746.543 .0286711
747.266 .0286551
747.989 .0286406
748.711 .0286279
749.434 .0286170
750.156 .0286080
750.878 .0285993
751.599 .0285916
752.321 .0285840
753.042 .0285769
753.763 .0285701
754.484 .0285640
755.205 .0285585
755.925 .0285541
756.645 .0285501
757.365 .0285462
758.085 .0285419
758.804 .0285365
759.523 .0285292
760.242 .0285201
760.961 .0285089
761.679 .0284961
762.397 .0284811
763.115 .0284652
763.833 .0284480
764.551 .0284298
765.268 .0284106
765.985 .0283902
766.702 .0283692
767.418 .0283476
768.134 .0283256
768.850 .0283038
769.566 .0282826
770.282 .0282627
770.997 .0282443
771.712 .0282275
772.427 .0282123
773.142 .0281985
773.856 .0281857
774.570 .0281741
775.284 .0281626
775.998 .0281514
776.711 .0281410
777.424 .0281309
778.137 .0281212
778.849 .0281115
779.562 .0281019
780.274 .0280918
780.986 .0280812
781.697 .0280702
782.409 .0280583
783.120 .0280462
783.831 .0280346
784.541 .0280235
785.252 .0280133
785.962 .0280044
786.671 .0279962
787.381 .0279887
788.090 .0279814
788.799 .0279733
789.508 .0279640
790.217 .0279534
790.925 .0279419
791.633 .0279291
792.341 .0279158
793.048 .0279021
793.755 .0278880
794.462 .0278740
795.169 .0278596
795.875 .0278449
796.581 .0278299
797.287 .0278148
797.993 .0277993
798.698 .0277838
799.403 .0277687
800.108 .0277540
800.812 .0277406
801.517 .0277288
802.221 .0277182
802.924 .0277092
803.628 .0277015
804.331 .0276954
805.034 .0276901
805.736 .0276861
806.439 .0276823
807.141 .0276787
807.843 .0276753
808.544 .0276711
809.245 .0276658
809.946 .0276596
810.647 .0276522
811.347 .0276435
812.047 .0276340
812.747 .0276242
813.447 .0276137
814.146 .0276031
814.845 .0275924
815.543 .0275820
816.242 .0275715
816.940 .0275611
817.638 .0275503
818.335 .0275393
819.032 .0275280
819.729 .0275159
820.426 .0275033
821.122 .0274902
821.818 .0274766
822.514 .0274630
823.209 .0274491
823.905 .0274356
824.599 .0274219
825.294 .0274085
825.988 .0273954
826.682 .0273822
827.376 .0273688
828.069 .0273550
828.762 .0273407
829.455 .0273261
830.147 .0273107
830.840 .0272952
831.531 .0272802
832.223 .0272656
832.914 .0272519
833.605 .0272388
834.296 .0272267
834.986 .0272155
835.676 .0272049
836.366 .0271946
837.055 .0271842
837.744 .0271738
838.433 .0271632
839.121 .0271525
839.809 .0271418
840.497 .0271313
841.185 .0271209
841.872 .0271106
842.559 .0271005
843.245 .0270902
843.932 .0270801
844.617 .0270700
845.303 .0270603
845.988 .0270505
846.673 .0270408
847.358 .0270311
848.042 .0270213
848.726 .0270115
849.410 .0270017
850.093 .0269917
850.776 .0269819
851.459 .0269717
852.141 .0269616
852.823 .0269510
853.505 .0269405
854.186 .0269291
854.867 .0269175
855.548 .0269050
856.228 .0268923
856.908 .0268792
857.588 .0268659
858.267 .0268529
858.946 .0268402
859.625 .0268278
860.303 .0268162
860.981 .0268055
861.659 .0267954
862.336 .0267854
863.013 .0267762
863.690 .0267671
864.366 .0267582
865.042 .0267493
865.718 .0267405
866.393 .0267315
867.068 .0267223
867.743 .0267122
868.417 .0267017
869.091 .0266906
869.765 .0266788
870.438 .0266662
871.111 .0266527
871.783 .0266388
872.456 .0266238
873.127 .0266081
873.799 .0265922
874.470 .0265758
875.141 .0265594
875.811 .0265431
876.481 .0265271
877.151 .0265120
877.820 .0264978
878.489 .0264848
879.158 .0264730
879.826 .0264621
880.494 .0264520
881.162 .0264421
881.829 .0264322
882.496 .0264219
883.163 .0264106
883.829 .0263987
884.495 .0263860
885.160 .0263731
885.825 .0263604
886.490 .0263487
887.154 .0263381
887.818 .0263287
888.482 .0263203
889.145 .0263128
889.808 .0263058
890.471 .0262992
891.133 .0262926
891.795 .0262864
892.456 .0262804
893.117 .0262752
893.778 .0262710
894.439 .0262679
895.099 .0262661
895.758 .0262653
896.417 .0262649
897.076 .0262646
897.735 .0262635
898.393 .0262612
899.051 .0262579
899.708 .0262532
900.365 .0262470
901.022 .0262393
901.678 .0262311
902.334 .0262221
902.990 .0262126
903.645 .0262032
904.300 .0261932
904.954 .0261828
905.608 .0261717
906.262 .0261600
906.915 .0261481
907.568 .0261358
908.221 .0261235
908.873 .0261113
909.525 .0260998
910.176 .0260890
910.828 .0260790
911.478 .0260702
912.129 .0260625
912.778 .0260551
913.428 .0260478
914.077 .0260404
914.726 .0260324
915.375 .0260242
916.023 .0260153
916.670 .0260059
917.318 .0259958
917.964 .0259852
918.611 .0259738
919.257 .0259619
919.903 .0259493
920.548 .0259364
921.193 .0259233
921.838 .0259106
922.482 .0258979
923.126 .0258859
923.770 .0258745
924.413 .0258642
925.056 .0258537
925.698 .0258436
926.340 .0258336
926.982 .0258239
927.623 .0258143
928.264 .0258049
928.904 .0257957
929.544 .0257873
930.184 .0257792
930.823 .0257711
931.462 .0257627
932.101 .0257540
932.739 .0257439
933.377 .0257322
934.014 .0257183
934.651 .0257028
935.288 .0256854
935.924 .0256677
936.560 .0256494
937.196 .0256313
937.831 .0256137
938.466 .0255970
939.100 .0255810
939.734 .0255653
940.368 .0255495
941.001 .0255336
941.634 .0255176
942.266 .0255018
942.899 .0254854
943.530 .0254695
944.162 .0254541
944.793 .0254390
945.423 .0254232
946.053 .0254071
946.683 .0253905
947.313 .0253732
947.942 .0253552
948.571 .0253362
949.199 .0253166
949.827 .0252964
950.455 .0252766
951.082 .0252570
951.709 .0252382
952.335 .0252204
952.961 .0252033
953.587 .0251875
954.212 .0251727
954.837 .0251588
955.462 .0251462
956.086 .0251352
956.710 .0251257
957.334 .0251169
957.957 .0251090
958.579 .0251016
959.202 .0250940
959.824 .0250860
960.445 .0250770
961.067 .0250665
961.688 .0250548
962.308 .0250421
962.928 .0250286
963.548 .0250151
964.168 .0250018
964.787 .0249892
965.406 .0249774
966.024 .0249664
966.642 .0249556
967.260 .0249451
967.877 .0249347
968.494 .0249238
969.110 .0249128
969.727 .0249019
970.342 .0248909
970.958 .0248807
971.573 .0248715
972.188 .0248631
972.802 .0248551
973.416 .0248467
974.030 .0248377
974.643 .0248271
975.256 .0248150
975.869 .0248009
976.481 .0247859
977.093 .0247706
977.705 .0247556
978.316 .0247411
978.927 .0247281
979.538 .0247166
980.148 .0247065
980.758 .0246975
981.367 .0246897
981.977 .0246829
982.586 .0246776
983.194 .0246735
983.802 .0246708
984.410 .0246685
985.018 .0246673
985.625 .0246660
986.232 .0246646
986.838 .0246625
987.445 .0246596
988.050 .0246562
988.656 .0246528
989.261 .0246493
989.866 .0246458
990.471 .0246425
991.075 .0246399
991.679 .0246365
992.282 .0246329
992.886 .0246286
993.489 .0246241
994.091 .0246194
994.694 .0246157
995.296 .0246127
995.897 .0246114
996.499 .0246116
997.100 .0246131
997.701 .0246154
998.301 .0246184
998.901 .0246214
999.501 .0246244
1000.101 .0246270
1000.700 .0246292
1001.299 .0246301
1001.898 .0246304
1002.496 .0246296
1003.094 .0246274
1003.692 .0246240
1004.289 .0246195
1004.887 .0246142
1005.484 .0246078
1006.080 .0246011
1006.677 .0245941
1007.273 .0245868
1007.868 .0245798
1008.464 .0245726
1009.059 .0245653
1009.654 .0245584
1010.249 .0245522
1010.843 .0245462
1011.437 .0245423
1012.031 .0245400
1012.625 .0245388
1013.218 .0245392
1013.811 .0245401
1014.404 .0245411
1014.997 .0245423
1015.589 .0245437
1016.181 .0245447
1016.773 .0245457
1017.365 .0245473
1017.956 .0245478
1018.547 .0245484
1019.138 .0245487
1019.728 .0245486
1020.319 .0245478
1020.909 .0245464
1021.499 .0245434
1022.088 .0245397
1022.678 .0245355
1023.267 .0245309
1023.856 .0245263
1024.445 .0245223
1025.033 .0245182
1025.621 .0245140
1026.209 .0245092
1026.797 .0245041
1027.385 .0244986
1027.972 .0244936
1028.560 .0244887
1029.147 .0244837
1029.734 .0244793
1030.320 .0244754
1030.907 .0244719
1031.493 .0244693
1032.079 .0244673
1032.665 .0244663
1033.250 .0244657
1033.836 .0244666
1034.421 .0244682
1035.006 .0244708
1035.591 .0244747
1036.176 .0244787
1036.761 .0244835
1037.345 .0244886
1037.929 .0244935
1038.514 .0244994
1039.097 .0245067
1039.681 .0245146
1040.265 .0245228
1040.848 .0245314
1041.432 .0245387
1042.015 .0245434
1042.598 .0245449
1043.181 .0245436
1043.764 .0245395
1044.346 .0245342
1044.929 .0245282
1045.511 .0245223
1046.094 .0245188
1046.676 .0245163
1047.258 .0245143
1047.840 .0245132
1048.422 .0245111
1049.003 .0245070
1049.585 .0245009
1050.166 .0244936
1050.748 .0244859
1051.329 .0244794
1051.910 .0244750
1052.491 .0244733
1053.072 .0244741
1053.653 .0244762
1054.234 .0244770
1054.815 .0244764
1055.396 .0244724
1055.976 .0244641
1056.557 .0244524
1057.138 .0244393
1057.718 .0244253
1058.298 .0244116
1058.879 .0243991
1059.459 .0243878
1060.039 .0243771
1060.620 .0243669
1061.200 .0243553
1061.780 .0243437
1062.360 .0243321
1062.940 .0243214
1063.520 .0243119
1064.101 .0243048
1064.681 .0242999
1065.261 .0242968
1065.841 .0242941
1066.421 .0242898
1067.001 .0242832
1067.581 .0242746
1068.161 .0242640
1068.741 .0242527
1069.321 .0242421
1069.901 .0242329
1070.482 .0242246
1071.062 .0242174
1071.642 .0242102
1072.222 .0242019
1072.803 .0241918
1073.383 .0241789
1073.963 .0241641
1074.544 .0241500
1075.124 .0241370
1075.705 .0241270
1076.286 .0241227
1076.866 .0241222
1077.447 .0241231
1078.028 .0241250
1078.609 .0241266
1079.190 .0241271
1079.771 .0241271
1080.352 .0241271
1080.934 .0241274
1081.515 .0241319
1082.097 .0241394
1082.679 .0241493
1083.260 .0241632
1083.842 .0241793
1084.424 .0241935
1085.007 .0242075
1085.589 .0242200
1086.172 .0242310
1086.754 .0242411
1087.337 .0242512
1087.920 .0242589
1088.503 .0242658
1089.087 .0242702
1089.670 .0242707
1090.254 .0242661
1090.838 .0242591
1091.422 .0242458
1092.006 .0242300
1092.590 .0242117
1093.175 .0241918
1093.760 .0241698
1094.345 .0241474
1094.930 .0241236
1095.516 .0240997
1096.102 .0240748
1096.688 .0240519
1097.274 .0240300
1097.860 .0240129
1098.447 .0239976
1099.034 .0239857
1099.622 .0239765
1100.209 .0239714
1100.797 .0239667
1101.385 .0239626
1101.973 .0239574
1102.562 .0239529
1103.151 .0239479
1103.740 .0239443
1104.330 .0239422
1104.920 .0239427
1105.510 .0239465
1106.101 .0239544
1106.691 .0239630
1107.283 .0239761
1107.874 .0239907
1108.466 .0240091
1109.058 .0240281
1109.651 .0240486
1110.244 .0240696
1110.837 .0240900
1111.431 .0241097
1112.025 .0241275
1112.620 .0241425
1113.215 .0241565
1113.810 .0241682
1114.406 .0241811
1115.002 .0241941
1115.599 .0242078
1116.196 .0242177
1116.793 .0242263
1117.391 .0242329
1117.989 .0242369
1118.588 .0242381
1119.187 .0242399
1119.787 .0242423
1120.387 .0242464
1120.988 .0242511
1121.589 .0242580
1122.190 .0242645
1122.793 .0242729
1123.395 .0242781
1123.998 .0242842
1124.602 .0242901
1125.206 .0242998
1125.811 .0243145
1126.416 .0243385
1127.022 .0243666
1127.628 .0243988
1128.235 .0244309
1128.843 .0244621
1129.451 .0244901
1130.059 .0245171
1130.669 .0245420
1131.278 .0245723
1131.889 .0246048
1132.500 .0246449
1133.112 .0246905
1133.724 .0247428
1134.337 .0247950
1134.950 .0248411
1135.564 .0248807
1136.179 .0249071
1136.795 .0249252
1137.411 .0249403
1138.028 .0249527
1138.645 .0249750
1139.263 .0249997
1139.882 .0250279
1140.502 .0250619
1141.122 .0251061
1141.743 .0251686
1142.365 .0252451
1142.987 .0251115
1143.611 .0252089
1144.235 .0254922
1144.859 .0258780
1145.485 .0260070
