Measurement Sequence started on: 10-20-44-796
Integration time: 35
Scans to Average: 2 
>>>>>Begin Spectral Data<<<<<
432.953 .0226411
433.882 .0246464
434.810 .0266372
435.737 .0277127
436.662 .0298316
437.586 .0310283
438.509 .0321654
439.431 .0330143
440.351 .0336022
441.269 .0339895
442.187 .0341788
443.103 .0342146
444.018 .0341880
444.932 .0341179
445.844 .0340347
446.756 .0339010
447.666 .0337683
448.575 .0335989
449.482 .0334416
450.388 .0332836
451.294 .0331361
452.198 .0330222
453.100 .0329504
454.002 .0329103
454.902 .0329034
455.801 .0329136
456.699 .0329447
457.596 .0329886
458.492 .0330430
459.387 .0330948
460.280 .0331511
461.172 .0332062
462.064 .0332608
462.954 .0332998
463.843 .0333411
464.730 .0333750
465.617 .0334012
466.503 .0334127
467.387 .0334077
468.271 .0333839
469.153 .0333451
470.035 .0332907
470.915 .0332310
471.794 .0331631
472.673 .0330999
473.550 .0330378
474.426 .0329867
475.301 .0329413
476.175 .0328981
477.048 .0328530
477.920 .0328041
478.791 .0327406
479.661 .0326675
480.530 .0325937
481.398 .0325269
482.266 .0324645
483.132 .0324211
483.997 .0323933
484.861 .0323823
485.724 .0323861
486.587 .0323980
487.448 .0324102
488.308 .0324244
489.168 .0324342
490.026 .0324367
490.884 .0324366
491.741 .0324373
492.597 .0324358
493.452 .0324378
494.306 .0324407
495.159 .0324391
496.011 .0324340
496.862 .0324261
497.713 .0324035
498.562 .0323667
499.411 .0323158
500.259 .0322478
501.106 .0321641
501.952 .0320663
502.798 .0319561
503.642 .0318404
504.486 .0317246
505.329 .0316149
506.171 .0315106
507.012 .0314222
507.852 .0313421
508.692 .0312648
509.531 .0311894
510.369 .0311111
511.206 .0310288
512.043 .0309414
512.878 .0308461
513.713 .0307457
514.547 .0306388
515.381 .0305321
516.213 .0304175
517.045 .0302927
517.876 .0301531
518.706 .0299971
519.536 .0298205
520.365 .0296292
521.193 .0294268
522.020 .0292199
522.847 .0290107
523.673 .0287971
524.498 .0285786
525.323 .0283577
526.146 .0281428
526.969 .0279404
527.792 .0277529
528.614 .0275906
529.435 .0274548
530.255 .0273459
531.075 .0272595
531.894 .0271949
532.712 .0271363
533.530 .0270755
534.347 .0270065
535.163 .0269259
535.979 .0268461
536.794 .0267801
537.608 .0267332
538.422 .0267117
539.235 .0267135
540.048 .0267319
540.860 .0267533
541.671 .0267721
542.481 .0267752
543.292 .0267617
544.101 .0267402
544.910 .0267183
545.718 .0267044
546.526 .0267206
547.333 .0267654
548.139 .0268381
548.945 .0269211
549.750 .0269998
550.555 .0270698
551.359 .0271244
552.162 .0271556
552.965 .0271702
553.768 .0271764
554.569 .0271893
555.371 .0272080
556.171 .0272381
556.972 .0272769
557.771 .0273227
558.570 .0273701
559.369 .0274133
560.167 .0274510
560.964 .0274919
561.761 .0275339
562.558 .0275845
563.354 .0276465
564.149 .0277151
564.944 .0277880
565.738 .0278633
566.532 .0279354
567.325 .0279996
568.118 .0280511
568.910 .0280965
569.702 .0281387
570.494 .0281855
571.285 .0282394
572.075 .0283026
572.865 .0283746
573.654 .0284507
574.443 .0285246
575.232 .0285954
576.020 .0286598
576.807 .0287204
577.594 .0287790
578.381 .0288411
579.167 .0289045
579.952 .0289735
580.738 .0290466
581.522 .0291231
582.307 .0291971
583.091 .0292649
583.874 .0293240
584.657 .0293761
585.440 .0294218
586.222 .0294612
587.004 .0294983
587.785 .0295364
588.566 .0295725
589.346 .0296070
590.126 .0296388
590.906 .0296647
591.685 .0296855
592.464 .0297016
593.242 .0297129
594.020 .0297201
594.797 .0297260
595.575 .0297319
596.351 .0297392
597.128 .0297477
597.904 .0297551
598.679 .0297602
599.454 .0297639
600.229 .0297630
601.004 .0297581
601.778 .0297516
602.551 .0297443
603.325 .0297372
604.097 .0297311
604.870 .0297261
605.642 .0297223
606.414 .0297192
607.185 .0297154
607.956 .0297106
608.727 .0297047
609.497 .0296969
610.267 .0296872
611.037 .0296763
611.806 .0296637
612.575 .0296498
613.344 .0296347
614.112 .0296177
614.880 .0295979
615.647 .0295761
616.414 .0295513
617.181 .0295258
617.948 .0294993
618.714 .0294733
619.480 .0294490
620.245 .0294272
621.011 .0294075
621.775 .0293902
622.540 .0293751
623.304 .0293617
624.068 .0293496
624.832 .0293389
625.595 .0293280
626.358 .0293175
627.120 .0293066
627.883 .0292962
628.645 .0292861
629.406 .0292769
630.168 .0292681
630.929 .0292598
631.689 .0292509
632.450 .0292400
633.210 .0292269
633.970 .0292118
634.729 .0291935
635.489 .0291715
636.248 .0291462
637.006 .0291192
637.765 .0290912
638.523 .0290640
639.280 .0290393
640.038 .0290185
640.795 .0290019
641.552 .0289890
642.309 .0289785
643.065 .0289699
643.821 .0289610
644.577 .0289505
645.332 .0289380
646.088 .0289236
646.843 .0289078
647.597 .0288920
648.352 .0288779
649.106 .0288670
649.860 .0288585
650.613 .0288518
651.367 .0288465
652.120 .0288405
652.872 .0288315
653.625 .0288192
654.377 .0288030
655.129 .0287838
655.881 .0287617
656.632 .0287391
657.384 .0287165
658.135 .0286952
658.885 .0286752
659.636 .0286554
660.386 .0286359
661.136 .0286168
661.885 .0285962
662.635 .0285753
663.384 .0285545
664.133 .0285346
664.881 .0285154
665.630 .0284986
666.378 .0284823
667.126 .0284672
667.874 .0284521
668.621 .0284366
669.368 .0284199
670.115 .0284034
670.862 .0283870
671.608 .0283711
672.354 .0283569
673.100 .0283443
673.846 .0283329
674.591 .0283234
675.337 .0283144
676.082 .0283055
676.826 .0282960
677.571 .0282866
678.315 .0282768
679.059 .0282680
679.803 .0282602
680.547 .0282541
681.290 .0282499
682.033 .0282471
682.776 .0282445
683.518 .0282412
684.261 .0282374
685.003 .0282321
685.745 .0282246
686.487 .0282156
687.228 .0282052
687.969 .0281937
688.710 .0281809
689.451 .0281673
690.192 .0281523
690.932 .0281357
691.672 .0281173
692.412 .0280973
693.152 .0280761
693.891 .0280542
694.630 .0280328
695.369 .0280126
696.108 .0279934
696.846 .0279755
697.585 .0279589
698.323 .0279436
699.061 .0279291
699.798 .0279150
700.536 .0279005
701.273 .0278864
702.010 .0278724
702.746 .0278592
703.483 .0278468
704.219 .0278353
704.955 .0278243
705.691 .0278132
706.427 .0278018
707.162 .0277894
707.897 .0277760
708.632 .0277624
709.367 .0277483
710.101 .0277336
710.835 .0277181
711.569 .0277026
712.303 .0276867
713.037 .0276704
713.770 .0276540
714.503 .0276372
715.236 .0276197
715.969 .0276023
716.702 .0275851
717.434 .0275681
718.166 .0275512
718.898 .0275347
719.629 .0275179
720.361 .0275011
721.092 .0274842
721.823 .0274665
722.554 .0274494
723.284 .0274327
724.014 .0274151
724.744 .0273975
725.474 .0273798
726.204 .0273615
726.933 .0273424
727.662 .0273224
728.391 .0273005
729.120 .0272764
729.849 .0272509
730.577 .0272241
731.305 .0271961
732.033 .0271676
732.760 .0271387
733.488 .0271099
734.215 .0270818
734.942 .0270538
735.669 .0270263
736.395 .0270004
737.122 .0269755
737.848 .0269522
738.573 .0269305
739.299 .0269105
740.024 .0268923
740.750 .0268756
741.474 .0268609
742.199 .0268474
742.924 .0268347
743.648 .0268231
744.372 .0268125
745.096 .0268028
745.819 .0267929
746.543 .0267827
747.266 .0267733
747.989 .0267637
748.711 .0267539
749.434 .0267444
750.156 .0267355
750.878 .0267280
751.599 .0267212
752.321 .0267152
753.042 .0267112
753.763 .0267089
754.484 .0267077
755.205 .0267072
755.925 .0267077
756.645 .0267080
757.365 .0267082
758.085 .0267079
758.804 .0267067
759.523 .0267032
760.242 .0266976
760.961 .0266889
761.679 .0266772
762.397 .0266626
763.115 .0266444
763.833 .0266241
764.551 .0266023
765.268 .0265792
765.985 .0265556
766.702 .0265321
767.418 .0265105
768.134 .0264895
768.850 .0264695
769.566 .0264504
770.282 .0264325
770.997 .0264159
771.712 .0264003
772.427 .0263866
773.142 .0263753
773.856 .0263664
774.570 .0263597
775.284 .0263553
775.998 .0263534
776.711 .0263536
777.424 .0263546
778.137 .0263557
778.849 .0263572
779.562 .0263572
780.274 .0263559
780.986 .0263529
781.697 .0263483
782.409 .0263424
783.120 .0263360
783.831 .0263293
784.541 .0263226
785.252 .0263168
785.962 .0263115
786.671 .0263068
787.381 .0263028
788.090 .0262984
788.799 .0262931
789.508 .0262875
790.217 .0262810
790.925 .0262734
791.633 .0262658
792.341 .0262586
793.048 .0262513
793.755 .0262441
794.462 .0262371
795.169 .0262299
795.875 .0262227
796.581 .0262148
797.287 .0262058
797.993 .0261961
798.698 .0261855
799.403 .0261737
800.108 .0261614
800.812 .0261492
801.517 .0261371
802.221 .0261254
802.924 .0261140
803.628 .0261029
804.331 .0260924
805.034 .0260827
805.736 .0260735
806.439 .0260649
807.141 .0260569
807.843 .0260500
808.544 .0260438
809.245 .0260379
809.946 .0260321
810.647 .0260268
811.347 .0260210
812.047 .0260149
812.747 .0260084
813.447 .0260011
814.146 .0259933
814.845 .0259854
815.543 .0259767
816.242 .0259672
816.940 .0259571
817.638 .0259464
818.335 .0259351
819.032 .0259229
819.729 .0259095
820.426 .0258956
821.122 .0258810
821.818 .0258652
822.514 .0258482
823.209 .0258306
823.905 .0258122
824.599 .0257933
825.294 .0257738
825.988 .0257536
826.682 .0257331
827.376 .0257124
828.069 .0256914
828.762 .0256703
829.455 .0256494
830.147 .0256285
830.840 .0256078
831.531 .0255877
832.223 .0255681
832.914 .0255490
833.605 .0255311
834.296 .0255147
834.986 .0254991
835.676 .0254847
836.366 .0254711
837.055 .0254581
837.744 .0254454
838.433 .0254330
839.121 .0254208
839.809 .0254090
840.497 .0253979
841.185 .0253874
841.872 .0253776
842.559 .0253686
843.245 .0253594
843.932 .0253501
844.617 .0253401
845.303 .0253289
845.988 .0253162
846.673 .0253020
847.358 .0252865
848.042 .0252700
848.726 .0252527
849.410 .0252350
850.093 .0252171
850.776 .0251994
851.459 .0251815
852.141 .0251633
852.823 .0251449
853.505 .0251263
854.186 .0251075
854.867 .0250889
855.548 .0250710
856.228 .0250539
856.908 .0250376
857.588 .0250226
858.267 .0250090
858.946 .0249962
859.625 .0249843
860.303 .0249734
860.981 .0249631
861.659 .0249531
862.336 .0249435
863.013 .0249340
863.690 .0249249
864.366 .0249156
865.042 .0249060
865.718 .0248961
866.393 .0248869
867.068 .0248772
867.743 .0248676
868.417 .0248582
869.091 .0248485
869.765 .0248379
870.438 .0248269
871.111 .0248153
871.783 .0248033
872.456 .0247909
873.127 .0247787
873.799 .0247667
874.470 .0247556
875.141 .0247448
875.811 .0247353
876.481 .0247267
877.151 .0247190
877.820 .0247114
878.489 .0247049
879.158 .0246993
879.826 .0246941
880.494 .0246893
881.162 .0246848
881.829 .0246805
882.496 .0246749
883.163 .0246679
883.829 .0246594
884.495 .0246502
885.160 .0246408
885.825 .0246310
886.490 .0246219
887.154 .0246142
887.818 .0246075
888.482 .0246016
889.145 .0245961
889.808 .0245906
890.471 .0245840
891.133 .0245770
891.795 .0245696
892.456 .0245628
893.117 .0245574
893.778 .0245544
894.439 .0245541
895.099 .0245558
895.758 .0245591
896.417 .0245627
897.076 .0245663
897.735 .0245690
898.393 .0245697
899.051 .0245687
899.708 .0245659
900.365 .0245621
901.022 .0245578
901.678 .0245533
902.334 .0245490
902.990 .0245448
903.645 .0245405
904.300 .0245354
904.954 .0245294
905.608 .0245227
906.262 .0245152
906.915 .0245077
907.568 .0245001
908.221 .0244934
908.873 .0244882
909.525 .0244848
910.176 .0244836
910.828 .0244849
911.478 .0244883
912.129 .0244922
912.778 .0244968
913.428 .0245016
914.077 .0245054
914.726 .0245090
915.375 .0245122
916.023 .0245152
916.670 .0245184
917.318 .0245222
917.964 .0245256
918.611 .0245286
919.257 .0245310
919.903 .0245316
920.548 .0245306
921.193 .0245282
921.838 .0245241
922.482 .0245189
923.126 .0245140
923.770 .0245089
924.413 .0245036
925.056 .0244993
925.698 .0244951
926.340 .0244913
926.982 .0244880
927.623 .0244852
928.264 .0244829
928.904 .0244815
929.544 .0244814
930.184 .0244812
930.823 .0244810
931.462 .0244801
932.101 .0244772
932.739 .0244729
933.377 .0244665
934.014 .0244579
934.651 .0244481
935.288 .0244381
935.924 .0244281
936.560 .0244181
937.196 .0244093
937.831 .0244003
938.466 .0243904
939.100 .0243794
939.734 .0243671
940.368 .0243526
941.001 .0243376
941.634 .0243222
942.266 .0243071
942.899 .0242933
943.530 .0242806
944.162 .0242690
944.793 .0242587
945.423 .0242487
946.053 .0242380
946.683 .0242263
947.313 .0242141
947.942 .0241999
948.571 .0241849
949.199 .0241691
949.827 .0241523
950.455 .0241349
951.082 .0241174
951.709 .0240993
952.335 .0240804
952.961 .0240610
953.587 .0240409
954.212 .0240203
954.837 .0239991
955.462 .0239775
956.086 .0239561
956.710 .0239357
957.334 .0239161
957.957 .0238975
958.579 .0238806
959.202 .0238648
959.824 .0238496
960.445 .0238343
961.067 .0238194
961.688 .0238045
962.308 .0237896
962.928 .0237754
963.548 .0237619
964.168 .0237487
964.787 .0237353
965.406 .0237218
966.024 .0237080
966.642 .0236935
967.260 .0236781
967.877 .0236616
968.494 .0236446
969.110 .0236276
969.727 .0236098
970.342 .0235925
970.958 .0235770
971.573 .0235613
972.188 .0235465
972.802 .0235331
973.416 .0235208
974.030 .0235100
974.643 .0235011
975.256 .0234936
975.869 .0234872
976.481 .0234818
977.093 .0234769
977.705 .0234722
978.316 .0234689
978.927 .0234654
979.538 .0234609
980.148 .0234569
980.758 .0234524
981.367 .0234464
981.977 .0234413
982.586 .0234357
983.194 .0234296
983.802 .0234234
984.410 .0234164
985.018 .0234085
985.625 .0234007
986.232 .0233932
986.838 .0233851
987.445 .0233775
988.050 .0233705
988.656 .0233630
989.261 .0233566
989.866 .0233508
990.471 .0233447
991.075 .0233386
991.679 .0233325
992.282 .0233252
992.886 .0233170
993.489 .0233077
994.091 .0232973
994.694 .0232859
995.296 .0232745
995.897 .0232626
996.499 .0232508
997.100 .0232405
997.701 .0232306
998.301 .0232210
998.901 .0232116
999.501 .0232019
1000.101 .0231918
1000.700 .0231811
1001.299 .0231711
1001.898 .0231618
1002.496 .0231539
1003.094 .0231487
1003.692 .0231449
1004.289 .0231430
1004.887 .0231415
1005.484 .0231394
1006.080 .0231368
1006.677 .0231329
1007.273 .0231267
1007.868 .0231185
1008.464 .0231088
1009.059 .0230979
1009.654 .0230861
1010.249 .0230743
1010.843 .0230632
1011.437 .0230520
1012.031 .0230401
1012.625 .0230274
1013.218 .0230131
1013.811 .0229986
1014.404 .0229832
1014.997 .0229683
1015.589 .0229542
1016.181 .0229414
1016.773 .0229308
1017.365 .0229230
1017.956 .0229178
1018.547 .0229153
1019.138 .0229137
1019.728 .0229122
1020.319 .0229095
1020.909 .0229056
1021.499 .0229006
1022.088 .0228960
1022.678 .0228906
1023.267 .0228855
1023.856 .0228809
1024.445 .0228767
1025.033 .0228723
1025.621 .0228677
1026.209 .0228630
1026.797 .0228584
1027.385 .0228534
1027.972 .0228485
1028.560 .0228439
1029.147 .0228410
1029.734 .0228398
1030.320 .0228400
1030.907 .0228412
1031.493 .0228436
1032.079 .0228467
1032.665 .0228510
1033.250 .0228560
1033.836 .0228617
1034.421 .0228680
1035.006 .0228747
1035.591 .0228818
1036.176 .0228879
1036.761 .0228918
1037.345 .0228945
1037.929 .0228946
1038.514 .0228924
1039.097 .0228883
1039.681 .0228823
1040.265 .0228768
1040.848 .0228725
1041.432 .0228688
1042.015 .0228658
1042.598 .0228641
1043.181 .0228642
1043.764 .0228643
1044.346 .0228659
1044.929 .0228687
1045.511 .0228724
1046.094 .0228781
1046.676 .0228854
1047.258 .0228934
1047.840 .0229032
1048.422 .0229133
1049.003 .0229233
1049.585 .0229330
1050.166 .0229415
1050.748 .0229485
1051.329 .0229547
1051.910 .0229597
1052.491 .0229634
1053.072 .0229649
1053.653 .0229660
1054.234 .0229657
1054.815 .0229642
1055.396 .0229606
1055.976 .0229551
1056.557 .0229478
1057.138 .0229388
1057.718 .0229297
1058.298 .0229216
1058.879 .0229164
1059.459 .0229147
1060.039 .0229163
1060.620 .0229210
1061.200 .0229279
1061.780 .0229367
1062.360 .0229443
1062.940 .0229509
1063.520 .0229546
1064.101 .0229548
1064.681 .0229529
1065.261 .0229476
1065.841 .0229404
1066.421 .0229323
1067.001 .0229246
1067.581 .0229163
1068.161 .0229070
1068.741 .0228979
1069.321 .0228890
1069.901 .0228812
1070.482 .0228733
1071.062 .0228667
1071.642 .0228629
1072.222 .0228629
1072.803 .0228667
1073.383 .0228751
1073.963 .0228870
1074.544 .0229013
1075.124 .0229176
1075.705 .0229332
1076.286 .0229487
1076.866 .0229632
1077.447 .0229752
1078.028 .0229861
1078.609 .0229961
1079.190 .0230049
1079.771 .0230115
1080.352 .0230183
1080.934 .0230218
1081.515 .0230216
1082.097 .0230184
1082.679 .0230100
1083.260 .0229992
1083.842 .0229876
1084.424 .0229769
1085.007 .0229681
1085.589 .0229650
1086.172 .0229655
1086.754 .0229715
1087.337 .0229835
1087.920 .0229986
1088.503 .0230143
1089.087 .0230309
1089.670 .0230479
1090.254 .0230632
1090.838 .0230775
1091.422 .0230902
1092.006 .0231005
1092.590 .0231115
1093.175 .0231197
1093.760 .0231262
1094.345 .0231316
1094.930 .0231366
1095.516 .0231398
1096.102 .0231412
1096.688 .0231389
1097.274 .0231293
1097.860 .0231148
1098.447 .0230944
1099.034 .0230695
1099.622 .0230405
1100.209 .0230139
1100.797 .0229915
1101.385 .0229761
1101.973 .0229685
1102.562 .0229676
1103.151 .0229724
1103.740 .0229835
1104.330 .0229934
1104.920 .0230027
1105.510 .0230092
1106.101 .0230172
1106.691 .0230248
1107.283 .0230362
1107.874 .0230527
1108.466 .0230760
1109.058 .0231046
1109.651 .0231388
1110.244 .0231720
1110.837 .0232023
1111.431 .0232260
1112.025 .0232412
1112.620 .0232454
1113.215 .0232416
1113.810 .0232259
1114.406 .0232071
1115.002 .0231848
1115.599 .0231641
1116.196 .0231430
1116.793 .0231175
1117.391 .0230929
1117.989 .0230655
1118.588 .0230318
1119.187 .0229928
1119.787 .0229473
1120.387 .0228990
1120.988 .0228497
1121.589 .0228027
1122.190 .0227635
1122.793 .0227352
1123.395 .0227213
1123.998 .0227208
1124.602 .0227316
1125.206 .0227532
1125.811 .0227757
1126.416 .0227954
1127.022 .0228178
1127.628 .0228311
1128.235 .0228426
1128.843 .0228537
1129.451 .0228689
1130.059 .0228909
1130.669 .0229182
1131.278 .0229544
1131.889 .0229960
1132.500 .0230387
1133.112 .0230782
1133.724 .0231060
1134.337 .0231315
1134.950 .0231495
1135.564 .0231666
1136.179 .0231914
1136.795 .0232259
1137.411 .0232724
1138.028 .0233334
1138.645 .0234082
1139.263 .0234946
1139.882 .0235803
1140.502 .0236676
1141.122 .0237666
1141.743 .0238724
1142.365 .0239626
1142.987 .0238838
1143.611 .0240909
1144.235 .0246048
1144.859 .0246144
1145.485 .0240710
