Measurement Sequence started on: 10-20-44-796
Integration time: 35
Scans to Average: 2 
>>>>>Begin Spectral Data<<<<<
432.953 .0381509
433.882 .0411498
434.810 .0398161
435.737 .0402140
436.662 .0411077
437.586 .0403203
438.509 .0401489
439.431 .0398142
440.351 .0394686
441.269 .0391000
442.187 .0387438
443.103 .0384238
444.018 .0381865
444.932 .0380049
445.844 .0378465
446.756 .0376984
447.666 .0375427
448.575 .0373939
449.482 .0372508
450.388 .0371287
451.294 .0370286
452.198 .0369463
453.100 .0368803
454.002 .0368275
454.902 .0367759
455.801 .0367200
456.699 .0366635
457.596 .0366025
458.492 .0365326
459.387 .0364534
460.280 .0363709
461.172 .0362825
462.064 .0361900
462.954 .0360899
463.843 .0359721
464.730 .0358476
465.617 .0357176
466.503 .0355839
467.387 .0354499
468.271 .0353205
469.153 .0352031
470.035 .0350985
470.915 .0350097
471.794 .0349303
472.673 .0348681
473.550 .0348233
474.426 .0347910
475.301 .0347673
476.175 .0347549
477.048 .0347558
477.920 .0347688
478.791 .0347948
479.661 .0348318
480.530 .0348740
481.398 .0349212
482.266 .0349718
483.132 .0350199
483.997 .0350577
484.861 .0350848
485.724 .0351005
486.587 .0351073
487.448 .0351000
488.308 .0350833
489.168 .0350597
490.026 .0350331
490.884 .0350005
491.741 .0349570
492.597 .0349060
493.452 .0348480
494.306 .0347808
495.159 .0347074
496.011 .0346315
496.862 .0345565
497.713 .0344835
498.562 .0344196
499.411 .0343603
500.259 .0343009
501.106 .0342406
501.952 .0341773
502.798 .0341050
503.642 .0340236
504.486 .0339353
505.329 .0338469
506.171 .0337638
507.012 .0336893
507.852 .0336227
508.692 .0335653
509.531 .0335132
510.369 .0334533
511.206 .0333851
512.043 .0333097
512.878 .0332180
513.713 .0331176
514.547 .0330117
515.381 .0329035
516.213 .0327968
517.045 .0326889
517.876 .0325841
518.706 .0324699
519.536 .0323470
520.365 .0322088
521.193 .0320516
522.020 .0318799
522.847 .0316978
523.673 .0315101
524.498 .0313271
525.323 .0311458
526.146 .0309758
526.969 .0308164
527.792 .0306711
528.614 .0305332
529.435 .0303985
530.255 .0302647
531.075 .0301386
531.894 .0300108
532.712 .0298938
533.530 .0297884
534.347 .0297071
535.163 .0296488
535.979 .0296135
536.794 .0295932
537.608 .0295759
538.422 .0295712
539.235 .0295717
540.048 .0295586
540.860 .0295382
541.671 .0295124
542.481 .0294854
543.292 .0294570
544.101 .0294300
544.910 .0294107
545.718 .0293973
546.526 .0293904
547.333 .0293698
548.139 .0293441
548.945 .0293184
549.750 .0292929
550.555 .0292672
551.359 .0292518
552.162 .0292399
552.965 .0292414
553.768 .0292528
554.569 .0292712
555.371 .0292875
556.171 .0293087
556.972 .0293330
557.771 .0293600
558.570 .0293822
559.369 .0294087
560.167 .0294345
560.964 .0294670
561.761 .0294932
562.558 .0295158
563.354 .0295400
564.149 .0295638
564.944 .0295904
565.738 .0296259
566.532 .0296727
567.325 .0297313
568.118 .0297942
568.910 .0298639
569.702 .0299341
570.494 .0300082
571.285 .0300845
572.075 .0301680
572.865 .0302599
573.654 .0303556
574.443 .0304519
575.232 .0305522
576.020 .0306514
576.807 .0307425
577.594 .0308244
578.381 .0308942
579.167 .0309503
579.952 .0309955
580.738 .0310367
581.522 .0310764
582.307 .0311156
583.091 .0311585
583.874 .0312003
584.657 .0312411
585.440 .0312786
586.222 .0313086
587.004 .0313325
587.785 .0313506
588.566 .0313624
589.346 .0313670
590.126 .0313713
590.906 .0313773
591.685 .0313856
592.464 .0313963
593.242 .0314078
594.020 .0314176
594.797 .0314259
595.575 .0314329
596.351 .0314359
597.128 .0314363
597.904 .0314335
598.679 .0314285
599.454 .0314210
600.229 .0314111
601.004 .0313997
601.778 .0313874
602.551 .0313729
603.325 .0313555
604.097 .0313354
604.870 .0313130
605.642 .0312901
606.414 .0312679
607.185 .0312453
607.956 .0312243
608.727 .0312044
609.497 .0311862
610.267 .0311686
611.037 .0311526
611.806 .0311370
612.575 .0311221
613.344 .0311090
614.112 .0310960
614.880 .0310826
615.647 .0310711
616.414 .0310604
617.181 .0310499
617.948 .0310388
618.714 .0310269
619.480 .0310135
620.245 .0309987
621.011 .0309817
621.775 .0309624
622.540 .0309423
623.304 .0309217
624.068 .0309009
624.832 .0308804
625.595 .0308613
626.358 .0308438
627.120 .0308277
627.883 .0308123
628.645 .0307977
629.406 .0307829
630.168 .0307675
630.929 .0307525
631.689 .0307373
632.450 .0307222
633.210 .0307084
633.970 .0306955
634.729 .0306832
635.489 .0306706
636.248 .0306579
637.006 .0306435
637.765 .0306280
638.523 .0306103
639.280 .0305889
640.038 .0305661
640.795 .0305420
641.552 .0305164
642.309 .0304903
643.065 .0304638
643.821 .0304380
644.577 .0304132
645.332 .0303891
646.088 .0303657
646.843 .0303435
647.597 .0303227
648.352 .0303021
649.106 .0302815
649.860 .0302612
650.613 .0302404
651.367 .0302192
652.120 .0301984
652.872 .0301779
653.625 .0301593
654.377 .0301421
655.129 .0301263
655.881 .0301121
656.632 .0300976
657.384 .0300826
658.135 .0300665
658.885 .0300495
659.636 .0300314
660.386 .0300118
661.136 .0299926
661.885 .0299742
662.635 .0299575
663.384 .0299415
664.133 .0299259
664.881 .0299100
665.630 .0298928
666.378 .0298729
667.126 .0298506
667.874 .0298262
668.621 .0298003
669.368 .0297739
670.115 .0297476
670.862 .0297226
671.608 .0296995
672.354 .0296780
673.100 .0296583
673.846 .0296392
674.591 .0296199
675.337 .0295995
676.082 .0295791
676.826 .0295581
677.571 .0295366
678.315 .0295153
679.059 .0294946
679.803 .0294752
680.547 .0294572
681.290 .0294408
682.033 .0294253
682.776 .0294104
683.518 .0293947
684.261 .0293779
685.003 .0293599
685.745 .0293403
686.487 .0293191
687.228 .0292967
687.969 .0292733
688.710 .0292492
689.451 .0292255
690.192 .0292027
690.932 .0291811
691.672 .0291605
692.412 .0291398
693.152 .0291189
693.891 .0290974
694.630 .0290753
695.369 .0290528
696.108 .0290299
696.846 .0290068
697.585 .0289845
698.323 .0289640
699.061 .0289456
699.798 .0289293
700.536 .0289154
701.273 .0289037
702.010 .0288935
702.746 .0288844
703.483 .0288761
704.219 .0288686
704.955 .0288628
705.691 .0288573
706.427 .0288522
707.162 .0288473
707.897 .0288426
708.632 .0288377
709.367 .0288317
710.101 .0288243
710.835 .0288150
711.569 .0288036
712.303 .0287906
713.037 .0287759
713.770 .0287600
714.503 .0287436
715.236 .0287270
715.969 .0287103
716.702 .0286943
717.434 .0286790
718.166 .0286647
718.898 .0286512
719.629 .0286383
720.361 .0286258
721.092 .0286135
721.823 .0286018
722.554 .0285898
723.284 .0285778
724.014 .0285648
724.744 .0285508
725.474 .0285355
726.204 .0285186
726.933 .0285013
727.662 .0284831
728.391 .0284646
729.120 .0284463
729.849 .0284281
730.577 .0284111
731.305 .0283946
732.033 .0283789
732.760 .0283625
733.488 .0283452
734.215 .0283271
734.942 .0283077
735.669 .0282876
736.395 .0282674
737.122 .0282476
737.848 .0282281
738.573 .0282093
739.299 .0281900
740.024 .0281707
740.750 .0281512
741.474 .0281306
742.199 .0281089
742.924 .0280861
743.648 .0280626
744.372 .0280395
745.096 .0280170
745.819 .0279958
746.543 .0279748
747.266 .0279554
747.989 .0279364
748.711 .0279186
749.434 .0279021
750.156 .0278869
750.878 .0278728
751.599 .0278600
752.321 .0278478
753.042 .0278360
753.763 .0278239
754.484 .0278116
755.205 .0277986
755.925 .0277853
756.645 .0277711
757.365 .0277564
758.085 .0277417
758.804 .0277275
759.523 .0277127
760.242 .0276974
760.961 .0276816
761.679 .0276650
762.397 .0276476
763.115 .0276291
763.833 .0276094
764.551 .0275885
765.268 .0275656
765.985 .0275412
766.702 .0275140
767.418 .0274853
768.134 .0274550
768.850 .0274234
769.566 .0273920
770.282 .0273609
770.997 .0273312
771.712 .0273026
772.427 .0272753
773.142 .0272487
773.856 .0272223
774.570 .0271961
775.284 .0271701
775.998 .0271443
776.711 .0271193
777.424 .0270959
778.137 .0270741
778.849 .0270546
779.562 .0270367
780.274 .0270203
780.986 .0270048
781.697 .0269898
782.409 .0269754
783.120 .0269613
783.831 .0269481
784.541 .0269353
785.252 .0269228
785.962 .0269107
786.671 .0268981
787.381 .0268853
788.090 .0268715
788.799 .0268568
789.508 .0268406
790.217 .0268230
790.925 .0268043
791.633 .0267853
792.341 .0267664
793.048 .0267476
793.755 .0267290
794.462 .0267107
795.169 .0266928
795.875 .0266756
796.581 .0266589
797.287 .0266435
797.993 .0266294
798.698 .0266171
799.403 .0266059
800.108 .0265962
800.812 .0265878
801.517 .0265805
802.221 .0265738
802.924 .0265673
803.628 .0265609
804.331 .0265547
805.034 .0265486
805.736 .0265423
806.439 .0265359
807.141 .0265289
807.843 .0265212
808.544 .0265129
809.245 .0265033
809.946 .0264927
810.647 .0264815
811.347 .0264704
812.047 .0264602
812.747 .0264513
813.447 .0264442
814.146 .0264388
814.845 .0264352
815.543 .0264323
816.242 .0264290
816.940 .0264253
817.638 .0264206
818.335 .0264148
819.032 .0264084
819.729 .0264015
820.426 .0263949
821.122 .0263891
821.818 .0263836
822.514 .0263778
823.209 .0263713
823.905 .0263636
824.599 .0263541
825.294 .0263427
825.988 .0263298
826.682 .0263158
827.376 .0263019
828.069 .0262878
828.762 .0262737
829.455 .0262601
830.147 .0262463
830.840 .0262327
831.531 .0262194
832.223 .0262061
832.914 .0261931
833.605 .0261810
834.296 .0261697
834.986 .0261596
835.676 .0261506
836.366 .0261428
837.055 .0261357
837.744 .0261297
838.433 .0261239
839.121 .0261185
839.809 .0261139
840.497 .0261095
841.185 .0261049
841.872 .0261007
842.559 .0260958
843.245 .0260905
843.932 .0260846
844.617 .0260781
845.303 .0260708
845.988 .0260633
846.673 .0260551
847.358 .0260468
848.042 .0260382
848.726 .0260291
849.410 .0260191
850.093 .0260090
850.776 .0259982
851.459 .0259869
852.141 .0259756
852.823 .0259646
853.505 .0259537
854.186 .0259439
854.867 .0259347
855.548 .0259262
856.228 .0259183
856.908 .0259105
857.588 .0259022
858.267 .0258935
858.946 .0258832
859.625 .0258722
860.303 .0258604
860.981 .0258479
861.659 .0258346
862.336 .0258205
863.013 .0258065
863.690 .0257926
864.366 .0257790
865.042 .0257656
865.718 .0257517
866.393 .0257379
867.068 .0257236
867.743 .0257089
868.417 .0256936
869.091 .0256786
869.765 .0256640
870.438 .0256505
871.111 .0256378
871.783 .0256265
872.456 .0256168
873.127 .0256085
873.799 .0256009
874.470 .0255929
875.141 .0255841
875.811 .0255739
876.481 .0255621
877.151 .0255490
877.820 .0255344
878.489 .0255187
879.158 .0255023
879.826 .0254855
880.494 .0254684
881.162 .0254505
881.829 .0254321
882.496 .0254128
883.163 .0253922
883.829 .0253697
884.495 .0253458
885.160 .0253213
885.825 .0252972
886.490 .0252739
887.154 .0252526
887.818 .0252333
888.482 .0252167
889.145 .0252020
889.808 .0251889
890.471 .0251767
891.133 .0251653
891.795 .0251537
892.456 .0251419
893.117 .0251298
893.778 .0251178
894.439 .0251060
895.099 .0250949
895.758 .0250845
896.417 .0250743
897.076 .0250639
897.735 .0250526
898.393 .0250398
899.051 .0250256
899.708 .0250093
900.365 .0249910
901.022 .0249713
901.678 .0249505
902.334 .0249290
902.990 .0249078
903.645 .0248877
904.300 .0248679
904.954 .0248484
905.608 .0248289
906.262 .0248090
906.915 .0247885
907.568 .0247671
908.221 .0247450
908.873 .0247230
909.525 .0247013
910.176 .0246802
910.828 .0246597
911.478 .0246408
912.129 .0246229
912.778 .0246055
913.428 .0245890
914.077 .0245728
914.726 .0245565
915.375 .0245405
916.023 .0245253
916.670 .0245111
917.318 .0244978
917.964 .0244854
918.611 .0244735
919.257 .0244617
919.903 .0244501
920.548 .0244380
921.193 .0244257
921.838 .0244132
922.482 .0244000
923.126 .0243868
923.770 .0243737
924.413 .0243601
925.056 .0243468
925.698 .0243341
926.340 .0243219
926.982 .0243098
927.623 .0242981
928.264 .0242873
928.904 .0242770
929.544 .0242677
930.184 .0242587
930.823 .0242497
931.462 .0242410
932.101 .0242315
932.739 .0242208
933.377 .0242092
934.014 .0241967
934.651 .0241837
935.288 .0241707
935.924 .0241575
936.560 .0241441
937.196 .0241310
937.831 .0241182
938.466 .0241050
939.100 .0240913
939.734 .0240771
940.368 .0240621
941.001 .0240469
941.634 .0240319
942.266 .0240170
942.899 .0240028
943.530 .0239892
944.162 .0239750
944.793 .0239604
945.423 .0239450
946.053 .0239286
946.683 .0239110
947.313 .0238925
947.942 .0238731
948.571 .0238530
949.199 .0238329
949.827 .0238128
950.455 .0237930
951.082 .0237741
951.709 .0237555
952.335 .0237373
952.961 .0237192
953.587 .0237019
954.212 .0236853
954.837 .0236701
955.462 .0236563
956.086 .0236441
956.710 .0236339
957.334 .0236255
957.957 .0236180
958.579 .0236110
959.202 .0236043
959.824 .0235970
960.445 .0235893
961.067 .0235808
961.688 .0235721
962.308 .0235634
962.928 .0235546
963.548 .0235457
964.168 .0235373
964.787 .0235290
965.406 .0235214
966.024 .0235139
966.642 .0235067
967.260 .0234989
967.877 .0234911
968.494 .0234831
969.110 .0234752
969.727 .0234667
970.342 .0234584
970.958 .0234502
971.573 .0234434
972.188 .0234372
972.802 .0234328
973.416 .0234299
974.030 .0234285
974.643 .0234278
975.256 .0234283
975.869 .0234294
976.481 .0234316
977.093 .0234339
977.705 .0234367
978.316 .0234394
978.927 .0234427
979.538 .0234456
980.148 .0234488
980.758 .0234518
981.367 .0234543
981.977 .0234558
982.586 .0234572
983.194 .0234583
983.802 .0234595
984.410 .0234608
985.018 .0234630
985.625 .0234652
986.232 .0234680
986.838 .0234706
987.445 .0234732
988.050 .0234756
988.656 .0234771
989.261 .0234775
989.866 .0234773
990.471 .0234771
991.075 .0234764
991.679 .0234756
992.282 .0234753
992.886 .0234743
993.489 .0234729
994.091 .0234713
994.694 .0234703
995.296 .0234697
995.897 .0234697
996.499 .0234707
997.100 .0234725
997.701 .0234757
998.301 .0234794
998.901 .0234842
999.501 .0234903
1000.101 .0234984
1000.700 .0235076
1001.299 .0235182
1001.898 .0235306
1002.496 .0235438
1003.094 .0235579
1003.692 .0235724
1004.289 .0235868
1004.887 .0236004
1005.484 .0236123
1006.080 .0236235
1006.677 .0236327
1007.273 .0236415
1007.868 .0236496
1008.464 .0236576
1009.059 .0236661
1009.654 .0236750
1010.249 .0236834
1010.843 .0236924
1011.437 .0237016
1012.031 .0237109
1012.625 .0237197
1013.218 .0237286
1013.811 .0237369
1014.404 .0237450
1014.997 .0237533
1015.589 .0237610
1016.181 .0237675
1016.773 .0237731
1017.365 .0237768
1017.956 .0237790
1018.547 .0237804
1019.138 .0237810
1019.728 .0237816
1020.319 .0237819
1020.909 .0237814
1021.499 .0237806
1022.088 .0237790
1022.678 .0237766
1023.267 .0237740
1023.856 .0237717
1024.445 .0237690
1025.033 .0237669
1025.621 .0237657
1026.209 .0237651
1026.797 .0237656
1027.385 .0237665
1027.972 .0237669
1028.560 .0237676
1029.147 .0237684
1029.734 .0237698
1030.320 .0237722
1030.907 .0237763
1031.493 .0237812
1032.079 .0237866
1032.665 .0237924
1033.250 .0237967
1033.836 .0237994
1034.421 .0238005
1035.006 .0237986
1035.591 .0237948
1036.176 .0237901
1036.761 .0237848
1037.345 .0237804
1037.929 .0237766
1038.514 .0237728
1039.097 .0237688
1039.681 .0237643
1040.265 .0237588
1040.848 .0237515
1041.432 .0237438
1042.015 .0237350
1042.598 .0237253
1043.181 .0237164
1043.764 .0237081
1044.346 .0237026
1044.929 .0237003
1045.511 .0236999
1046.094 .0237018
1046.676 .0237057
1047.258 .0237106
1047.840 .0237159
1048.422 .0237215
1049.003 .0237266
1049.585 .0237310
1050.166 .0237353
1050.748 .0237388
1051.329 .0237434
1051.910 .0237499
1052.491 .0237571
1053.072 .0237654
1053.653 .0237743
1054.234 .0237811
1054.815 .0237857
1055.396 .0237890
1055.976 .0237883
1056.557 .0237831
1057.138 .0237750
1057.718 .0237637
1058.298 .0237506
1058.879 .0237372
1059.459 .0237234
1060.039 .0237097
1060.620 .0236970
1061.200 .0236832
1061.780 .0236677
1062.360 .0236523
1062.940 .0236348
1063.520 .0236137
1064.101 .0235901
1064.681 .0235640
1065.261 .0235347
1065.841 .0235030
1066.421 .0234710
1067.001 .0234383
1067.581 .0234063
1068.161 .0233756
1068.741 .0233466
1069.321 .0233196
1069.901 .0232963
1070.482 .0232755
1071.062 .0232567
1071.642 .0232402
1072.222 .0232256
1072.803 .0232120
1073.383 .0232000
1073.963 .0231891
1074.544 .0231781
1075.124 .0231689
1075.705 .0231608
1076.286 .0231518
1076.866 .0231445
1077.447 .0231373
1078.028 .0231307
1078.609 .0231237
1079.190 .0231169
1079.771 .0231095
1080.352 .0231016
1080.934 .0230928
1081.515 .0230834
1082.097 .0230746
1082.679 .0230675
1083.260 .0230610
1083.842 .0230560
1084.424 .0230526
1085.007 .0230496
1085.589 .0230492
1086.172 .0230513
1086.754 .0230557
1087.337 .0230632
1087.920 .0230703
1088.503 .0230770
1089.087 .0230819
1089.670 .0230829
1090.254 .0230802
1090.838 .0230722
1091.422 .0230625
1092.006 .0230497
1092.590 .0230385
1093.175 .0230305
1093.760 .0230276
1094.345 .0230320
1094.930 .0230393
1095.516 .0230466
1096.102 .0230535
1096.688 .0230551
1097.274 .0230514
1097.860 .0230420
1098.447 .0230297
1099.034 .0230136
1099.622 .0229961
1100.209 .0229782
1100.797 .0229604
1101.385 .0229441
1101.973 .0229289
1102.562 .0229101
1103.151 .0228916
1103.740 .0228705
1104.330 .0228490
1104.920 .0228285
1105.510 .0228136
1106.101 .0228041
1106.691 .0227974
1107.283 .0227954
1107.874 .0227964
1108.466 .0227974
1109.058 .0228005
1109.651 .0228034
1110.244 .0228099
1110.837 .0228185
1111.431 .0228292
1112.025 .0228405
1112.620 .0228541
1113.215 .0228689
1113.810 .0228822
1114.406 .0228913
1115.002 .0228988
1115.599 .0229017
1116.196 .0229009
1116.793 .0228996
1117.391 .0228948
1117.989 .0228886
1118.588 .0228820
1119.187 .0228720
1119.787 .0228601
1120.387 .0228422
1120.988 .0228241
1121.589 .0228012
1122.190 .0227778
1122.793 .0227530
1123.395 .0227254
1123.998 .0227028
1124.602 .0226840
1125.206 .0226698
1125.811 .0226639
1126.416 .0226675
1127.022 .0226830
1127.628 .0227087
1128.235 .0227446
1128.843 .0227850
1129.451 .0228299
1130.059 .0228744
1130.669 .0229190
1131.278 .0229596
1131.889 .0229985
1132.500 .0230342
1133.112 .0230727
1133.724 .0231207
1134.337 .0231766
1134.950 .0232376
1135.564 .0233067
1136.179 .0233738
1136.795 .0234351
1137.411 .0234877
1138.028 .0235327
1138.645 .0235749
1139.263 .0236229
1139.882 .0236737
1140.502 .0237444
1141.122 .0238171
1141.743 .0238996
1142.365 .0239947
1142.987 .0240940
1143.611 .0245265
1144.235 .0240564
1144.859 .0241072
1145.485 .0245746
