Measurement Sequence started on: 10-20-44-796
Integration time: 35
Scans to Average: 2 
>>>>>Begin Spectral Data<<<<<
432.953 .0573609
433.882 .0468821
434.810 .0490898
435.737 .0455612
436.662 .0455118
437.586 .0458932
438.509 .0451072
439.431 .0447064
440.351 .0442682
441.269 .0439420
442.187 .0436184
443.103 .0432964
444.018 .0430057
444.932 .0427154
445.844 .0424514
446.756 .0422094
447.666 .0420009
448.575 .0418144
449.482 .0416579
450.388 .0415506
451.294 .0414720
452.198 .0414101
453.100 .0413682
454.002 .0413279
454.902 .0412801
455.801 .0412157
456.699 .0411379
457.596 .0410536
458.492 .0409651
459.387 .0408765
460.280 .0407941
461.172 .0407208
462.064 .0406619
462.954 .0406090
463.843 .0405635
464.730 .0405255
465.617 .0404829
466.503 .0404342
467.387 .0403811
468.271 .0403251
469.153 .0402743
470.035 .0402225
470.915 .0401834
471.794 .0401571
472.673 .0401427
473.550 .0401421
474.426 .0401521
475.301 .0401633
476.175 .0401715
477.048 .0401684
477.920 .0401524
478.791 .0401200
479.661 .0400704
480.530 .0400107
481.398 .0399424
482.266 .0398727
483.132 .0398065
483.997 .0397422
484.861 .0396884
485.724 .0396382
486.587 .0395928
487.448 .0395526
488.308 .0395120
489.168 .0394716
490.026 .0394284
490.884 .0393849
491.741 .0393399
492.597 .0392923
493.452 .0392480
494.306 .0392074
495.159 .0391639
496.011 .0391248
496.862 .0390828
497.713 .0390345
498.562 .0389734
499.411 .0388972
500.259 .0388054
501.106 .0386942
501.952 .0385600
502.798 .0384113
503.642 .0382511
504.486 .0380897
505.329 .0379272
506.171 .0377695
507.012 .0376211
507.852 .0374782
508.692 .0373374
509.531 .0372012
510.369 .0370650
511.206 .0369274
512.043 .0367835
512.878 .0366434
513.713 .0365081
514.547 .0363759
515.381 .0362556
516.213 .0361457
517.045 .0360402
517.876 .0359363
518.706 .0358296
519.536 .0357189
520.365 .0356071
521.193 .0354843
522.020 .0353454
522.847 .0351985
523.673 .0350453
524.498 .0348805
525.323 .0347166
526.146 .0345624
526.969 .0344092
527.792 .0342597
528.614 .0341235
529.435 .0339891
530.255 .0338586
531.075 .0337212
531.894 .0335774
532.712 .0334242
533.530 .0332573
534.347 .0330755
535.163 .0328925
535.979 .0327250
536.794 .0325692
537.608 .0324260
538.422 .0323061
539.235 .0322121
540.048 .0321381
540.860 .0320804
541.671 .0320431
542.481 .0320223
543.292 .0320125
544.101 .0320125
544.910 .0320334
545.718 .0320742
546.526 .0321289
547.333 .0322003
548.139 .0322770
548.945 .0323564
549.750 .0324257
550.555 .0324841
551.359 .0325342
552.162 .0325710
552.965 .0325980
553.768 .0326141
554.569 .0326350
555.371 .0326586
556.171 .0326783
556.972 .0327005
557.771 .0327231
558.570 .0327426
559.369 .0327537
560.167 .0327605
560.964 .0327638
561.761 .0327669
562.558 .0327759
563.354 .0327951
564.149 .0328252
564.944 .0328711
565.738 .0329303
566.532 .0329967
567.325 .0330702
568.118 .0331448
568.910 .0332122
569.702 .0332728
570.494 .0333298
571.285 .0333843
572.075 .0334376
572.865 .0334984
573.654 .0335659
574.443 .0336384
575.232 .0337195
576.020 .0338032
576.807 .0338892
577.594 .0339765
578.381 .0340600
579.167 .0341365
579.952 .0342065
580.738 .0342733
581.522 .0343338
582.307 .0343899
583.091 .0344447
583.874 .0344944
584.657 .0345389
585.440 .0345796
586.222 .0346140
587.004 .0346413
587.785 .0346612
588.566 .0346740
589.346 .0346790
590.126 .0346780
590.906 .0346696
591.685 .0346549
592.464 .0346357
593.242 .0346125
594.020 .0345844
594.797 .0345538
595.575 .0345217
596.351 .0344896
597.128 .0344581
597.904 .0344271
598.679 .0343964
599.454 .0343660
600.229 .0343358
601.004 .0343056
601.778 .0342725
602.551 .0342378
603.325 .0342020
604.097 .0341676
604.870 .0341330
605.642 .0341000
606.414 .0340688
607.185 .0340395
607.956 .0340110
608.727 .0339831
609.497 .0339545
610.267 .0339259
611.037 .0338962
611.806 .0338651
612.575 .0338321
613.344 .0337983
614.112 .0337630
614.880 .0337282
615.647 .0336934
616.414 .0336579
617.181 .0336208
617.948 .0335843
618.714 .0335479
619.480 .0335122
620.245 .0334782
621.011 .0334458
621.775 .0334147
622.540 .0333857
623.304 .0333574
624.068 .0333303
624.832 .0333042
625.595 .0332785
626.358 .0332509
627.120 .0332218
627.883 .0331903
628.645 .0331565
629.406 .0331217
630.168 .0330848
630.929 .0330459
631.689 .0330064
632.450 .0329664
633.210 .0329255
633.970 .0328854
634.729 .0328464
635.489 .0328073
636.248 .0327692
637.006 .0327316
637.765 .0326947
638.523 .0326607
639.280 .0326296
640.038 .0326018
640.795 .0325781
641.552 .0325585
642.309 .0325420
643.065 .0325303
643.821 .0325221
644.577 .0325150
645.332 .0325087
646.088 .0325019
646.843 .0324928
647.597 .0324817
648.352 .0324691
649.106 .0324552
649.860 .0324411
650.613 .0324262
651.367 .0324104
652.120 .0323957
652.872 .0323812
653.625 .0323666
654.377 .0323522
655.129 .0323371
655.881 .0323210
656.632 .0323042
657.384 .0322870
658.135 .0322690
658.885 .0322516
659.636 .0322343
660.386 .0322170
661.136 .0322002
661.885 .0321823
662.635 .0321640
663.384 .0321463
664.133 .0321273
664.881 .0321076
665.630 .0320875
666.378 .0320679
667.126 .0320485
667.874 .0320300
668.621 .0320120
669.368 .0319943
670.115 .0319761
670.862 .0319569
671.608 .0319367
672.354 .0319163
673.100 .0318957
673.846 .0318756
674.591 .0318577
675.337 .0318417
676.082 .0318272
676.826 .0318138
677.571 .0318014
678.315 .0317887
679.059 .0317751
679.803 .0317593
680.547 .0317418
681.290 .0317225
682.033 .0317018
682.776 .0316799
683.518 .0316576
684.261 .0316343
685.003 .0316099
685.745 .0315835
686.487 .0315559
687.228 .0315257
687.969 .0314931
688.710 .0314586
689.451 .0314224
690.192 .0313847
690.932 .0313459
691.672 .0313065
692.412 .0312677
693.152 .0312293
693.891 .0311913
694.630 .0311535
695.369 .0311174
696.108 .0310822
696.846 .0310482
697.585 .0310149
698.323 .0309829
699.061 .0309507
699.798 .0309190
700.536 .0308874
701.273 .0308560
702.010 .0308252
702.746 .0307947
703.483 .0307644
704.219 .0307351
704.955 .0307054
705.691 .0306763
706.427 .0306471
707.162 .0306180
707.897 .0305878
708.632 .0305569
709.367 .0305250
710.101 .0304928
710.835 .0304604
711.569 .0304280
712.303 .0303954
713.037 .0303634
713.770 .0303318
714.503 .0303013
715.236 .0302723
715.969 .0302449
716.702 .0302182
717.434 .0301931
718.166 .0301677
718.898 .0301426
719.629 .0301176
720.361 .0300924
721.092 .0300677
721.823 .0300434
722.554 .0300198
723.284 .0299970
724.014 .0299753
724.744 .0299548
725.474 .0299339
726.204 .0299139
726.933 .0298927
727.662 .0298705
728.391 .0298471
729.120 .0298226
729.849 .0297971
730.577 .0297719
731.305 .0297476
732.033 .0297241
732.760 .0297018
733.488 .0296815
734.215 .0296626
734.942 .0296454
735.669 .0296298
736.395 .0296157
737.122 .0296031
737.848 .0295927
738.573 .0295834
739.299 .0295755
740.024 .0295695
740.750 .0295656
741.474 .0295632
742.199 .0295621
742.924 .0295621
743.648 .0295622
744.372 .0295620
745.096 .0295617
745.819 .0295604
746.543 .0295581
747.266 .0295543
747.989 .0295485
748.711 .0295412
749.434 .0295331
750.156 .0295247
750.878 .0295162
751.599 .0295095
752.321 .0295039
753.042 .0294992
753.763 .0294967
754.484 .0294956
755.205 .0294956
755.925 .0294968
756.645 .0294982
757.365 .0294999
758.085 .0295017
758.804 .0295034
759.523 .0295046
760.242 .0295064
760.961 .0295072
761.679 .0295066
762.397 .0295038
763.115 .0294993
763.833 .0294922
764.551 .0294831
765.268 .0294725
765.985 .0294608
766.702 .0294497
767.418 .0294384
768.134 .0294271
768.850 .0294166
769.566 .0294063
770.282 .0293960
770.997 .0293858
771.712 .0293754
772.427 .0293642
773.142 .0293534
773.856 .0293429
774.570 .0293325
775.284 .0293225
775.998 .0293124
776.711 .0293022
777.424 .0292908
778.137 .0292782
778.849 .0292633
779.562 .0292480
780.274 .0292323
780.986 .0292162
781.697 .0292010
782.409 .0291871
783.120 .0291747
783.831 .0291647
784.541 .0291570
785.252 .0291515
785.962 .0291478
786.671 .0291452
787.381 .0291431
788.090 .0291414
788.799 .0291385
789.508 .0291346
790.217 .0291292
790.925 .0291228
791.633 .0291143
792.341 .0291045
793.048 .0290940
793.755 .0290824
794.462 .0290698
795.169 .0290561
795.875 .0290408
796.581 .0290239
797.287 .0290054
797.993 .0289852
798.698 .0289643
799.403 .0289430
800.108 .0289216
800.812 .0289011
801.517 .0288819
802.221 .0288640
802.924 .0288462
803.628 .0288295
804.331 .0288137
805.034 .0287981
805.736 .0287826
806.439 .0287671
807.141 .0287515
807.843 .0287358
808.544 .0287202
809.245 .0287041
809.946 .0286881
810.647 .0286717
811.347 .0286542
812.047 .0286357
812.747 .0286162
813.447 .0285960
814.146 .0285749
814.845 .0285541
815.543 .0285329
816.242 .0285118
816.940 .0284912
817.638 .0284708
818.335 .0284504
819.032 .0284294
819.729 .0284080
820.426 .0283853
821.122 .0283612
821.818 .0283354
822.514 .0283082
823.209 .0282803
823.905 .0282520
824.599 .0282233
825.294 .0281944
825.988 .0281655
826.682 .0281365
827.376 .0281072
828.069 .0280776
828.762 .0280470
829.455 .0280158
830.147 .0279846
830.840 .0279540
831.531 .0279244
832.223 .0278970
832.914 .0278723
833.605 .0278504
834.296 .0278311
834.986 .0278140
835.676 .0277984
836.366 .0277839
837.055 .0277702
837.744 .0277564
838.433 .0277427
839.121 .0277294
839.809 .0277165
840.497 .0277048
841.185 .0276936
841.872 .0276829
842.559 .0276727
843.245 .0276633
843.932 .0276535
844.617 .0276428
845.303 .0276311
845.988 .0276181
846.673 .0276045
847.358 .0275905
848.042 .0275763
848.726 .0275623
849.410 .0275494
850.093 .0275368
850.776 .0275248
851.459 .0275130
852.141 .0275008
852.823 .0274880
853.505 .0274751
854.186 .0274615
854.867 .0274473
855.548 .0274330
856.228 .0274192
856.908 .0274056
857.588 .0273930
858.267 .0273804
858.946 .0273688
859.625 .0273583
860.303 .0273485
860.981 .0273390
861.659 .0273302
862.336 .0273223
863.013 .0273144
863.690 .0273066
864.366 .0272986
865.042 .0272903
865.718 .0272822
866.393 .0272738
867.068 .0272649
867.743 .0272554
868.417 .0272448
869.091 .0272332
869.765 .0272208
870.438 .0272076
871.111 .0271930
871.783 .0271785
872.456 .0271636
873.127 .0271491
873.799 .0271351
874.470 .0271222
875.141 .0271100
875.811 .0270987
876.481 .0270879
877.151 .0270771
877.820 .0270666
878.489 .0270568
879.158 .0270470
879.826 .0270384
880.494 .0270307
881.162 .0270241
881.829 .0270186
882.496 .0270143
883.163 .0270106
883.829 .0270069
884.495 .0270028
885.160 .0269986
885.825 .0269942
886.490 .0269905
887.154 .0269878
887.818 .0269863
888.482 .0269864
889.145 .0269886
889.808 .0269922
890.471 .0269974
891.133 .0270038
891.795 .0270110
892.456 .0270180
893.117 .0270242
893.778 .0270296
894.439 .0270339
895.099 .0270374
895.758 .0270402
896.417 .0270423
897.076 .0270441
897.735 .0270457
898.393 .0270470
899.051 .0270480
899.708 .0270485
900.365 .0270473
901.022 .0270452
901.678 .0270422
902.334 .0270381
902.990 .0270333
903.645 .0270290
904.300 .0270254
904.954 .0270226
905.608 .0270203
906.262 .0270191
906.915 .0270189
907.568 .0270192
908.221 .0270189
908.873 .0270181
909.525 .0270174
910.176 .0270158
910.828 .0270134
911.478 .0270107
912.129 .0270077
912.778 .0270046
913.428 .0270019
914.077 .0269993
914.726 .0269973
915.375 .0269959
916.023 .0269952
916.670 .0269960
917.318 .0269981
917.964 .0270010
918.611 .0270049
919.257 .0270095
919.903 .0270142
920.548 .0270179
921.193 .0270221
921.838 .0270262
922.482 .0270298
923.126 .0270338
923.770 .0270377
924.413 .0270416
925.056 .0270456
925.698 .0270489
926.340 .0270512
926.982 .0270521
927.623 .0270507
928.264 .0270462
928.904 .0270388
929.544 .0270277
930.184 .0270134
930.823 .0269967
931.462 .0269784
932.101 .0269585
932.739 .0269387
933.377 .0269198
934.014 .0269018
934.651 .0268848
935.288 .0268687
935.924 .0268537
936.560 .0268395
937.196 .0268255
937.831 .0268117
938.466 .0267983
939.100 .0267860
939.734 .0267744
940.368 .0267647
941.001 .0267566
941.634 .0267507
942.266 .0267462
942.899 .0267423
943.530 .0267380
944.162 .0267322
944.793 .0267241
945.423 .0267133
946.053 .0266994
946.683 .0266829
947.313 .0266647
947.942 .0266460
948.571 .0266269
949.199 .0266085
949.827 .0265903
950.455 .0265721
951.082 .0265534
951.709 .0265342
952.335 .0265136
952.961 .0264926
953.587 .0264717
954.212 .0264515
954.837 .0264327
955.462 .0264153
956.086 .0263998
956.710 .0263866
957.334 .0263747
957.957 .0263631
958.579 .0263512
959.202 .0263387
959.824 .0263247
960.445 .0263099
961.067 .0262945
961.688 .0262795
962.308 .0262655
962.928 .0262523
963.548 .0262398
964.168 .0262282
964.787 .0262171
965.406 .0262056
966.024 .0261937
966.642 .0261804
967.260 .0261656
967.877 .0261498
968.494 .0261328
969.110 .0261144
969.727 .0260954
970.342 .0260757
970.958 .0260560
971.573 .0260366
972.188 .0260180
972.802 .0260001
973.416 .0259845
974.030 .0259703
974.643 .0259572
975.256 .0259459
975.869 .0259361
976.481 .0259269
977.093 .0259188
977.705 .0259115
978.316 .0259052
978.927 .0259000
979.538 .0258976
980.148 .0258965
980.758 .0258977
981.367 .0258997
981.977 .0259018
982.586 .0259035
983.194 .0259044
983.802 .0259030
984.410 .0258987
985.018 .0258918
985.625 .0258819
986.232 .0258685
986.838 .0258538
987.445 .0258374
988.050 .0258201
988.656 .0258018
989.261 .0257830
989.866 .0257622
990.471 .0257408
991.075 .0257177
991.679 .0256943
992.282 .0256704
992.886 .0256462
993.489 .0256225
994.091 .0256001
994.694 .0255797
995.296 .0255614
995.897 .0255437
996.499 .0255275
997.100 .0255110
997.701 .0254948
998.301 .0254783
998.901 .0254629
999.501 .0254494
1000.101 .0254377
1000.700 .0254288
1001.299 .0254229
1001.898 .0254187
1002.496 .0254161
1003.094 .0254136
1003.692 .0254093
1004.289 .0254023
1004.887 .0253930
1005.484 .0253808
1006.080 .0253675
1006.677 .0253540
1007.273 .0253404
1007.868 .0253277
1008.464 .0253165
1009.059 .0253049
1009.654 .0252926
1010.249 .0252800
1010.843 .0252656
1011.437 .0252490
1012.031 .0252315
1012.625 .0252138
1013.218 .0251972
1013.811 .0251825
1014.404 .0251692
1014.997 .0251576
1015.589 .0251487
1016.181 .0251413
1016.773 .0251356
1017.365 .0251317
1017.956 .0251286
1018.547 .0251253
1019.138 .0251226
1019.728 .0251200
1020.319 .0251172
1020.909 .0251149
1021.499 .0251134
1022.088 .0251112
1022.678 .0251090
1023.267 .0251059
1023.856 .0251021
1024.445 .0250982
1025.033 .0250937
1025.621 .0250873
1026.209 .0250802
1026.797 .0250723
1027.385 .0250644
1027.972 .0250564
1028.560 .0250502
1029.147 .0250443
1029.734 .0250394
1030.320 .0250343
1030.907 .0250283
1031.493 .0250206
1032.079 .0250114
1032.665 .0250009
1033.250 .0249897
1033.836 .0249773
1034.421 .0249652
1035.006 .0249536
1035.591 .0249434
1036.176 .0249345
1036.761 .0249256
1037.345 .0249152
1037.929 .0249041
1038.514 .0248910
1039.097 .0248763
1039.681 .0248604
1040.265 .0248452
1040.848 .0248312
1041.432 .0248197
1042.015 .0248111
1042.598 .0248038
1043.181 .0247988
1043.764 .0247950
1044.346 .0247909
1044.929 .0247856
1045.511 .0247795
1046.094 .0247715
1046.676 .0247629
1047.258 .0247553
1047.840 .0247494
1048.422 .0247451
1049.003 .0247427
1049.585 .0247415
1050.166 .0247405
1050.748 .0247385
1051.329 .0247342
1051.910 .0247277
1052.491 .0247193
1053.072 .0247091
1053.653 .0246990
1054.234 .0246901
1054.815 .0246836
1055.396 .0246787
1055.976 .0246767
1056.557 .0246765
1057.138 .0246783
1057.718 .0246797
1058.298 .0246806
1058.879 .0246806
1059.459 .0246797
1060.039 .0246762
1060.620 .0246709
1061.200 .0246643
1061.780 .0246569
1062.360 .0246479
1062.940 .0246390
1063.520 .0246283
1064.101 .0246179
1064.681 .0246057
1065.261 .0245915
1065.841 .0245742
1066.421 .0245564
1067.001 .0245362
1067.581 .0245169
1068.161 .0244994
1068.741 .0244877
1069.321 .0244802
1069.901 .0244799
1070.482 .0244846
1071.062 .0244949
1071.642 .0245081
1072.222 .0245233
1072.803 .0245371
1073.383 .0245508
1073.963 .0245614
1074.544 .0245710
1075.124 .0245784
1075.705 .0245864
1076.286 .0245930
1076.866 .0245998
1077.447 .0246046
1078.028 .0246082
1078.609 .0246087
1079.190 .0246085
1079.771 .0246056
1080.352 .0246017
1080.934 .0245954
1081.515 .0245893
1082.097 .0245816
1082.679 .0245738
1083.260 .0245630
1083.842 .0245511
1084.424 .0245366
1085.007 .0245205
1085.589 .0245019
1086.172 .0244824
1086.754 .0244614
1087.337 .0244405
1087.920 .0244199
1088.503 .0244003
1089.087 .0243800
1089.670 .0243609
1090.254 .0243425
1090.838 .0243244
1091.422 .0243073
1092.006 .0242929
1092.590 .0242812
1093.175 .0242763
1093.760 .0242766
1094.345 .0242824
1094.930 .0242955
1095.516 .0243151
1096.102 .0243379
1096.688 .0243647
1097.274 .0243940
1097.860 .0244198
1098.447 .0244426
1099.034 .0244624
1099.622 .0244773
1100.209 .0244900
1100.797 .0245041
1101.385 .0245185
1101.973 .0245365
1102.562 .0245599
1103.151 .0245849
1103.740 .0246112
1104.330 .0246399
1104.920 .0246653
1105.510 .0246861
1106.101 .0247029
1106.691 .0247165
1107.283 .0247268
1107.874 .0247400
1108.466 .0247517
1109.058 .0247667
1109.651 .0247844
1110.244 .0248048
1110.837 .0248243
1111.431 .0248473
1112.025 .0248725
1112.620 .0248976
1113.215 .0249248
1113.810 .0249561
1114.406 .0249890
1115.002 .0250260
1115.599 .0250650
1116.196 .0251076
1116.793 .0251496
1117.391 .0251960
1117.989 .0252399
1118.588 .0252888
1119.187 .0253385
1119.787 .0253886
1120.387 .0254384
1120.988 .0254859
1121.589 .0255269
1122.190 .0255577
1122.793 .0255787
1123.395 .0255897
1123.998 .0255893
1124.602 .0255861
1125.206 .0255802
1125.811 .0255784
1126.416 .0255804
1127.022 .0255881
1127.628 .0255997
1128.235 .0256138
1128.843 .0256243
1129.451 .0256305
1130.059 .0256322
1130.669 .0256284
1131.278 .0256250
1131.889 .0256253
1132.500 .0256314
1133.112 .0256442
1133.724 .0256679
1134.337 .0257009
1134.950 .0257376
1135.564 .0257779
1136.179 .0258169
1136.795 .0258589
1137.411 .0259086
1138.028 .0259573
1138.645 .0260158
1139.263 .0260916
1139.882 .0261755
1140.502 .0262668
1141.122 .0263740
1141.743 .0265144
1142.365 .0267316
1142.987 .0266139
1143.611 .0267644
1144.235 .0270956
1144.859 .0278627
1145.485 .0295171
