Measurement Sequence started on: 10-20-44-796
Integration time: 35
Scans to Average: 2 
>>>>>Begin Spectral Data<<<<<
432.953 .0326005
433.882 .0423701
434.810 .0385455
435.737 .0411705
436.662 .0403991
437.586 .0399036
438.509 .0400631
439.431 .0398978
440.351 .0398396
441.269 .0397211
442.187 .0396497
443.103 .0396173
444.018 .0395937
444.932 .0395806
445.844 .0395885
446.756 .0395914
447.666 .0396063
448.575 .0396079
449.482 .0396089
450.388 .0396130
451.294 .0396348
452.198 .0396673
453.100 .0397062
454.002 .0397463
454.902 .0397742
455.801 .0397880
456.699 .0397904
457.596 .0397785
458.492 .0397581
459.387 .0397351
460.280 .0397036
461.172 .0396611
462.064 .0396224
462.954 .0395736
463.843 .0395212
464.730 .0394589
465.617 .0393920
466.503 .0393169
467.387 .0392396
468.271 .0391624
469.153 .0390955
470.035 .0390401
470.915 .0389982
471.794 .0389646
472.673 .0389395
473.550 .0389175
474.426 .0388972
475.301 .0388755
476.175 .0388541
477.048 .0388281
477.920 .0388021
478.791 .0387760
479.661 .0387555
480.530 .0387394
481.398 .0387265
482.266 .0387199
483.132 .0387166
483.997 .0387120
484.861 .0387031
485.724 .0386927
486.587 .0386755
487.448 .0386515
488.308 .0386198
489.168 .0385810
490.026 .0385360
490.884 .0384875
491.741 .0384322
492.597 .0383731
493.452 .0383086
494.306 .0382401
495.159 .0381641
496.011 .0380848
496.862 .0380012
497.713 .0379127
498.562 .0378159
499.411 .0377157
500.259 .0376058
501.106 .0374910
501.952 .0373691
502.798 .0372436
503.642 .0371164
504.486 .0369877
505.329 .0368623
506.171 .0367384
507.012 .0366195
507.852 .0365073
508.692 .0363959
509.531 .0362864
510.369 .0361764
511.206 .0360612
512.043 .0359400
512.878 .0358114
513.713 .0356749
514.547 .0355300
515.381 .0353829
516.213 .0352347
517.045 .0350871
517.876 .0349409
518.706 .0348042
519.536 .0346669
520.365 .0345349
521.193 .0344017
522.020 .0342679
522.847 .0341316
523.673 .0339893
524.498 .0338369
525.323 .0336761
526.146 .0335118
526.969 .0333449
527.792 .0331765
528.614 .0330117
529.435 .0328510
530.255 .0326975
531.075 .0325536
531.894 .0324254
532.712 .0323133
533.530 .0322174
534.347 .0321383
535.163 .0320727
535.979 .0320163
536.794 .0319655
537.608 .0319296
538.422 .0319013
539.235 .0318808
540.048 .0318655
540.860 .0318608
541.671 .0318653
542.481 .0318808
543.292 .0318949
544.101 .0319085
544.910 .0319218
545.718 .0319234
546.526 .0319092
547.333 .0318843
548.139 .0318512
548.945 .0318122
549.750 .0317681
550.555 .0317242
551.359 .0316788
552.162 .0316422
552.965 .0316154
553.768 .0315988
554.569 .0315960
555.371 .0316039
556.171 .0316199
556.972 .0316451
557.771 .0316754
558.570 .0317029
559.369 .0317344
560.167 .0317711
560.964 .0318114
561.761 .0318599
562.558 .0319215
563.354 .0319977
564.149 .0320870
564.944 .0321845
565.738 .0322830
566.532 .0323779
567.325 .0324668
568.118 .0325428
568.910 .0326100
569.702 .0326721
570.494 .0327329
571.285 .0327969
572.075 .0328665
572.865 .0329357
573.654 .0330044
574.443 .0330672
575.232 .0331197
576.020 .0331617
576.807 .0331940
577.594 .0332166
578.381 .0332367
579.167 .0332558
579.952 .0332779
580.738 .0333031
581.522 .0333325
582.307 .0333607
583.091 .0333876
583.874 .0334115
584.657 .0334273
585.440 .0334364
586.222 .0334398
587.004 .0334354
587.785 .0334264
588.566 .0334130
589.346 .0333955
590.126 .0333742
590.906 .0333517
591.685 .0333280
592.464 .0333045
593.242 .0332835
594.020 .0332620
594.797 .0332418
595.575 .0332225
596.351 .0332029
597.128 .0331810
597.904 .0331592
598.679 .0331366
599.454 .0331137
600.229 .0330924
601.004 .0330735
601.778 .0330582
602.551 .0330466
603.325 .0330370
604.097 .0330275
604.870 .0330162
605.642 .0330018
606.414 .0329827
607.185 .0329609
607.956 .0329373
608.727 .0329136
609.497 .0328907
610.267 .0328697
611.037 .0328505
611.806 .0328326
612.575 .0328146
613.344 .0327956
614.112 .0327753
614.880 .0327527
615.647 .0327285
616.414 .0327041
617.181 .0326802
617.948 .0326582
618.714 .0326382
619.480 .0326199
620.245 .0326027
621.011 .0325857
621.775 .0325684
622.540 .0325510
623.304 .0325345
624.068 .0325189
624.832 .0325041
625.595 .0324915
626.358 .0324802
627.120 .0324694
627.883 .0324578
628.645 .0324447
629.406 .0324290
630.168 .0324103
630.929 .0323877
631.689 .0323618
632.450 .0323334
633.210 .0323034
633.970 .0322717
634.729 .0322390
635.489 .0322050
636.248 .0321702
637.006 .0321346
637.765 .0320987
638.523 .0320625
639.280 .0320269
640.038 .0319920
640.795 .0319584
641.552 .0319257
642.309 .0318939
643.065 .0318632
643.821 .0318343
644.577 .0318065
645.332 .0317795
646.088 .0317535
646.843 .0317284
647.597 .0317031
648.352 .0316774
649.106 .0316500
649.860 .0316203
650.613 .0315880
651.367 .0315533
652.120 .0315158
652.872 .0314772
653.625 .0314387
654.377 .0314009
655.129 .0313648
655.881 .0313307
656.632 .0312978
657.384 .0312664
658.135 .0312360
658.885 .0312055
659.636 .0311744
660.386 .0311436
661.136 .0311124
661.885 .0310820
662.635 .0310530
663.384 .0310257
664.133 .0310002
664.881 .0309763
665.630 .0309528
666.378 .0309290
667.126 .0309045
667.874 .0308790
668.621 .0308523
669.368 .0308249
670.115 .0307973
670.862 .0307698
671.608 .0307438
672.354 .0307193
673.100 .0306962
673.846 .0306746
674.591 .0306538
675.337 .0306335
676.082 .0306136
676.826 .0305939
677.571 .0305749
678.315 .0305566
679.059 .0305394
679.803 .0305228
680.547 .0305075
681.290 .0304931
682.033 .0304791
682.776 .0304645
683.518 .0304498
684.261 .0304339
685.003 .0304170
685.745 .0303991
686.487 .0303809
687.228 .0303623
687.969 .0303439
688.710 .0303255
689.451 .0303074
690.192 .0302895
690.932 .0302719
691.672 .0302536
692.412 .0302357
693.152 .0302174
693.891 .0301987
694.630 .0301800
695.369 .0301618
696.108 .0301435
696.846 .0301260
697.585 .0301091
698.323 .0300930
699.061 .0300774
699.798 .0300624
700.536 .0300473
701.273 .0300321
702.010 .0300166
702.746 .0300004
703.483 .0299839
704.219 .0299683
704.955 .0299531
705.691 .0299386
706.427 .0299254
707.162 .0299135
707.897 .0299024
708.632 .0298921
709.367 .0298821
710.101 .0298724
710.835 .0298625
711.569 .0298526
712.303 .0298423
713.037 .0298327
713.770 .0298238
714.503 .0298151
715.236 .0298072
715.969 .0297999
716.702 .0297925
717.434 .0297847
718.166 .0297762
718.898 .0297663
719.629 .0297550
720.361 .0297425
721.092 .0297287
721.823 .0297135
722.554 .0296968
723.284 .0296792
724.014 .0296599
724.744 .0296395
725.474 .0296172
726.204 .0295936
726.933 .0295693
727.662 .0295440
728.391 .0295184
729.120 .0294926
729.849 .0294674
730.577 .0294431
731.305 .0294191
732.033 .0293959
732.760 .0293733
733.488 .0293510
734.215 .0293290
734.942 .0293073
735.669 .0292851
736.395 .0292633
737.122 .0292416
737.848 .0292203
738.573 .0291990
739.299 .0291779
740.024 .0291571
740.750 .0291362
741.474 .0291152
742.199 .0290937
742.924 .0290716
743.648 .0290496
744.372 .0290269
745.096 .0290044
745.819 .0289818
746.543 .0289594
747.266 .0289372
747.989 .0289158
748.711 .0288953
749.434 .0288756
750.156 .0288571
750.878 .0288397
751.599 .0288234
752.321 .0288080
753.042 .0287936
753.763 .0287801
754.484 .0287676
755.205 .0287558
755.925 .0287443
756.645 .0287330
757.365 .0287217
758.085 .0287102
758.804 .0286979
759.523 .0286845
760.242 .0286695
760.961 .0286521
761.679 .0286327
762.397 .0286108
763.115 .0285864
763.833 .0285599
764.551 .0285312
765.268 .0285007
765.985 .0284687
766.702 .0284359
767.418 .0284024
768.134 .0283689
768.850 .0283358
769.566 .0283034
770.282 .0282724
770.997 .0282433
771.712 .0282156
772.427 .0281901
773.142 .0281669
773.856 .0281457
774.570 .0281265
775.284 .0281091
775.998 .0280933
776.711 .0280792
777.424 .0280660
778.137 .0280532
778.849 .0280407
779.562 .0280286
780.274 .0280163
780.986 .0280038
781.697 .0279914
782.409 .0279791
783.120 .0279674
783.831 .0279574
784.541 .0279485
785.252 .0279410
785.962 .0279343
786.671 .0279284
787.381 .0279230
788.090 .0279180
788.799 .0279131
789.508 .0279083
790.217 .0279040
790.925 .0279001
791.633 .0278962
792.341 .0278930
793.048 .0278901
793.755 .0278872
794.462 .0278833
795.169 .0278781
795.875 .0278715
796.581 .0278643
797.287 .0278568
797.993 .0278495
798.698 .0278428
799.403 .0278371
800.108 .0278323
800.812 .0278282
801.517 .0278242
802.221 .0278199
802.924 .0278147
803.628 .0278092
804.331 .0278029
805.034 .0277962
805.736 .0277899
806.439 .0277848
807.141 .0277808
807.843 .0277781
808.544 .0277764
809.245 .0277755
809.946 .0277749
810.647 .0277744
811.347 .0277734
812.047 .0277723
812.747 .0277713
813.447 .0277698
814.146 .0277687
814.845 .0277683
815.543 .0277683
816.242 .0277689
816.940 .0277705
817.638 .0277726
818.335 .0277750
819.032 .0277778
819.729 .0277805
820.426 .0277829
821.122 .0277844
821.818 .0277845
822.514 .0277834
823.209 .0277814
823.905 .0277779
824.599 .0277732
825.294 .0277681
825.988 .0277618
826.682 .0277542
827.376 .0277453
828.069 .0277351
828.762 .0277234
829.455 .0277105
830.147 .0276967
830.840 .0276828
831.531 .0276696
832.223 .0276570
832.914 .0276453
833.605 .0276351
834.296 .0276263
834.986 .0276180
835.676 .0276103
836.366 .0276030
837.055 .0275967
837.744 .0275915
838.433 .0275876
839.121 .0275855
839.809 .0275849
840.497 .0275857
841.185 .0275874
841.872 .0275891
842.559 .0275900
843.245 .0275898
843.932 .0275886
844.617 .0275859
845.303 .0275823
845.988 .0275778
846.673 .0275727
847.358 .0275673
848.042 .0275618
848.726 .0275557
849.410 .0275493
850.093 .0275428
850.776 .0275359
851.459 .0275284
852.141 .0275204
852.823 .0275119
853.505 .0275029
854.186 .0274930
854.867 .0274823
855.548 .0274705
856.228 .0274586
856.908 .0274468
857.588 .0274352
858.267 .0274236
858.946 .0274123
859.625 .0274007
860.303 .0273881
860.981 .0273744
861.659 .0273592
862.336 .0273423
863.013 .0273241
863.690 .0273045
864.366 .0272840
865.042 .0272629
865.718 .0272421
866.393 .0272213
867.068 .0272004
867.743 .0271793
868.417 .0271571
869.091 .0271343
869.765 .0271108
870.438 .0270864
871.111 .0270616
871.783 .0270369
872.456 .0270124
873.127 .0269881
873.799 .0269644
874.470 .0269413
875.141 .0269193
875.811 .0268984
876.481 .0268784
877.151 .0268598
877.820 .0268426
878.489 .0268267
879.158 .0268118
879.826 .0267977
880.494 .0267836
881.162 .0267696
881.829 .0267552
882.496 .0267403
883.163 .0267252
883.829 .0267102
884.495 .0266955
885.160 .0266816
885.825 .0266682
886.490 .0266550
887.154 .0266414
887.818 .0266274
888.482 .0266121
889.145 .0265956
889.808 .0265777
890.471 .0265592
891.133 .0265407
891.795 .0265222
892.456 .0265042
893.117 .0264872
893.778 .0264712
894.439 .0264561
895.099 .0264413
895.758 .0264268
896.417 .0264126
897.076 .0263986
897.735 .0263847
898.393 .0263712
899.051 .0263578
899.708 .0263442
900.365 .0263299
901.022 .0263149
901.678 .0262989
902.334 .0262814
902.990 .0262630
903.645 .0262437
904.300 .0262240
904.954 .0262036
905.608 .0261828
906.262 .0261621
906.915 .0261419
907.568 .0261213
908.221 .0261009
908.873 .0260802
909.525 .0260598
910.176 .0260395
910.828 .0260197
911.478 .0260000
912.129 .0259813
912.778 .0259630
913.428 .0259451
914.077 .0259280
914.726 .0259120
915.375 .0258967
916.023 .0258829
916.670 .0258701
917.318 .0258579
917.964 .0258460
918.611 .0258344
919.257 .0258221
919.903 .0258099
920.548 .0257975
921.193 .0257852
921.838 .0257735
922.482 .0257632
923.126 .0257538
923.770 .0257457
924.413 .0257387
925.056 .0257322
925.698 .0257259
926.340 .0257196
926.982 .0257129
927.623 .0257057
928.264 .0256983
928.904 .0256909
929.544 .0256831
930.184 .0256755
930.823 .0256676
931.462 .0256593
932.101 .0256508
932.739 .0256419
933.377 .0256319
934.014 .0256210
934.651 .0256096
935.288 .0255973
935.924 .0255842
936.560 .0255711
937.196 .0255578
937.831 .0255443
938.466 .0255308
939.100 .0255171
939.734 .0255029
940.368 .0254886
941.001 .0254741
941.634 .0254594
942.266 .0254446
942.899 .0254301
943.530 .0254157
944.162 .0254019
944.793 .0253887
945.423 .0253758
946.053 .0253632
946.683 .0253513
947.313 .0253394
947.942 .0253272
948.571 .0253147
949.199 .0253016
949.827 .0252875
950.455 .0252727
951.082 .0252575
951.709 .0252422
952.335 .0252274
952.961 .0252131
953.587 .0251999
954.212 .0251878
954.837 .0251765
955.462 .0251659
956.086 .0251557
956.710 .0251462
957.334 .0251371
957.957 .0251286
958.579 .0251211
959.202 .0251148
959.824 .0251096
960.445 .0251057
961.067 .0251027
961.688 .0251006
962.308 .0250984
962.928 .0250960
963.548 .0250931
964.168 .0250894
964.787 .0250849
965.406 .0250801
966.024 .0250751
966.642 .0250703
967.260 .0250652
967.877 .0250603
968.494 .0250553
969.110 .0250499
969.727 .0250442
970.342 .0250386
970.958 .0250333
971.573 .0250284
972.188 .0250241
972.802 .0250210
973.416 .0250192
974.030 .0250185
974.643 .0250187
975.256 .0250205
975.869 .0250234
976.481 .0250272
977.093 .0250323
977.705 .0250388
978.316 .0250468
978.927 .0250555
979.538 .0250647
980.148 .0250738
980.758 .0250825
981.367 .0250908
981.977 .0250987
982.586 .0251065
983.194 .0251144
983.802 .0251227
984.410 .0251313
985.018 .0251405
985.625 .0251486
986.232 .0251558
986.838 .0251612
987.445 .0251641
988.050 .0251643
988.656 .0251621
989.261 .0251583
989.866 .0251532
990.471 .0251475
991.075 .0251423
991.679 .0251371
992.282 .0251331
992.886 .0251293
993.489 .0251260
994.091 .0251227
994.694 .0251195
995.296 .0251160
995.897 .0251127
996.499 .0251095
997.100 .0251072
997.701 .0251059
998.301 .0251063
998.901 .0251088
999.501 .0251129
1000.101 .0251184
1000.700 .0251253
1001.299 .0251315
1001.898 .0251379
1002.496 .0251435
1003.094 .0251488
1003.692 .0251536
1004.289 .0251583
1004.887 .0251634
1005.484 .0251684
1006.080 .0251740
1006.677 .0251799
1007.273 .0251849
1007.868 .0251901
1008.464 .0251946
1009.059 .0251979
1009.654 .0252006
1010.249 .0252029
1010.843 .0252053
1011.437 .0252085
1012.031 .0252118
1012.625 .0252157
1013.218 .0252199
1013.811 .0252246
1014.404 .0252293
1014.997 .0252338
1015.589 .0252382
1016.181 .0252412
1016.773 .0252436
1017.365 .0252454
1017.956 .0252458
1018.547 .0252458
1019.138 .0252454
1019.728 .0252449
1020.319 .0252446
1020.909 .0252448
1021.499 .0252458
1022.088 .0252480
1022.678 .0252503
1023.267 .0252525
1023.856 .0252540
1024.445 .0252546
1025.033 .0252541
1025.621 .0252525
1026.209 .0252512
1026.797 .0252498
1027.385 .0252481
1027.972 .0252475
1028.560 .0252468
1029.147 .0252462
1029.734 .0252452
1030.320 .0252439
1030.907 .0252415
1031.493 .0252379
1032.079 .0252339
1032.665 .0252297
1033.250 .0252257
1033.836 .0252227
1034.421 .0252192
1035.006 .0252167
1035.591 .0252150
1036.176 .0252125
1036.761 .0252105
1037.345 .0252103
1037.929 .0252107
1038.514 .0252115
1039.097 .0252139
1039.681 .0252183
1040.265 .0252239
1040.848 .0252314
1041.432 .0252388
1042.015 .0252452
1042.598 .0252504
1043.181 .0252532
1043.764 .0252532
1044.346 .0252524
1044.929 .0252497
1045.511 .0252459
1046.094 .0252427
1046.676 .0252398
1047.258 .0252369
1047.840 .0252346
1048.422 .0252332
1049.003 .0252304
1049.585 .0252258
1050.166 .0252191
1050.748 .0252096
1051.329 .0251983
1051.910 .0251840
1052.491 .0251663
1053.072 .0251469
1053.653 .0251247
1054.234 .0251006
1054.815 .0250754
1055.396 .0250501
1055.976 .0250248
1056.557 .0250003
1057.138 .0249762
1057.718 .0249522
1058.298 .0249295
1058.879 .0249076
1059.459 .0248854
1060.039 .0248648
1060.620 .0248448
1061.200 .0248266
1061.780 .0248122
1062.360 .0248021
1062.940 .0247958
1063.520 .0247948
1064.101 .0247972
1064.681 .0248003
1065.261 .0248039
1065.841 .0248049
1066.421 .0248010
1067.001 .0247917
1067.581 .0247771
1068.161 .0247562
1068.741 .0247314
1069.321 .0247060
1069.901 .0246791
1070.482 .0246540
1071.062 .0246306
1071.642 .0246092
1072.222 .0245896
1072.803 .0245706
1073.383 .0245520
1073.963 .0245327
1074.544 .0245144
1075.124 .0244957
1075.705 .0244773
1076.286 .0244632
1076.866 .0244529
1077.447 .0244474
1078.028 .0244465
1078.609 .0244500
1079.190 .0244553
1079.771 .0244614
1080.352 .0244661
1080.934 .0244691
1081.515 .0244702
1082.097 .0244692
1082.679 .0244659
1083.260 .0244614
1083.842 .0244578
1084.424 .0244527
1085.007 .0244460
1085.589 .0244386
1086.172 .0244271
1086.754 .0244122
1087.337 .0243937
1087.920 .0243744
1088.503 .0243541
1089.087 .0243344
1089.670 .0243150
1090.254 .0242960
1090.838 .0242787
1091.422 .0242609
1092.006 .0242424
1092.590 .0242240
1093.175 .0242057
1093.760 .0241859
1094.345 .0241661
1094.930 .0241490
1095.516 .0241337
1096.102 .0241214
1096.688 .0241125
1097.274 .0241046
1097.860 .0240954
1098.447 .0240835
1099.034 .0240665
1099.622 .0240455
1100.209 .0240191
1100.797 .0239873
1101.385 .0239525
1101.973 .0239178
1102.562 .0238854
1103.151 .0238548
1103.740 .0238299
1104.330 .0238108
1104.920 .0237952
1105.510 .0237851
1106.101 .0237780
1106.691 .0237751
1107.283 .0237750
1107.874 .0237792
1108.466 .0237877
1109.058 .0238027
1109.651 .0238234
1110.244 .0238510
1110.837 .0238848
1111.431 .0239210
1112.025 .0239573
1112.620 .0239922
1113.215 .0240251
1113.810 .0240532
1114.406 .0240788
1115.002 .0241035
1115.599 .0241256
1116.196 .0241475
1116.793 .0241662
1117.391 .0241832
1117.989 .0241960
1118.588 .0242051
1119.187 .0242076
1119.787 .0242049
1120.387 .0241996
1120.988 .0241881
1121.589 .0241766
1122.190 .0241657
1122.793 .0241546
1123.395 .0241459
1123.998 .0241401
1124.602 .0241382
1125.206 .0241374
1125.811 .0241432
1126.416 .0241534
1127.022 .0241673
1127.628 .0241876
1128.235 .0242092
1128.843 .0242326
1129.451 .0242614
1130.059 .0242928
1130.669 .0243268
1131.278 .0243662
1131.889 .0244098
1132.500 .0244554
1133.112 .0245041
1133.724 .0245528
1134.337 .0245994
1134.950 .0246421
1135.564 .0246848
1136.179 .0247223
1136.795 .0247594
1137.411 .0248013
1138.028 .0248477
1138.645 .0249050
1139.263 .0249683
1139.882 .0250395
1140.502 .0251195
1141.122 .0252100
1141.743 .0253154
1142.365 .0254166
1142.987 .0254480
1143.611 .0256078
1144.235 .0258396
1144.859 .0261139
1145.485 .0258338
