Measurement Sequence started on: 10-20-44-796
Integration time: 35
Scans to Average: 2 
>>>>>Begin Spectral Data<<<<<
432.953 .0343932
433.882 .0329247
434.810 .0322480
435.737 .0306889
436.662 .0306223
437.586 .0311908
438.509 .0309507
439.431 .0307939
440.351 .0306641
441.269 .0305634
442.187 .0304530
443.103 .0303458
444.018 .0302306
444.932 .0301402
445.844 .0300742
446.756 .0300326
447.666 .0300032
448.575 .0299748
449.482 .0299476
450.388 .0299301
451.294 .0299141
452.198 .0299002
453.100 .0298967
454.002 .0299062
454.902 .0299194
455.801 .0299373
456.699 .0299627
457.596 .0299943
458.492 .0300248
459.387 .0300515
460.280 .0300703
461.172 .0300854
462.064 .0300932
462.954 .0300927
463.843 .0300892
464.730 .0300841
465.617 .0300702
466.503 .0300499
467.387 .0300243
468.271 .0299883
469.153 .0299455
470.035 .0298982
470.915 .0298481
471.794 .0297982
472.673 .0297492
473.550 .0297067
474.426 .0296720
475.301 .0296483
476.175 .0296296
477.048 .0296161
477.920 .0296088
478.791 .0296030
479.661 .0295950
480.530 .0295875
481.398 .0295779
482.266 .0295692
483.132 .0295625
483.997 .0295608
484.861 .0295603
485.724 .0295666
486.587 .0295770
487.448 .0295901
488.308 .0296021
489.168 .0296129
490.026 .0296168
490.884 .0296135
491.741 .0296003
492.597 .0295749
493.452 .0295380
494.306 .0294945
495.159 .0294432
496.011 .0293887
496.862 .0293317
497.713 .0292732
498.562 .0292110
499.411 .0291506
500.259 .0290848
501.106 .0290126
501.952 .0289347
502.798 .0288516
503.642 .0287635
504.486 .0286733
505.329 .0285843
506.171 .0284997
507.012 .0284227
507.852 .0283532
508.692 .0282891
509.531 .0282314
510.369 .0281760
511.206 .0281189
512.043 .0280587
512.878 .0279919
513.713 .0279149
514.547 .0278282
515.381 .0277300
516.213 .0276198
517.045 .0274949
517.876 .0273560
518.706 .0272010
519.536 .0270320
520.365 .0268510
521.193 .0266549
522.020 .0264547
522.847 .0262501
523.673 .0260433
524.498 .0258337
525.323 .0256260
526.146 .0254206
526.969 .0252192
527.792 .0250241
528.614 .0248355
529.435 .0246532
530.255 .0244864
531.075 .0243301
531.894 .0241905
532.712 .0240739
533.530 .0239740
534.347 .0238856
535.163 .0238119
535.979 .0237461
536.794 .0236921
537.608 .0236477
538.422 .0236211
539.235 .0236096
540.048 .0236169
540.860 .0236402
541.671 .0236739
542.481 .0237214
543.292 .0237768
544.101 .0238322
544.910 .0238834
545.718 .0239310
546.526 .0239783
547.333 .0240259
548.139 .0240799
548.945 .0241389
549.750 .0242050
550.555 .0242756
551.359 .0243520
552.162 .0244276
552.965 .0245043
553.768 .0245812
554.569 .0246545
555.371 .0247224
556.171 .0247883
556.972 .0248533
557.771 .0249224
558.570 .0249975
559.369 .0250800
560.167 .0251692
560.964 .0252674
561.761 .0253712
562.558 .0254813
563.354 .0255916
564.149 .0256987
564.944 .0257983
565.738 .0258906
566.532 .0259745
567.325 .0260482
568.118 .0261152
568.910 .0261813
569.702 .0262461
570.494 .0263152
571.285 .0263853
572.075 .0264605
572.865 .0265398
573.654 .0266154
574.443 .0266884
575.232 .0267556
576.020 .0268186
576.807 .0268780
577.594 .0269340
578.381 .0269915
579.167 .0270499
579.952 .0271120
580.738 .0271771
581.522 .0272440
582.307 .0273140
583.091 .0273824
583.874 .0274481
584.657 .0275097
585.440 .0275664
586.222 .0276172
587.004 .0276640
587.785 .0277069
588.566 .0277477
589.346 .0277871
590.126 .0278260
590.906 .0278651
591.685 .0279040
592.464 .0279425
593.242 .0279791
594.020 .0280123
594.797 .0280425
595.575 .0280676
596.351 .0280879
597.128 .0281038
597.904 .0281155
598.679 .0281246
599.454 .0281311
600.229 .0281362
601.004 .0281400
601.778 .0281428
602.551 .0281437
603.325 .0281424
604.097 .0281386
604.870 .0281322
605.642 .0281237
606.414 .0281138
607.185 .0281029
607.956 .0280923
608.727 .0280822
609.497 .0280727
610.267 .0280638
611.037 .0280563
611.806 .0280485
612.575 .0280405
613.344 .0280323
614.112 .0280233
614.880 .0280135
615.647 .0280042
616.414 .0279952
617.181 .0279867
617.948 .0279794
618.714 .0279726
619.480 .0279658
620.245 .0279592
621.011 .0279521
621.775 .0279440
622.540 .0279354
623.304 .0279263
624.068 .0279160
624.832 .0279058
625.595 .0278959
626.358 .0278860
627.120 .0278764
627.883 .0278666
628.645 .0278558
629.406 .0278439
630.168 .0278303
630.929 .0278154
631.689 .0277994
632.450 .0277819
633.210 .0277635
633.970 .0277448
634.729 .0277263
635.489 .0277081
636.248 .0276913
637.006 .0276758
637.765 .0276613
638.523 .0276477
639.280 .0276345
640.038 .0276217
640.795 .0276095
641.552 .0275969
642.309 .0275838
643.065 .0275713
643.821 .0275584
644.577 .0275450
645.332 .0275330
646.088 .0275228
646.843 .0275139
647.597 .0275067
648.352 .0275010
649.106 .0274960
649.860 .0274910
650.613 .0274851
651.367 .0274780
652.120 .0274704
652.872 .0274620
653.625 .0274529
654.377 .0274440
655.129 .0274361
655.881 .0274284
656.632 .0274211
657.384 .0274141
658.135 .0274062
658.885 .0273963
659.636 .0273846
660.386 .0273706
661.136 .0273550
661.885 .0273382
662.635 .0273218
663.384 .0273066
664.133 .0272931
664.881 .0272808
665.630 .0272698
666.378 .0272601
667.126 .0272506
667.874 .0272406
668.621 .0272302
669.368 .0272192
670.115 .0272079
670.862 .0271964
671.608 .0271860
672.354 .0271768
673.100 .0271689
673.846 .0271623
674.591 .0271562
675.337 .0271503
676.082 .0271443
676.826 .0271381
677.571 .0271316
678.315 .0271247
679.059 .0271175
679.803 .0271105
680.547 .0271036
681.290 .0270969
682.033 .0270905
682.776 .0270842
683.518 .0270776
684.261 .0270703
685.003 .0270621
685.745 .0270530
686.487 .0270424
687.228 .0270307
687.969 .0270173
688.710 .0270025
689.451 .0269860
690.192 .0269675
690.932 .0269478
691.672 .0269269
692.412 .0269054
693.152 .0268842
693.891 .0268640
694.630 .0268449
695.369 .0268275
696.108 .0268120
696.846 .0267980
697.585 .0267846
698.323 .0267722
699.061 .0267606
699.798 .0267499
700.536 .0267400
701.273 .0267312
702.010 .0267238
702.746 .0267181
703.483 .0267135
704.219 .0267092
704.955 .0267053
705.691 .0267005
706.427 .0266937
707.162 .0266849
707.897 .0266739
708.632 .0266611
709.367 .0266470
710.101 .0266317
710.835 .0266158
711.569 .0265990
712.303 .0265816
713.037 .0265635
713.770 .0265448
714.503 .0265254
715.236 .0265054
715.969 .0264850
716.702 .0264649
717.434 .0264457
718.166 .0264274
718.898 .0264104
719.629 .0263946
720.361 .0263795
721.092 .0263650
721.823 .0263507
722.554 .0263369
723.284 .0263230
724.014 .0263090
724.744 .0262945
725.474 .0262791
726.204 .0262630
726.933 .0262457
727.662 .0262276
728.391 .0262092
729.120 .0261901
729.849 .0261706
730.577 .0261514
731.305 .0261326
732.033 .0261142
732.760 .0260960
733.488 .0260779
734.215 .0260600
734.942 .0260417
735.669 .0260232
736.395 .0260046
737.122 .0259863
737.848 .0259686
738.573 .0259512
739.299 .0259344
740.024 .0259183
740.750 .0259023
741.474 .0258868
742.199 .0258711
742.924 .0258549
743.648 .0258384
744.372 .0258214
745.096 .0258045
745.819 .0257871
746.543 .0257694
747.266 .0257525
747.989 .0257362
748.711 .0257208
749.434 .0257059
750.156 .0256924
750.878 .0256803
751.599 .0256696
752.321 .0256600
753.042 .0256518
753.763 .0256451
754.484 .0256400
755.205 .0256361
755.925 .0256334
756.645 .0256317
757.365 .0256308
758.085 .0256299
758.804 .0256283
759.523 .0256247
760.242 .0256190
760.961 .0256104
761.679 .0255995
762.397 .0255855
763.115 .0255689
763.833 .0255501
764.551 .0255296
765.268 .0255075
765.985 .0254835
766.702 .0254580
767.418 .0254318
768.134 .0254045
768.850 .0253766
769.566 .0253486
770.282 .0253210
770.997 .0252950
771.712 .0252702
772.427 .0252472
773.142 .0252262
773.856 .0252068
774.570 .0251891
775.284 .0251725
775.998 .0251568
776.711 .0251416
777.424 .0251265
778.137 .0251119
778.849 .0250967
779.562 .0250810
780.274 .0250650
780.986 .0250486
781.697 .0250321
782.409 .0250157
783.120 .0249996
783.831 .0249847
784.541 .0249711
785.252 .0249592
785.962 .0249491
786.671 .0249405
787.381 .0249330
788.090 .0249256
788.799 .0249181
789.508 .0249099
790.217 .0249009
790.925 .0248913
791.633 .0248811
792.341 .0248708
793.048 .0248604
793.755 .0248497
794.462 .0248392
795.169 .0248287
795.875 .0248178
796.581 .0248064
797.287 .0247943
797.993 .0247813
798.698 .0247680
799.403 .0247548
800.108 .0247416
800.812 .0247289
801.517 .0247168
802.221 .0247054
802.924 .0246941
803.628 .0246833
804.331 .0246725
805.034 .0246618
805.736 .0246508
806.439 .0246393
807.141 .0246275
807.843 .0246155
808.544 .0246032
809.245 .0245907
809.946 .0245782
810.647 .0245658
811.347 .0245534
812.047 .0245418
812.747 .0245312
813.447 .0245218
814.146 .0245133
814.845 .0245063
815.543 .0245002
816.242 .0244945
816.940 .0244890
817.638 .0244829
818.335 .0244765
819.032 .0244691
819.729 .0244605
820.426 .0244513
821.122 .0244411
821.818 .0244296
822.514 .0244167
823.209 .0244027
823.905 .0243875
824.599 .0243708
825.294 .0243534
825.988 .0243351
826.682 .0243168
827.376 .0242983
828.069 .0242801
828.762 .0242622
829.455 .0242449
830.147 .0242275
830.840 .0242105
831.531 .0241938
832.223 .0241775
832.914 .0241618
833.605 .0241472
834.296 .0241340
834.986 .0241219
835.676 .0241105
836.366 .0240997
837.055 .0240886
837.744 .0240771
838.433 .0240643
839.121 .0240504
839.809 .0240355
840.497 .0240204
841.185 .0240053
841.872 .0239912
842.559 .0239785
843.245 .0239675
843.932 .0239582
844.617 .0239502
845.303 .0239429
845.988 .0239360
846.673 .0239294
847.358 .0239228
848.042 .0239162
848.726 .0239095
849.410 .0239028
850.093 .0238960
850.776 .0238892
851.459 .0238827
852.141 .0238758
852.823 .0238688
853.505 .0238621
854.186 .0238549
854.867 .0238473
855.548 .0238386
856.228 .0238292
856.908 .0238189
857.588 .0238075
858.267 .0237952
858.946 .0237823
859.625 .0237692
860.303 .0237563
860.981 .0237440
861.659 .0237325
862.336 .0237214
863.013 .0237105
863.690 .0236997
864.366 .0236887
865.042 .0236772
865.718 .0236658
866.393 .0236543
867.068 .0236435
867.743 .0236332
868.417 .0236229
869.091 .0236129
869.765 .0236029
870.438 .0235924
871.111 .0235814
871.783 .0235697
872.456 .0235573
873.127 .0235444
873.799 .0235318
874.470 .0235192
875.141 .0235072
875.811 .0234959
876.481 .0234851
877.151 .0234742
877.820 .0234632
878.489 .0234512
879.158 .0234387
879.826 .0234261
880.494 .0234131
881.162 .0233998
881.829 .0233871
882.496 .0233746
883.163 .0233627
883.829 .0233513
884.495 .0233405
885.160 .0233297
885.825 .0233191
886.490 .0233082
887.154 .0232972
887.818 .0232863
888.482 .0232760
889.145 .0232663
889.808 .0232575
890.471 .0232494
891.133 .0232420
891.795 .0232353
892.456 .0232290
893.117 .0232228
893.778 .0232166
894.439 .0232103
895.099 .0232039
895.758 .0231972
896.417 .0231905
897.076 .0231835
897.735 .0231762
898.393 .0231683
899.051 .0231596
899.708 .0231501
900.365 .0231398
901.022 .0231289
901.678 .0231176
902.334 .0231057
902.990 .0230938
903.645 .0230817
904.300 .0230697
904.954 .0230576
905.608 .0230449
906.262 .0230321
906.915 .0230195
907.568 .0230071
908.221 .0229954
908.873 .0229847
909.525 .0229753
910.176 .0229668
910.828 .0229589
911.478 .0229512
912.129 .0229430
912.778 .0229344
913.428 .0229253
914.077 .0229154
914.726 .0229052
915.375 .0228955
916.023 .0228865
916.670 .0228790
917.318 .0228729
917.964 .0228678
918.611 .0228633
919.257 .0228589
919.903 .0228538
920.548 .0228476
921.193 .0228407
921.838 .0228333
922.482 .0228253
923.126 .0228175
923.770 .0228101
924.413 .0228033
925.056 .0227974
925.698 .0227926
926.340 .0227884
926.982 .0227848
927.623 .0227811
928.264 .0227768
928.904 .0227715
929.544 .0227650
930.184 .0227569
930.823 .0227473
931.462 .0227364
932.101 .0227244
932.739 .0227114
933.377 .0226980
934.014 .0226847
934.651 .0226716
935.288 .0226587
935.924 .0226459
936.560 .0226326
937.196 .0226189
937.831 .0226041
938.466 .0225889
939.100 .0225729
939.734 .0225569
940.368 .0225409
941.001 .0225255
941.634 .0225110
942.266 .0224980
942.899 .0224856
943.530 .0224742
944.162 .0224628
944.793 .0224514
945.423 .0224386
946.053 .0224249
946.683 .0224096
947.313 .0223932
947.942 .0223750
948.571 .0223559
949.199 .0223355
949.827 .0223148
950.455 .0222935
951.082 .0222723
951.709 .0222513
952.335 .0222306
952.961 .0222099
953.587 .0221896
954.212 .0221696
954.837 .0221501
955.462 .0221310
956.086 .0221131
956.710 .0220966
957.334 .0220819
957.957 .0220689
958.579 .0220583
959.202 .0220496
959.824 .0220422
960.445 .0220351
961.067 .0220284
961.688 .0220217
962.308 .0220144
962.928 .0220068
963.548 .0219987
964.168 .0219899
964.787 .0219805
965.406 .0219705
966.024 .0219605
966.642 .0219505
967.260 .0219403
967.877 .0219299
968.494 .0219197
969.110 .0219091
969.727 .0218981
970.342 .0218872
970.958 .0218767
971.573 .0218669
972.188 .0218577
972.802 .0218504
973.416 .0218448
974.030 .0218415
974.643 .0218402
975.256 .0218411
975.869 .0218433
976.481 .0218463
977.093 .0218501
977.705 .0218543
978.316 .0218589
978.927 .0218643
979.538 .0218700
980.148 .0218763
980.758 .0218830
981.367 .0218899
981.977 .0218964
982.586 .0219027
983.194 .0219077
983.802 .0219111
984.410 .0219130
985.018 .0219131
985.625 .0219112
986.232 .0219083
986.838 .0219043
987.445 .0218990
988.050 .0218928
988.656 .0218861
989.261 .0218784
989.866 .0218703
990.471 .0218618
991.075 .0218528
991.679 .0218440
992.282 .0218358
992.886 .0218284
993.489 .0218225
994.091 .0218182
994.694 .0218154
995.296 .0218140
995.897 .0218143
996.499 .0218151
997.100 .0218167
997.701 .0218190
998.301 .0218217
998.901 .0218248
999.501 .0218284
1000.101 .0218328
1000.700 .0218378
1001.299 .0218429
1001.898 .0218480
1002.496 .0218528
1003.094 .0218570
1003.692 .0218602
1004.289 .0218630
1004.887 .0218660
1005.484 .0218688
1006.080 .0218718
1006.677 .0218752
1007.273 .0218785
1007.868 .0218820
1008.464 .0218851
1009.059 .0218879
1009.654 .0218905
1010.249 .0218932
1010.843 .0218958
1011.437 .0218992
1012.031 .0219034
1012.625 .0219082
1013.218 .0219136
1013.811 .0219196
1014.404 .0219252
1014.997 .0219305
1015.589 .0219357
1016.181 .0219410
1016.773 .0219462
1017.365 .0219526
1017.956 .0219587
1018.547 .0219657
1019.138 .0219729
1019.728 .0219797
1020.319 .0219855
1020.909 .0219905
1021.499 .0219939
1022.088 .0219960
1022.678 .0219967
1023.267 .0219969
1023.856 .0219961
1024.445 .0219957
1025.033 .0219944
1025.621 .0219926
1026.209 .0219900
1026.797 .0219867
1027.385 .0219819
1027.972 .0219772
1028.560 .0219722
1029.147 .0219669
1029.734 .0219620
1030.320 .0219581
1030.907 .0219547
1031.493 .0219535
1032.079 .0219537
1032.665 .0219560
1033.250 .0219594
1033.836 .0219646
1034.421 .0219699
1035.006 .0219754
1035.591 .0219807
1036.176 .0219846
1036.761 .0219865
1037.345 .0219873
1037.929 .0219856
1038.514 .0219825
1039.097 .0219794
1039.681 .0219764
1040.265 .0219734
1040.848 .0219721
1041.432 .0219711
1042.015 .0219705
1042.598 .0219698
1043.181 .0219693
1043.764 .0219677
1044.346 .0219671
1044.929 .0219675
1045.511 .0219683
1046.094 .0219712
1046.676 .0219761
1047.258 .0219820
1047.840 .0219896
1048.422 .0219976
1049.003 .0220061
1049.585 .0220137
1050.166 .0220211
1050.748 .0220276
1051.329 .0220339
1051.910 .0220402
1052.491 .0220462
1053.072 .0220509
1053.653 .0220537
1054.234 .0220534
1054.815 .0220496
1055.396 .0220421
1055.976 .0220323
1056.557 .0220204
1057.138 .0220072
1057.718 .0219940
1058.298 .0219824
1058.879 .0219712
1059.459 .0219621
1060.039 .0219526
1060.620 .0219412
1061.200 .0219270
1061.780 .0219096
1062.360 .0218894
1062.940 .0218694
1063.520 .0218514
1064.101 .0218360
1064.681 .0218244
1065.261 .0218189
1065.841 .0218174
1066.421 .0218215
1067.001 .0218283
1067.581 .0218365
1068.161 .0218440
1068.741 .0218502
1069.321 .0218541
1069.901 .0218564
1070.482 .0218585
1071.062 .0218599
1071.642 .0218597
1072.222 .0218586
1072.803 .0218555
1073.383 .0218511
1073.963 .0218451
1074.544 .0218374
1075.124 .0218268
1075.705 .0218143
1076.286 .0217993
1076.866 .0217830
1077.447 .0217657
1078.028 .0217472
1078.609 .0217285
1079.190 .0217092
1079.771 .0216900
1080.352 .0216705
1080.934 .0216530
1081.515 .0216390
1082.097 .0216287
1082.679 .0216216
1083.260 .0216159
1083.842 .0216121
1084.424 .0216093
1085.007 .0216065
1085.589 .0216021
1086.172 .0215951
1086.754 .0215868
1087.337 .0215765
1087.920 .0215656
1088.503 .0215547
1089.087 .0215464
1089.670 .0215411
1090.254 .0215382
1090.838 .0215369
1091.422 .0215371
1092.006 .0215380
1092.590 .0215384
1093.175 .0215367
1093.760 .0215327
1094.345 .0215267
1094.930 .0215179
1095.516 .0215081
1096.102 .0214980
1096.688 .0214887
1097.274 .0214819
1097.860 .0214768
1098.447 .0214744
1099.034 .0214736
1099.622 .0214733
1100.209 .0214730
1100.797 .0214712
1101.385 .0214687
1101.973 .0214636
1102.562 .0214577
1103.151 .0214513
1103.740 .0214454
1104.330 .0214404
1104.920 .0214382
1105.510 .0214372
1106.101 .0214379
1106.691 .0214368
1107.283 .0214341
1107.874 .0214276
1108.466 .0214173
1109.058 .0214021
1109.651 .0213821
1110.244 .0213588
1110.837 .0213353
1111.431 .0213090
1112.025 .0212843
1112.620 .0212598
1113.215 .0212363
1113.810 .0212124
1114.406 .0211891
1115.002 .0211618
1115.599 .0211329
1116.196 .0211027
1116.793 .0210719
1117.391 .0210401
1117.989 .0210135
1118.588 .0209910
1119.187 .0209744
1119.787 .0209657
1120.387 .0209627
1120.988 .0209633
1121.589 .0209682
1122.190 .0209709
1122.793 .0209735
1123.395 .0209762
1123.998 .0209808
1124.602 .0209879
1125.206 .0210017
1125.811 .0210226
1126.416 .0210502
1127.022 .0210839
1127.628 .0211213
1128.235 .0211574
1128.843 .0211920
1129.451 .0212237
1130.059 .0212509
1130.669 .0212772
1131.278 .0213034
1131.889 .0213320
1132.500 .0213664
1133.112 .0214031
1133.724 .0214438
1134.337 .0214861
1134.950 .0215268
1135.564 .0215650
1136.179 .0216001
1136.795 .0216342
1137.411 .0216688
1138.028 .0217064
1138.645 .0217468
1139.263 .0217906
1139.882 .0218389
1140.502 .0218891
1141.122 .0219393
1141.743 .0220020
1142.365 .0220780
1142.987 .0220626
1143.611 .0221446
1144.235 .0221551
1144.859 .0225541
1145.485 .0228524
