Measurement Sequence started on: 10-20-44-796
Integration time: 35
Scans to Average: 2 
>>>>>Begin Spectral Data<<<<<
432.953 .0548227
433.882 .0524999
434.810 .0440594
435.737 .0379575
436.662 .0358115
437.586 .0373982
438.509 .0356343
439.431 .0343457
440.351 .0335884
441.269 .0331567
442.187 .0328987
443.103 .0327436
444.018 .0327104
444.932 .0327494
445.844 .0328402
446.756 .0329480
447.666 .0330733
448.575 .0331620
449.482 .0332251
450.388 .0332523
451.294 .0332605
452.198 .0332364
453.100 .0332097
454.002 .0331681
454.902 .0331272
455.801 .0330851
456.699 .0330359
457.596 .0329753
458.492 .0329158
459.387 .0328509
460.280 .0327749
461.172 .0326942
462.064 .0326223
462.954 .0325506
463.843 .0324899
464.730 .0324435
465.617 .0324105
466.503 .0323874
467.387 .0323675
468.271 .0323378
469.153 .0323030
470.035 .0322565
470.915 .0321990
471.794 .0321353
472.673 .0320704
473.550 .0320105
474.426 .0319555
475.301 .0319098
476.175 .0318739
477.048 .0318377
477.920 .0318033
478.791 .0317665
479.661 .0317265
480.530 .0316882
481.398 .0316540
482.266 .0316330
483.132 .0316267
483.997 .0316338
484.861 .0316494
485.724 .0316683
486.587 .0316870
487.448 .0316944
488.308 .0316896
489.168 .0316752
490.026 .0316502
490.884 .0316172
491.741 .0315807
492.597 .0315414
493.452 .0314998
494.306 .0314610
495.159 .0314202
496.011 .0313770
496.862 .0313310
497.713 .0312801
498.562 .0312268
499.411 .0311742
500.259 .0311237
501.106 .0310754
501.952 .0310345
502.798 .0309957
503.642 .0309570
504.486 .0309189
505.329 .0308822
506.171 .0308424
507.012 .0307993
507.852 .0307503
508.692 .0306895
509.531 .0306140
510.369 .0305209
511.206 .0304135
512.043 .0302955
512.878 .0301629
513.713 .0300247
514.547 .0298804
515.381 .0297392
516.213 .0295979
517.045 .0294552
517.876 .0293148
518.706 .0291692
519.536 .0290084
520.365 .0288376
521.193 .0286533
522.020 .0284652
522.847 .0282780
523.673 .0281006
524.498 .0279344
525.323 .0277790
526.146 .0276385
526.969 .0275004
527.792 .0273698
528.614 .0272378
529.435 .0270899
530.255 .0269337
531.075 .0267735
531.894 .0266028
532.712 .0264448
533.530 .0263094
534.347 .0261999
535.163 .0261202
535.979 .0260689
536.794 .0260297
537.608 .0260019
538.422 .0259817
539.235 .0259566
540.048 .0259171
540.860 .0258789
541.671 .0258317
542.481 .0257913
543.292 .0257672
544.101 .0257586
544.910 .0257666
545.718 .0257960
546.526 .0258317
547.333 .0258655
548.139 .0258974
548.945 .0259248
549.750 .0259464
550.555 .0259639
551.359 .0259792
552.162 .0259916
552.965 .0260066
553.768 .0260274
554.569 .0260516
555.371 .0260826
556.171 .0261190
556.972 .0261639
557.771 .0262188
558.570 .0262848
559.369 .0263665
560.167 .0264602
560.964 .0265688
561.761 .0266831
562.558 .0268027
563.354 .0269211
564.149 .0270418
564.944 .0271611
565.738 .0272810
566.532 .0274024
567.325 .0275253
568.118 .0276470
568.910 .0277694
569.702 .0278889
570.494 .0280055
571.285 .0281149
572.075 .0282190
572.865 .0283137
573.654 .0284008
574.443 .0284778
575.232 .0285468
576.020 .0286085
576.807 .0286672
577.594 .0287189
578.381 .0287672
579.167 .0288144
579.952 .0288596
580.738 .0289041
581.522 .0289487
582.307 .0289928
583.091 .0290375
583.874 .0290807
584.657 .0291226
585.440 .0291637
586.222 .0292052
587.004 .0292478
587.785 .0292906
588.566 .0293341
589.346 .0293754
590.126 .0294140
590.906 .0294504
591.685 .0294827
592.464 .0295117
593.242 .0295380
594.020 .0295593
594.797 .0295783
595.575 .0295952
596.351 .0296099
597.128 .0296237
597.904 .0296365
598.679 .0296478
599.454 .0296558
600.229 .0296616
601.004 .0296648
601.778 .0296644
602.551 .0296625
603.325 .0296577
604.097 .0296492
604.870 .0296391
605.642 .0296260
606.414 .0296111
607.185 .0295948
607.956 .0295787
608.727 .0295617
609.497 .0295448
610.267 .0295280
611.037 .0295105
611.806 .0294919
612.575 .0294722
613.344 .0294506
614.112 .0294284
614.880 .0294062
615.647 .0293841
616.414 .0293636
617.181 .0293462
617.948 .0293315
618.714 .0293200
619.480 .0293109
620.245 .0293037
621.011 .0292961
621.775 .0292877
622.540 .0292780
623.304 .0292659
624.068 .0292529
624.832 .0292385
625.595 .0292242
626.358 .0292098
627.120 .0291954
627.883 .0291811
628.645 .0291666
629.406 .0291513
630.168 .0291352
630.929 .0291173
631.689 .0290980
632.450 .0290763
633.210 .0290547
633.970 .0290327
634.729 .0290111
635.489 .0289890
636.248 .0289679
637.006 .0289463
637.765 .0289255
638.523 .0289037
639.280 .0288826
640.038 .0288617
640.795 .0288409
641.552 .0288196
642.309 .0287989
643.065 .0287780
643.821 .0287570
644.577 .0287357
645.332 .0287154
646.088 .0286947
646.843 .0286744
647.597 .0286551
648.352 .0286374
649.106 .0286211
649.860 .0286061
650.613 .0285922
651.367 .0285804
652.120 .0285697
652.872 .0285591
653.625 .0285489
654.377 .0285402
655.129 .0285315
655.881 .0285224
656.632 .0285135
657.384 .0285047
658.135 .0284956
658.885 .0284855
659.636 .0284746
660.386 .0284628
661.136 .0284498
661.885 .0284353
662.635 .0284198
663.384 .0284034
664.133 .0283862
664.881 .0283678
665.630 .0283489
666.378 .0283300
667.126 .0283106
667.874 .0282915
668.621 .0282730
669.368 .0282551
670.115 .0282375
670.862 .0282200
671.608 .0282036
672.354 .0281878
673.100 .0281726
673.846 .0281580
674.591 .0281443
675.337 .0281326
676.082 .0281220
676.826 .0281134
677.571 .0281067
678.315 .0281014
679.059 .0280977
679.803 .0280952
680.547 .0280933
681.290 .0280918
682.033 .0280897
682.776 .0280874
683.518 .0280845
684.261 .0280815
685.003 .0280787
685.745 .0280757
686.487 .0280729
687.228 .0280697
687.969 .0280657
688.710 .0280604
689.451 .0280530
690.192 .0280435
690.932 .0280313
691.672 .0280163
692.412 .0279989
693.152 .0279798
693.891 .0279603
694.630 .0279413
695.369 .0279225
696.108 .0279046
696.846 .0278874
697.585 .0278698
698.323 .0278527
699.061 .0278358
699.798 .0278191
700.536 .0278022
701.273 .0277861
702.010 .0277710
702.746 .0277569
703.483 .0277450
704.219 .0277349
704.955 .0277257
705.691 .0277170
706.427 .0277072
707.162 .0276960
707.897 .0276835
708.632 .0276698
709.367 .0276545
710.101 .0276381
710.835 .0276211
711.569 .0276034
712.303 .0275850
713.037 .0275672
713.770 .0275493
714.503 .0275308
715.236 .0275118
715.969 .0274922
716.702 .0274723
717.434 .0274529
718.166 .0274341
718.898 .0274162
719.629 .0273994
720.361 .0273837
721.092 .0273682
721.823 .0273533
722.554 .0273386
723.284 .0273234
724.014 .0273068
724.744 .0272890
725.474 .0272693
726.204 .0272480
726.933 .0272257
727.662 .0272033
728.391 .0271804
729.120 .0271579
729.849 .0271358
730.577 .0271144
731.305 .0270934
732.033 .0270728
732.760 .0270516
733.488 .0270301
734.215 .0270075
734.942 .0269848
735.669 .0269613
736.395 .0269391
737.122 .0269185
737.848 .0268990
738.573 .0268809
739.299 .0268642
740.024 .0268479
740.750 .0268316
741.474 .0268146
742.199 .0267971
742.924 .0267787
743.648 .0267605
744.372 .0267424
745.096 .0267260
745.819 .0267111
746.543 .0266976
747.266 .0266845
747.989 .0266721
748.711 .0266584
749.434 .0266429
750.156 .0266255
750.878 .0266072
751.599 .0265878
752.321 .0265679
753.042 .0265487
753.763 .0265313
754.484 .0265151
755.205 .0265001
755.925 .0264856
756.645 .0264713
757.365 .0264559
758.085 .0264396
758.804 .0264220
759.523 .0264041
760.242 .0263858
760.961 .0263680
761.679 .0263515
762.397 .0263368
763.115 .0263230
763.833 .0263104
764.551 .0262986
765.268 .0262868
765.985 .0262731
766.702 .0262578
767.418 .0262411
768.134 .0262229
768.850 .0262031
769.566 .0261826
770.282 .0261617
770.997 .0261407
771.712 .0261197
772.427 .0260997
773.142 .0260809
773.856 .0260633
774.570 .0260466
775.284 .0260307
775.998 .0260151
776.711 .0260000
777.424 .0259840
778.137 .0259677
778.849 .0259511
779.562 .0259339
780.274 .0259168
780.986 .0259008
781.697 .0258865
782.409 .0258747
783.120 .0258650
783.831 .0258577
784.541 .0258510
785.252 .0258445
785.962 .0258368
786.671 .0258274
787.381 .0258164
788.090 .0258036
788.799 .0257898
789.508 .0257764
790.217 .0257636
790.925 .0257522
791.633 .0257417
792.341 .0257321
793.048 .0257229
793.755 .0257132
794.462 .0257020
795.169 .0256900
795.875 .0256773
796.581 .0256652
797.287 .0256543
797.993 .0256449
798.698 .0256373
799.403 .0256315
800.108 .0256279
800.812 .0256252
801.517 .0256232
802.221 .0256217
802.924 .0256198
803.628 .0256183
804.331 .0256164
805.034 .0256144
805.736 .0256125
806.439 .0256104
807.141 .0256079
807.843 .0256046
808.544 .0256000
809.245 .0255944
809.946 .0255882
810.647 .0255814
811.347 .0255743
812.047 .0255669
812.747 .0255604
813.447 .0255547
814.146 .0255491
814.845 .0255443
815.543 .0255396
816.242 .0255357
816.940 .0255324
817.638 .0255291
818.335 .0255268
819.032 .0255250
819.729 .0255242
820.426 .0255238
821.122 .0255234
821.818 .0255229
822.514 .0255220
823.209 .0255209
823.905 .0255186
824.599 .0255146
825.294 .0255091
825.988 .0255020
826.682 .0254932
827.376 .0254828
828.069 .0254706
828.762 .0254570
829.455 .0254421
830.147 .0254260
830.840 .0254091
831.531 .0253920
832.223 .0253750
832.914 .0253586
833.605 .0253428
834.296 .0253285
834.986 .0253151
835.676 .0253035
836.366 .0252922
837.055 .0252815
837.744 .0252712
838.433 .0252613
839.121 .0252519
839.809 .0252437
840.497 .0252365
841.185 .0252314
841.872 .0252273
842.559 .0252250
843.245 .0252230
843.932 .0252218
844.617 .0252195
845.303 .0252161
845.988 .0252111
846.673 .0252048
847.358 .0251971
848.042 .0251896
848.726 .0251822
849.410 .0251759
850.093 .0251701
850.776 .0251646
851.459 .0251588
852.141 .0251520
852.823 .0251430
853.505 .0251325
854.186 .0251200
854.867 .0251067
855.548 .0250929
856.228 .0250797
856.908 .0250671
857.588 .0250551
858.267 .0250437
858.946 .0250318
859.625 .0250195
860.303 .0250060
860.981 .0249913
861.659 .0249766
862.336 .0249619
863.013 .0249476
863.690 .0249345
864.366 .0249230
865.042 .0249123
865.718 .0249020
866.393 .0248919
867.068 .0248813
867.743 .0248706
868.417 .0248600
869.091 .0248493
869.765 .0248391
870.438 .0248302
871.111 .0248221
871.783 .0248152
872.456 .0248089
873.127 .0248026
873.799 .0247958
874.470 .0247882
875.141 .0247791
875.811 .0247694
876.481 .0247594
877.151 .0247494
877.820 .0247396
878.489 .0247307
879.158 .0247228
879.826 .0247155
880.494 .0247089
881.162 .0247028
881.829 .0246966
882.496 .0246902
883.163 .0246828
883.829 .0246751
884.495 .0246671
885.160 .0246590
885.825 .0246511
886.490 .0246433
887.154 .0246357
887.818 .0246275
888.482 .0246190
889.145 .0246098
889.808 .0246000
890.471 .0245892
891.133 .0245778
891.795 .0245655
892.456 .0245527
893.117 .0245390
893.778 .0245245
894.439 .0245098
895.099 .0244942
895.758 .0244775
896.417 .0244602
897.076 .0244425
897.735 .0244245
898.393 .0244064
899.051 .0243889
899.708 .0243715
900.365 .0243548
901.022 .0243385
901.678 .0243229
902.334 .0243081
902.990 .0242943
903.645 .0242816
904.300 .0242706
904.954 .0242615
905.608 .0242537
906.262 .0242475
906.915 .0242427
907.568 .0242382
908.221 .0242339
908.873 .0242295
909.525 .0242246
910.176 .0242185
910.828 .0242115
911.478 .0242032
912.129 .0241937
912.778 .0241828
913.428 .0241702
914.077 .0241559
914.726 .0241401
915.375 .0241225
916.023 .0241032
916.670 .0240838
917.318 .0240641
917.964 .0240447
918.611 .0240263
919.257 .0240088
919.903 .0239918
920.548 .0239758
921.193 .0239612
921.838 .0239476
922.482 .0239354
923.126 .0239241
923.770 .0239130
924.413 .0239024
925.056 .0238919
925.698 .0238805
926.340 .0238687
926.982 .0238566
927.623 .0238432
928.264 .0238290
928.904 .0238144
929.544 .0237994
930.184 .0237847
930.823 .0237705
931.462 .0237561
932.101 .0237413
932.739 .0237267
933.377 .0237112
934.014 .0236947
934.651 .0236783
935.288 .0236614
935.924 .0236447
936.560 .0236285
937.196 .0236126
937.831 .0235969
938.466 .0235811
939.100 .0235652
939.734 .0235478
940.368 .0235290
941.001 .0235090
941.634 .0234873
942.266 .0234653
942.899 .0234433
943.530 .0234214
944.162 .0234005
944.793 .0233805
945.423 .0233611
946.053 .0233418
946.683 .0233226
947.313 .0233038
947.942 .0232841
948.571 .0232645
949.199 .0232450
949.827 .0232256
950.455 .0232071
951.082 .0231894
951.709 .0231724
952.335 .0231565
952.961 .0231412
953.587 .0231259
954.212 .0231106
954.837 .0230945
955.462 .0230775
956.086 .0230595
956.710 .0230410
957.334 .0230222
957.957 .0230033
958.579 .0229849
959.202 .0229668
959.824 .0229490
960.445 .0229315
961.067 .0229137
961.688 .0228964
962.308 .0228795
962.928 .0228628
963.548 .0228462
964.168 .0228295
964.787 .0228129
965.406 .0227964
966.024 .0227803
966.642 .0227646
967.260 .0227498
967.877 .0227363
968.494 .0227239
969.110 .0227133
969.727 .0227048
970.342 .0226983
970.958 .0226934
971.573 .0226899
972.188 .0226874
972.802 .0226852
973.416 .0226839
974.030 .0226831
974.643 .0226837
975.256 .0226851
975.869 .0226871
976.481 .0226901
977.093 .0226938
977.705 .0226979
978.316 .0227020
978.927 .0227050
979.538 .0227070
980.148 .0227077
980.758 .0227068
981.367 .0227045
981.977 .0227020
982.586 .0226988
983.194 .0226952
983.802 .0226918
984.410 .0226879
985.018 .0226837
985.625 .0226800
986.232 .0226767
986.838 .0226735
987.445 .0226714
988.050 .0226695
988.656 .0226675
989.261 .0226654
989.866 .0226623
990.471 .0226575
991.075 .0226522
991.679 .0226462
992.282 .0226406
992.886 .0226363
993.489 .0226345
994.091 .0226348
994.694 .0226390
995.296 .0226455
995.897 .0226531
996.499 .0226611
997.100 .0226684
997.701 .0226739
998.301 .0226787
998.901 .0226830
999.501 .0226879
1000.101 .0226942
1000.700 .0227026
1001.299 .0227119
1001.898 .0227225
1002.496 .0227325
1003.094 .0227407
1003.692 .0227463
1004.289 .0227490
1004.887 .0227477
1005.484 .0227445
1006.080 .0227400
1006.677 .0227355
1007.273 .0227316
1007.868 .0227290
1008.464 .0227274
1009.059 .0227262
1009.654 .0227255
1010.249 .0227253
1010.843 .0227250
1011.437 .0227251
1012.031 .0227255
1012.625 .0227281
1013.218 .0227320
1013.811 .0227375
1014.404 .0227451
1014.997 .0227547
1015.589 .0227653
1016.181 .0227763
1016.773 .0227872
1017.365 .0227989
1017.956 .0228108
1018.547 .0228222
1019.138 .0228336
1019.728 .0228464
1020.319 .0228599
1020.909 .0228740
1021.499 .0228890
1022.088 .0229043
1022.678 .0229186
1023.267 .0229331
1023.856 .0229466
1024.445 .0229591
1025.033 .0229705
1025.621 .0229808
1026.209 .0229908
1026.797 .0230005
1027.385 .0230094
1027.972 .0230183
1028.560 .0230280
1029.147 .0230379
1029.734 .0230459
1030.320 .0230530
1030.907 .0230595
1031.493 .0230653
1032.079 .0230701
1032.665 .0230746
1033.250 .0230793
1033.836 .0230844
1034.421 .0230887
1035.006 .0230926
1035.591 .0230949
1036.176 .0230953
1036.761 .0230939
1037.345 .0230910
1037.929 .0230869
1038.514 .0230826
1039.097 .0230793
1039.681 .0230776
1040.265 .0230775
1040.848 .0230788
1041.432 .0230801
1042.015 .0230819
1042.598 .0230829
1043.181 .0230813
1043.764 .0230782
1044.346 .0230751
1044.929 .0230729
1045.511 .0230721
1046.094 .0230737
1046.676 .0230779
1047.258 .0230836
1047.840 .0230904
1048.422 .0230958
1049.003 .0231001
1049.585 .0231029
1050.166 .0231036
1050.748 .0231037
1051.329 .0231038
1051.910 .0231063
1052.491 .0231111
1053.072 .0231188
1053.653 .0231289
1054.234 .0231413
1054.815 .0231545
1055.396 .0231680
1055.976 .0231816
1056.557 .0231947
1057.138 .0232071
1057.718 .0232189
1058.298 .0232289
1058.879 .0232360
1059.459 .0232404
1060.039 .0232425
1060.620 .0232421
1061.200 .0232403
1061.780 .0232366
1062.360 .0232331
1062.940 .0232303
1063.520 .0232294
1064.101 .0232289
1064.681 .0232285
1065.261 .0232286
1065.841 .0232275
1066.421 .0232250
1067.001 .0232212
1067.581 .0232171
1068.161 .0232135
1068.741 .0232119
1069.321 .0232128
1069.901 .0232151
1070.482 .0232178
1071.062 .0232204
1071.642 .0232208
1072.222 .0232159
1072.803 .0232064
1073.383 .0231922
1073.963 .0231738
1074.544 .0231526
1075.124 .0231295
1075.705 .0231076
1076.286 .0230883
1076.866 .0230743
1077.447 .0230619
1078.028 .0230524
1078.609 .0230465
1079.190 .0230411
1079.771 .0230355
1080.352 .0230312
1080.934 .0230264
1081.515 .0230210
1082.097 .0230173
1082.679 .0230150
1083.260 .0230140
1083.842 .0230162
1084.424 .0230200
1085.007 .0230253
1085.589 .0230299
1086.172 .0230330
1086.754 .0230328
1087.337 .0230304
1087.920 .0230260
1088.503 .0230183
1089.087 .0230111
1089.670 .0230057
1090.254 .0230033
1090.838 .0230045
1091.422 .0230118
1092.006 .0230264
1092.590 .0230457
1093.175 .0230675
1093.760 .0230900
1094.345 .0231099
1094.930 .0231257
1095.516 .0231354
1096.102 .0231400
1096.688 .0231397
1097.274 .0231380
1097.860 .0231359
1098.447 .0231365
1099.034 .0231432
1099.622 .0231545
1100.209 .0231682
1100.797 .0231842
1101.385 .0231975
1101.973 .0232068
1102.562 .0232128
1103.151 .0232144
1103.740 .0232130
1104.330 .0232113
1104.920 .0232084
1105.510 .0232064
1106.101 .0232043
1106.691 .0232016
1107.283 .0231964
1107.874 .0231891
1108.466 .0231790
1109.058 .0231611
1109.651 .0231422
1110.244 .0231226
1110.837 .0231017
1111.431 .0230829
1112.025 .0230630
1112.620 .0230423
1113.215 .0230244
1113.810 .0230069
1114.406 .0229934
1115.002 .0229840
1115.599 .0229811
1116.196 .0229809
1116.793 .0229837
1117.391 .0229892
1117.989 .0229962
1118.588 .0230014
1119.187 .0230076
1119.787 .0230108
1120.387 .0230137
1120.988 .0230147
1121.589 .0230152
1122.190 .0230158
1122.793 .0230172
1123.395 .0230142
1123.998 .0230097
1124.602 .0230020
1125.206 .0229972
1125.811 .0229904
1126.416 .0229836
1127.022 .0229780
1127.628 .0229684
1128.235 .0229548
1128.843 .0229375
1129.451 .0229112
1130.059 .0228756
1130.669 .0228296
1131.278 .0227815
1131.889 .0227313
1132.500 .0226821
1133.112 .0226368
1133.724 .0225997
1134.337 .0225705
1134.950 .0225448
1135.564 .0225213
1136.179 .0225055
1136.795 .0225023
1137.411 .0225129
1138.028 .0225393
1138.645 .0225831
1139.263 .0226577
1139.882 .0227518
1140.502 .0228642
1141.122 .0229937
1141.743 .0231506
1142.365 .0233455
1142.987 .0233480
1143.611 .0235597
1144.235 .0237650
1144.859 .0243975
1145.485 .0250989
