Measurement Sequence started on: 10-20-44-796
Integration time: 35
Scans to Average: 2 
>>>>>Begin Spectral Data<<<<<
432.953 .0238618
433.882 .0241367
434.810 .0311112
435.737 .0319039
436.662 .0309840
437.586 .0312739
438.509 .0317849
439.431 .0320602
440.351 .0320512
441.269 .0319876
442.187 .0319288
443.103 .0318325
444.018 .0317698
444.932 .0317369
445.844 .0317257
446.756 .0317118
447.666 .0317309
448.575 .0317361
449.482 .0317665
450.388 .0317961
451.294 .0318457
452.198 .0318975
453.100 .0319462
454.002 .0319922
454.902 .0320407
455.801 .0320784
456.699 .0321086
457.596 .0321322
458.492 .0321497
459.387 .0321602
460.280 .0321628
461.172 .0321550
462.064 .0321399
462.954 .0321042
463.843 .0320563
464.730 .0319931
465.617 .0319233
466.503 .0318441
467.387 .0317618
468.271 .0316862
469.153 .0316169
470.035 .0315529
470.915 .0314976
471.794 .0314480
472.673 .0314019
473.550 .0313592
474.426 .0313161
475.301 .0312771
476.175 .0312388
477.048 .0311993
477.920 .0311659
478.791 .0311338
479.661 .0311089
480.530 .0310896
481.398 .0310773
482.266 .0310761
483.132 .0310801
483.997 .0310918
484.861 .0311058
485.724 .0311278
486.587 .0311534
487.448 .0311773
488.308 .0311998
489.168 .0312208
490.026 .0312358
490.884 .0312460
491.741 .0312509
492.597 .0312501
493.452 .0312477
494.306 .0312423
495.159 .0312349
496.011 .0312273
496.862 .0312176
497.713 .0312015
498.562 .0311731
499.411 .0311320
500.259 .0310721
501.106 .0309952
501.952 .0309072
502.798 .0308133
503.642 .0307217
504.486 .0306349
505.329 .0305600
506.171 .0304950
507.012 .0304392
507.852 .0303817
508.692 .0303165
509.531 .0302371
510.369 .0301416
511.206 .0300258
512.043 .0299028
512.878 .0297725
513.713 .0296460
514.547 .0295241
515.381 .0294076
516.213 .0292913
517.045 .0291689
517.876 .0290248
518.706 .0288550
519.536 .0286563
520.365 .0284311
521.193 .0281768
522.020 .0279188
522.847 .0276591
523.673 .0274087
524.498 .0271650
525.323 .0269320
526.146 .0267064
526.969 .0264898
527.792 .0262720
528.614 .0260473
529.435 .0258273
530.255 .0256155
531.075 .0254078
531.894 .0252186
532.712 .0250464
533.530 .0248904
534.347 .0247433
535.163 .0245954
535.979 .0244577
536.794 .0243313
537.608 .0242216
538.422 .0241334
539.235 .0240694
540.048 .0240327
540.860 .0240220
541.671 .0240358
542.481 .0240705
543.292 .0241189
544.101 .0241822
544.910 .0242460
545.718 .0243246
546.526 .0244215
547.333 .0245343
548.139 .0246714
548.945 .0248335
549.750 .0250035
550.555 .0251754
551.359 .0253444
552.162 .0255035
552.965 .0256484
553.768 .0257760
554.569 .0258845
555.371 .0259739
556.171 .0260538
556.972 .0261219
557.771 .0261813
558.570 .0262416
559.369 .0263023
560.167 .0263617
560.964 .0264243
561.761 .0264918
562.558 .0265665
563.354 .0266483
564.149 .0267354
564.944 .0268217
565.738 .0269045
566.532 .0269851
567.325 .0270637
568.118 .0271416
568.910 .0272244
569.702 .0273101
570.494 .0274026
571.285 .0274980
572.075 .0275936
572.865 .0276881
573.654 .0277755
574.443 .0278525
575.232 .0279155
576.020 .0279671
576.807 .0280079
577.594 .0280430
578.381 .0280752
579.167 .0281070
579.952 .0281437
580.738 .0281839
581.522 .0282291
582.307 .0282777
583.091 .0283285
583.874 .0283777
584.657 .0284242
585.440 .0284700
586.222 .0285114
587.004 .0285531
587.785 .0285942
588.566 .0286355
589.346 .0286775
590.126 .0287186
590.906 .0287562
591.685 .0287902
592.464 .0288183
593.242 .0288406
594.020 .0288572
594.797 .0288697
595.575 .0288787
596.351 .0288868
597.128 .0288948
597.904 .0289022
598.679 .0289090
599.454 .0289149
600.229 .0289186
601.004 .0289199
601.778 .0289175
602.551 .0289115
603.325 .0289017
604.097 .0288898
604.870 .0288751
605.642 .0288588
606.414 .0288415
607.185 .0288240
607.956 .0288064
608.727 .0287881
609.497 .0287694
610.267 .0287491
611.037 .0287287
611.806 .0287071
612.575 .0286842
613.344 .0286606
614.112 .0286374
614.880 .0286152
615.647 .0285938
616.414 .0285741
617.181 .0285569
617.948 .0285415
618.714 .0285284
619.480 .0285162
620.245 .0285044
621.011 .0284922
621.775 .0284796
622.540 .0284657
623.304 .0284520
624.068 .0284379
624.832 .0284247
625.595 .0284129
626.358 .0284035
627.120 .0283950
627.883 .0283869
628.645 .0283802
629.406 .0283739
630.168 .0283662
630.929 .0283583
631.689 .0283494
632.450 .0283397
633.210 .0283286
633.970 .0283161
634.729 .0283019
635.489 .0282863
636.248 .0282696
637.006 .0282519
637.765 .0282340
638.523 .0282165
639.280 .0281986
640.038 .0281810
640.795 .0281638
641.552 .0281456
642.309 .0281265
643.065 .0281077
643.821 .0280896
644.577 .0280722
645.332 .0280566
646.088 .0280432
646.843 .0280325
647.597 .0280246
648.352 .0280195
649.106 .0280155
649.860 .0280117
650.613 .0280062
651.367 .0279986
652.120 .0279886
652.872 .0279764
653.625 .0279622
654.377 .0279470
655.129 .0279312
655.881 .0279151
656.632 .0278983
657.384 .0278813
658.135 .0278638
658.885 .0278462
659.636 .0278268
660.386 .0278062
661.136 .0277843
661.885 .0277615
662.635 .0277385
663.384 .0277165
664.133 .0276945
664.881 .0276735
665.630 .0276534
666.378 .0276347
667.126 .0276162
667.874 .0275983
668.621 .0275806
669.368 .0275622
670.115 .0275431
670.862 .0275228
671.608 .0275019
672.354 .0274823
673.100 .0274642
673.846 .0274477
674.591 .0274329
675.337 .0274201
676.082 .0274083
676.826 .0273966
677.571 .0273846
678.315 .0273718
679.059 .0273576
679.803 .0273430
680.547 .0273282
681.290 .0273132
682.033 .0272993
682.776 .0272867
683.518 .0272749
684.261 .0272634
685.003 .0272513
685.745 .0272376
686.487 .0272223
687.228 .0272052
687.969 .0271861
688.710 .0271664
689.451 .0271474
690.192 .0271294
690.932 .0271126
691.672 .0270973
692.412 .0270832
693.152 .0270696
693.891 .0270559
694.630 .0270416
695.369 .0270268
696.108 .0270122
696.846 .0269974
697.585 .0269828
698.323 .0269691
699.061 .0269559
699.798 .0269437
700.536 .0269315
701.273 .0269191
702.010 .0269063
702.746 .0268920
703.483 .0268772
704.219 .0268618
704.955 .0268467
705.691 .0268320
706.427 .0268179
707.162 .0268048
707.897 .0267921
708.632 .0267793
709.367 .0267662
710.101 .0267519
710.835 .0267370
711.569 .0267212
712.303 .0267044
713.037 .0266882
713.770 .0266729
714.503 .0266590
715.236 .0266468
715.969 .0266357
716.702 .0266258
717.434 .0266160
718.166 .0266060
718.898 .0265955
719.629 .0265840
720.361 .0265719
721.092 .0265596
721.823 .0265472
722.554 .0265356
723.284 .0265245
724.014 .0265146
724.744 .0265049
725.474 .0264954
726.204 .0264855
726.933 .0264745
727.662 .0264630
728.391 .0264515
729.120 .0264397
729.849 .0264288
730.577 .0264184
731.305 .0264090
732.033 .0264003
732.760 .0263917
733.488 .0263823
734.215 .0263725
734.942 .0263616
735.669 .0263496
736.395 .0263361
737.122 .0263223
737.848 .0263077
738.573 .0262927
739.299 .0262770
740.024 .0262603
740.750 .0262427
741.474 .0262242
742.199 .0262036
742.924 .0261825
743.648 .0261611
744.372 .0261403
745.096 .0261200
745.819 .0261016
746.543 .0260845
747.266 .0260693
747.989 .0260561
748.711 .0260448
749.434 .0260349
750.156 .0260273
750.878 .0260209
751.599 .0260167
752.321 .0260147
753.042 .0260149
753.763 .0260165
754.484 .0260202
755.205 .0260246
755.925 .0260288
756.645 .0260317
757.365 .0260333
758.085 .0260325
758.804 .0260291
759.523 .0260221
760.242 .0260121
760.961 .0259995
761.679 .0259845
762.397 .0259672
763.115 .0259483
763.833 .0259277
764.551 .0259059
765.268 .0258819
765.985 .0258567
766.702 .0258296
767.418 .0258013
768.134 .0257723
768.850 .0257430
769.566 .0257140
770.282 .0256855
770.997 .0256586
771.712 .0256339
772.427 .0256111
773.142 .0255900
773.856 .0255706
774.570 .0255521
775.284 .0255346
775.998 .0255173
776.711 .0254997
777.424 .0254822
778.137 .0254645
778.849 .0254470
779.562 .0254291
780.274 .0254114
780.986 .0253942
781.697 .0253773
782.409 .0253617
783.120 .0253469
783.831 .0253331
784.541 .0253209
785.252 .0253099
785.962 .0252994
786.671 .0252889
787.381 .0252779
788.090 .0252666
788.799 .0252546
789.508 .0252421
790.217 .0252293
790.925 .0252169
791.633 .0252056
792.341 .0251955
793.048 .0251866
793.755 .0251789
794.462 .0251714
795.169 .0251639
795.875 .0251557
796.581 .0251456
797.287 .0251340
797.993 .0251208
798.698 .0251066
799.403 .0250914
800.108 .0250756
800.812 .0250599
801.517 .0250446
802.221 .0250298
802.924 .0250153
803.628 .0250003
804.331 .0249858
805.034 .0249710
805.736 .0249562
806.439 .0249414
807.141 .0249269
807.843 .0249128
808.544 .0248989
809.245 .0248851
809.946 .0248718
810.647 .0248590
811.347 .0248467
812.047 .0248349
812.747 .0248234
813.447 .0248128
814.146 .0248031
814.845 .0247937
815.543 .0247851
816.242 .0247766
816.940 .0247680
817.638 .0247587
818.335 .0247489
819.032 .0247379
819.729 .0247265
820.426 .0247149
821.122 .0247028
821.818 .0246905
822.514 .0246787
823.209 .0246672
823.905 .0246557
824.599 .0246442
825.294 .0246319
825.988 .0246181
826.682 .0246037
827.376 .0245872
828.069 .0245693
828.762 .0245506
829.455 .0245315
830.147 .0245127
830.840 .0244951
831.531 .0244790
832.223 .0244646
832.914 .0244520
833.605 .0244409
834.296 .0244300
834.986 .0244199
835.676 .0244104
836.366 .0244010
837.055 .0243918
837.744 .0243836
838.433 .0243756
839.121 .0243691
839.809 .0243636
840.497 .0243593
841.185 .0243555
841.872 .0243519
842.559 .0243480
843.245 .0243430
843.932 .0243374
844.617 .0243313
845.303 .0243247
845.988 .0243183
846.673 .0243121
847.358 .0243063
848.042 .0243017
848.726 .0242980
849.410 .0242946
850.093 .0242917
850.776 .0242890
851.459 .0242860
852.141 .0242825
852.823 .0242783
853.505 .0242744
854.186 .0242705
854.867 .0242668
855.548 .0242630
856.228 .0242594
856.908 .0242559
857.588 .0242526
858.267 .0242491
858.946 .0242453
859.625 .0242411
860.303 .0242360
860.981 .0242297
861.659 .0242227
862.336 .0242152
863.013 .0242073
863.690 .0241995
864.366 .0241922
865.042 .0241846
865.718 .0241776
866.393 .0241707
867.068 .0241641
867.743 .0241582
868.417 .0241525
869.091 .0241470
869.765 .0241418
870.438 .0241367
871.111 .0241311
871.783 .0241255
872.456 .0241201
873.127 .0241146
873.799 .0241090
874.470 .0241032
875.141 .0240977
875.811 .0240928
876.481 .0240887
877.151 .0240854
877.820 .0240826
878.489 .0240802
879.158 .0240771
879.826 .0240733
880.494 .0240679
881.162 .0240613
881.829 .0240536
882.496 .0240454
883.163 .0240371
883.829 .0240295
884.495 .0240230
885.160 .0240182
885.825 .0240148
886.490 .0240121
887.154 .0240095
887.818 .0240064
888.482 .0240025
889.145 .0239978
889.808 .0239926
890.471 .0239876
891.133 .0239833
891.795 .0239805
892.456 .0239790
893.117 .0239790
893.778 .0239798
894.439 .0239816
895.099 .0239833
895.758 .0239837
896.417 .0239823
897.076 .0239792
897.735 .0239743
898.393 .0239679
899.051 .0239602
899.708 .0239519
900.365 .0239431
901.022 .0239341
901.678 .0239241
902.334 .0239136
902.990 .0239024
903.645 .0238904
904.300 .0238776
904.954 .0238649
905.608 .0238520
906.262 .0238394
906.915 .0238286
907.568 .0238195
908.221 .0238121
908.873 .0238069
909.525 .0238036
910.176 .0238019
910.828 .0238008
911.478 .0237992
912.129 .0237966
912.778 .0237932
913.428 .0237881
914.077 .0237811
914.726 .0237727
915.375 .0237635
916.023 .0237532
916.670 .0237422
917.318 .0237303
917.964 .0237170
918.611 .0237020
919.257 .0236850
919.903 .0236651
920.548 .0236428
921.193 .0236193
921.838 .0235953
922.482 .0235724
923.126 .0235513
923.770 .0235330
924.413 .0235182
925.056 .0235070
925.698 .0234986
926.340 .0234920
926.982 .0234873
927.623 .0234833
928.264 .0234791
928.904 .0234755
929.544 .0234722
930.184 .0234698
930.823 .0234684
931.462 .0234677
932.101 .0234665
932.739 .0234639
933.377 .0234596
934.014 .0234529
934.651 .0234437
935.288 .0234318
935.924 .0234181
936.560 .0234035
937.196 .0233883
937.831 .0233721
938.466 .0233552
939.100 .0233380
939.734 .0233195
940.368 .0232995
941.001 .0232775
941.634 .0232547
942.266 .0232315
942.899 .0232091
943.530 .0231881
944.162 .0231686
944.793 .0231508
945.423 .0231338
946.053 .0231168
946.683 .0230986
947.313 .0230788
947.942 .0230579
948.571 .0230358
949.199 .0230133
949.827 .0229903
950.455 .0229682
951.082 .0229476
951.709 .0229277
952.335 .0229080
952.961 .0228881
953.587 .0228669
954.212 .0228445
954.837 .0228208
955.462 .0227961
956.086 .0227715
956.710 .0227477
957.334 .0227252
957.957 .0227041
958.579 .0226845
959.202 .0226661
959.824 .0226479
960.445 .0226307
961.067 .0226131
961.688 .0225953
962.308 .0225784
962.928 .0225618
963.548 .0225460
964.168 .0225314
964.787 .0225176
965.406 .0225044
966.024 .0224917
966.642 .0224790
967.260 .0224659
967.877 .0224521
968.494 .0224380
969.110 .0224228
969.727 .0224071
970.342 .0223912
970.958 .0223753
971.573 .0223598
972.188 .0223452
972.802 .0223315
973.416 .0223197
974.030 .0223090
974.643 .0223000
975.256 .0222919
975.869 .0222845
976.481 .0222777
977.093 .0222707
977.705 .0222633
978.316 .0222557
978.927 .0222474
979.538 .0222387
980.148 .0222293
980.758 .0222196
981.367 .0222098
981.977 .0222006
982.586 .0221919
983.194 .0221837
983.802 .0221759
984.410 .0221684
985.018 .0221604
985.625 .0221520
986.232 .0221427
986.838 .0221327
987.445 .0221225
988.050 .0221131
988.656 .0221050
989.261 .0220981
989.866 .0220932
990.471 .0220892
991.075 .0220858
991.679 .0220817
992.282 .0220758
992.886 .0220679
993.489 .0220584
994.091 .0220475
994.694 .0220361
995.296 .0220255
995.897 .0220166
996.499 .0220091
997.100 .0220034
997.701 .0219986
998.301 .0219942
998.901 .0219900
999.501 .0219859
1000.101 .0219812
1000.700 .0219771
1001.299 .0219732
1001.898 .0219699
1002.496 .0219669
1003.094 .0219641
1003.692 .0219613
1004.289 .0219580
1004.887 .0219546
1005.484 .0219507
1006.080 .0219472
1006.677 .0219448
1007.273 .0219427
1007.868 .0219413
1008.464 .0219401
1009.059 .0219387
1009.654 .0219370
1010.249 .0219350
1010.843 .0219336
1011.437 .0219340
1012.031 .0219363
1012.625 .0219410
1013.218 .0219476
1013.811 .0219557
1014.404 .0219638
1014.997 .0219705
1015.589 .0219751
1016.181 .0219772
1016.773 .0219771
1017.365 .0219758
1017.956 .0219745
1018.547 .0219741
1019.138 .0219745
1019.728 .0219759
1020.319 .0219782
1020.909 .0219808
1021.499 .0219827
1022.088 .0219842
1022.678 .0219855
1023.267 .0219874
1023.856 .0219897
1024.445 .0219933
1025.033 .0219987
1025.621 .0220057
1026.209 .0220129
1026.797 .0220207
1027.385 .0220287
1027.972 .0220363
1028.560 .0220434
1029.147 .0220502
1029.734 .0220568
1030.320 .0220628
1030.907 .0220671
1031.493 .0220705
1032.079 .0220724
1032.665 .0220735
1033.250 .0220730
1033.836 .0220725
1034.421 .0220728
1035.006 .0220746
1035.591 .0220774
1036.176 .0220817
1036.761 .0220866
1037.345 .0220911
1037.929 .0220936
1038.514 .0220946
1039.097 .0220949
1039.681 .0220946
1040.265 .0220946
1040.848 .0220965
1041.432 .0220996
1042.015 .0221042
1042.598 .0221089
1043.181 .0221129
1043.764 .0221153
1044.346 .0221156
1044.929 .0221144
1045.511 .0221125
1046.094 .0221111
1046.676 .0221111
1047.258 .0221129
1047.840 .0221184
1048.422 .0221259
1049.003 .0221337
1049.585 .0221421
1050.166 .0221498
1050.748 .0221554
1051.329 .0221587
1051.910 .0221599
1052.491 .0221617
1053.072 .0221641
1053.653 .0221685
1054.234 .0221736
1054.815 .0221802
1055.396 .0221880
1055.976 .0221940
1056.557 .0221975
1057.138 .0221997
1057.718 .0222000
1058.298 .0222000
1058.879 .0221999
1059.459 .0222021
1060.039 .0222066
1060.620 .0222140
1061.200 .0222234
1061.780 .0222338
1062.360 .0222427
1062.940 .0222503
1063.520 .0222546
1064.101 .0222560
1064.681 .0222541
1065.261 .0222502
1065.841 .0222453
1066.421 .0222416
1067.001 .0222394
1067.581 .0222380
1068.161 .0222372
1068.741 .0222389
1069.321 .0222392
1069.901 .0222375
1070.482 .0222353
1071.062 .0222323
1071.642 .0222284
1072.222 .0222262
1072.803 .0222255
1073.383 .0222277
1073.963 .0222324
1074.544 .0222380
1075.124 .0222423
1075.705 .0222469
1076.286 .0222506
1076.866 .0222518
1077.447 .0222509
1078.028 .0222502
1078.609 .0222481
1079.190 .0222474
1079.771 .0222494
1080.352 .0222516
1080.934 .0222540
1081.515 .0222570
1082.097 .0222589
1082.679 .0222599
1083.260 .0222598
1083.842 .0222607
1084.424 .0222604
1085.007 .0222625
1085.589 .0222646
1086.172 .0222665
1086.754 .0222713
1087.337 .0222785
1087.920 .0222849
1088.503 .0222918
1089.087 .0222981
1089.670 .0223040
1090.254 .0223108
1090.838 .0223188
1091.422 .0223269
1092.006 .0223361
1092.590 .0223460
1093.175 .0223557
1093.760 .0223620
1094.345 .0223673
1094.930 .0223674
1095.516 .0223656
1096.102 .0223609
1096.688 .0223541
1097.274 .0223475
1097.860 .0223426
1098.447 .0223398
1099.034 .0223391
1099.622 .0223368
1100.209 .0223350
1100.797 .0223311
1101.385 .0223244
1101.973 .0223135
1102.562 .0222983
1103.151 .0222812
1103.740 .0222659
1104.330 .0222520
1104.920 .0222408
1105.510 .0222344
1106.101 .0222356
1106.691 .0222376
1107.283 .0222414
1107.874 .0222458
1108.466 .0222479
1109.058 .0222480
1109.651 .0222472
1110.244 .0222449
1110.837 .0222468
1111.431 .0222548
1112.025 .0222690
1112.620 .0222921
1113.215 .0223222
1113.810 .0223556
1114.406 .0223913
1115.002 .0224259
1115.599 .0224545
1116.196 .0224726
1116.793 .0224839
1117.391 .0224858
1117.989 .0224793
1118.588 .0224654
1119.187 .0224471
1119.787 .0224291
1120.387 .0224120
1120.988 .0223968
1121.589 .0223842
1122.190 .0223742
1122.793 .0223665
1123.395 .0223581
1123.998 .0223505
1124.602 .0223464
1125.206 .0223469
1125.811 .0223528
1126.416 .0223660
1127.022 .0223860
1127.628 .0224125
1128.235 .0224451
1128.843 .0224879
1129.451 .0225335
1130.059 .0225807
1130.669 .0226262
1131.278 .0226676
1131.889 .0227004
1132.500 .0227227
1133.112 .0227376
1133.724 .0227487
1134.337 .0227599
1134.950 .0227699
1135.564 .0227807
1136.179 .0227970
1136.795 .0228178
1137.411 .0228410
1138.028 .0228625
1138.645 .0228792
1139.263 .0228941
1139.882 .0228997
1140.502 .0229158
1141.122 .0229275
1141.743 .0229453
1142.365 .0229646
1142.987 .0228154
1143.611 .0232959
1144.235 .0230092
1144.859 .0230225
1145.485 .0230226
