Measurement Sequence started on: 10-20-44-796
Integration time: 35
Scans to Average: 2 
>>>>>Begin Spectral Data<<<<<
432.953 .0578143
433.882 .0282491
434.810 .0246779
435.737 .0295078
436.662 .0274490
437.586 .0312619
438.509 .0312061
439.431 .0322618
440.351 .0333707
441.269 .0342628
442.187 .0351070
443.103 .0357847
444.018 .0363214
444.932 .0367560
445.844 .0371018
446.756 .0374167
447.666 .0376854
448.575 .0378965
449.482 .0380627
450.388 .0381646
451.294 .0382045
452.198 .0381851
453.100 .0381210
454.002 .0380269
454.902 .0379081
455.801 .0377945
456.699 .0376930
457.596 .0376091
458.492 .0375455
459.387 .0375011
460.280 .0374673
461.172 .0374389
462.064 .0374084
462.954 .0373692
463.843 .0373204
464.730 .0372780
465.617 .0372350
466.503 .0371913
467.387 .0371488
468.271 .0371030
469.153 .0370577
470.035 .0370126
470.915 .0369626
471.794 .0368994
472.673 .0368326
473.550 .0367614
474.426 .0366822
475.301 .0365998
476.175 .0365248
477.048 .0364510
477.920 .0363813
478.791 .0363133
479.661 .0362420
480.530 .0361714
481.398 .0361062
482.266 .0360404
483.132 .0359776
483.997 .0359143
484.861 .0358544
485.724 .0357964
486.587 .0357457
487.448 .0356896
488.308 .0356300
489.168 .0355711
490.026 .0355097
490.884 .0354416
491.741 .0353747
492.597 .0353087
493.452 .0352513
494.306 .0351990
495.159 .0351504
496.011 .0351088
496.862 .0350739
497.713 .0350391
498.562 .0350029
499.411 .0349653
500.259 .0349287
501.106 .0348890
501.952 .0348512
502.798 .0348114
503.642 .0347689
504.486 .0347241
505.329 .0346717
506.171 .0346086
507.012 .0345363
507.852 .0344470
508.692 .0343513
509.531 .0342466
510.369 .0341343
511.206 .0340260
512.043 .0339196
512.878 .0338166
513.713 .0337146
514.547 .0336093
515.381 .0335051
516.213 .0333985
517.045 .0332925
517.876 .0331813
518.706 .0330756
519.536 .0329751
520.365 .0328761
521.193 .0327804
522.020 .0326886
522.847 .0325812
523.673 .0324619
524.498 .0323212
525.323 .0321452
526.146 .0319513
526.969 .0317369
527.792 .0315069
528.614 .0312694
529.435 .0310329
530.255 .0308129
531.075 .0306010
531.894 .0304139
532.712 .0302368
533.530 .0300745
534.347 .0299297
535.163 .0297856
535.979 .0296494
536.794 .0295323
537.608 .0294256
538.422 .0293326
539.235 .0292600
540.048 .0292129
540.860 .0291963
541.671 .0292051
542.481 .0292326
543.292 .0292783
544.101 .0293247
544.910 .0293769
545.718 .0294142
546.526 .0294490
547.333 .0294738
548.139 .0294918
548.945 .0295123
549.750 .0295300
550.555 .0295616
551.359 .0296065
552.162 .0296614
552.965 .0297265
553.768 .0297912
554.569 .0298548
555.371 .0299117
556.171 .0299642
556.972 .0300045
557.771 .0300382
558.570 .0300655
559.369 .0300936
560.167 .0301196
560.964 .0301536
561.761 .0301934
562.558 .0302397
563.354 .0302979
564.149 .0303596
564.944 .0304285
565.738 .0305095
566.532 .0306012
567.325 .0306976
568.118 .0307911
568.910 .0308874
569.702 .0309765
570.494 .0310647
571.285 .0311452
572.075 .0312215
572.865 .0312959
573.654 .0313688
574.443 .0314367
575.232 .0315030
576.020 .0315704
576.807 .0316329
577.594 .0316911
578.381 .0317464
579.167 .0317961
579.952 .0318430
580.738 .0318903
581.522 .0319383
582.307 .0319839
583.091 .0320344
583.874 .0320842
584.657 .0321378
585.440 .0321934
586.222 .0322479
587.004 .0323004
587.785 .0323518
588.566 .0323972
589.346 .0324326
590.126 .0324612
590.906 .0324822
591.685 .0324950
592.464 .0324998
593.242 .0324983
594.020 .0324915
594.797 .0324822
595.575 .0324717
596.351 .0324576
597.128 .0324433
597.904 .0324272
598.679 .0324076
599.454 .0323847
600.229 .0323599
601.004 .0323345
601.778 .0323091
602.551 .0322865
603.325 .0322667
604.097 .0322501
604.870 .0322367
605.642 .0322253
606.414 .0322147
607.185 .0322033
607.956 .0321893
608.727 .0321727
609.497 .0321550
610.267 .0321365
611.037 .0321177
611.806 .0321014
612.575 .0320873
613.344 .0320743
614.112 .0320610
614.880 .0320468
615.647 .0320312
616.414 .0320132
617.181 .0319929
617.948 .0319704
618.714 .0319473
619.480 .0319242
620.245 .0319018
621.011 .0318809
621.775 .0318617
622.540 .0318428
623.304 .0318238
624.068 .0318048
624.832 .0317848
625.595 .0317630
626.358 .0317399
627.120 .0317153
627.883 .0316903
628.645 .0316640
629.406 .0316378
630.168 .0316107
630.929 .0315843
631.689 .0315588
632.450 .0315341
633.210 .0315109
633.970 .0314899
634.729 .0314704
635.489 .0314520
636.248 .0314339
637.006 .0314153
637.765 .0313953
638.523 .0313750
639.280 .0313537
640.038 .0313318
640.795 .0313103
641.552 .0312897
642.309 .0312703
643.065 .0312518
643.821 .0312343
644.577 .0312160
645.332 .0311964
646.088 .0311737
646.843 .0311467
647.597 .0311166
648.352 .0310851
649.106 .0310523
649.860 .0310195
650.613 .0309880
651.367 .0309582
652.120 .0309304
652.872 .0309052
653.625 .0308819
654.377 .0308609
655.129 .0308415
655.881 .0308237
656.632 .0308067
657.384 .0307918
658.135 .0307788
658.885 .0307677
659.636 .0307584
660.386 .0307503
661.136 .0307420
661.885 .0307341
662.635 .0307269
663.384 .0307196
664.133 .0307121
664.881 .0307041
665.630 .0306958
666.378 .0306870
667.126 .0306769
667.874 .0306655
668.621 .0306533
669.368 .0306405
670.115 .0306260
670.862 .0306104
671.608 .0305948
672.354 .0305795
673.100 .0305643
673.846 .0305502
674.591 .0305363
675.337 .0305228
676.082 .0305100
676.826 .0304970
677.571 .0304838
678.315 .0304702
679.059 .0304554
679.803 .0304401
680.547 .0304247
681.290 .0304088
682.033 .0303920
682.776 .0303753
683.518 .0303582
684.261 .0303412
685.003 .0303241
685.745 .0303073
686.487 .0302903
687.228 .0302737
687.969 .0302563
688.710 .0302375
689.451 .0302180
690.192 .0301976
690.932 .0301758
691.672 .0301536
692.412 .0301310
693.152 .0301088
693.891 .0300875
694.630 .0300679
695.369 .0300496
696.108 .0300326
696.846 .0300164
697.585 .0300001
698.323 .0299830
699.061 .0299649
699.798 .0299454
700.536 .0299253
701.273 .0299051
702.010 .0298856
702.746 .0298672
703.483 .0298505
704.219 .0298348
704.955 .0298198
705.691 .0298045
706.427 .0297880
707.162 .0297695
707.897 .0297488
708.632 .0297263
709.367 .0297028
710.101 .0296789
710.835 .0296551
711.569 .0296325
712.303 .0296113
713.037 .0295903
713.770 .0295700
714.503 .0295495
715.236 .0295286
715.969 .0295074
716.702 .0294865
717.434 .0294662
718.166 .0294468
718.898 .0294284
719.629 .0294108
720.361 .0293947
721.092 .0293794
721.823 .0293634
722.554 .0293467
723.284 .0293297
724.014 .0293101
724.744 .0292887
725.474 .0292659
726.204 .0292421
726.933 .0292173
727.662 .0291919
728.391 .0291656
729.120 .0291384
729.849 .0291106
730.577 .0290819
731.305 .0290514
732.033 .0290209
732.760 .0289894
733.488 .0289572
734.215 .0289255
734.942 .0288949
735.669 .0288654
736.395 .0288390
737.122 .0288150
737.848 .0287931
738.573 .0287731
739.299 .0287550
740.024 .0287382
740.750 .0287224
741.474 .0287081
742.199 .0286945
742.924 .0286822
743.648 .0286713
744.372 .0286614
745.096 .0286532
745.819 .0286463
746.543 .0286398
747.266 .0286333
747.989 .0286264
748.711 .0286187
749.434 .0286099
750.156 .0286007
750.878 .0285913
751.599 .0285826
752.321 .0285743
753.042 .0285664
753.763 .0285589
754.484 .0285519
755.205 .0285449
755.925 .0285376
756.645 .0285301
757.365 .0285220
758.085 .0285134
758.804 .0285043
759.523 .0284945
760.242 .0284848
760.961 .0284750
761.679 .0284649
762.397 .0284539
763.115 .0284417
763.833 .0284281
764.551 .0284127
765.268 .0283959
765.985 .0283777
766.702 .0283583
767.418 .0283380
768.134 .0283176
768.850 .0282973
769.566 .0282775
770.282 .0282591
770.997 .0282415
771.712 .0282252
772.427 .0282091
773.142 .0281930
773.856 .0281763
774.570 .0281591
775.284 .0281417
775.998 .0281234
776.711 .0281054
777.424 .0280877
778.137 .0280709
778.849 .0280552
779.562 .0280407
780.274 .0280276
780.986 .0280149
781.697 .0280029
782.409 .0279905
783.120 .0279786
783.831 .0279670
784.541 .0279562
785.252 .0279463
785.962 .0279376
786.671 .0279300
787.381 .0279230
788.090 .0279166
788.799 .0279102
789.508 .0279034
790.217 .0278955
790.925 .0278861
791.633 .0278754
792.341 .0278631
793.048 .0278499
793.755 .0278351
794.462 .0278192
795.169 .0278029
795.875 .0277863
796.581 .0277700
797.287 .0277542
797.993 .0277394
798.698 .0277258
799.403 .0277136
800.108 .0277029
800.812 .0276941
801.517 .0276871
802.221 .0276815
802.924 .0276772
803.628 .0276739
804.331 .0276712
805.034 .0276691
805.736 .0276673
806.439 .0276654
807.141 .0276626
807.843 .0276590
808.544 .0276539
809.245 .0276478
809.946 .0276404
810.647 .0276320
811.347 .0276229
812.047 .0276130
812.747 .0276019
813.447 .0275902
814.146 .0275776
814.845 .0275643
815.543 .0275502
816.242 .0275354
816.940 .0275203
817.638 .0275055
818.335 .0274913
819.032 .0274782
819.729 .0274659
820.426 .0274542
821.122 .0274423
821.818 .0274302
822.514 .0274170
823.209 .0274026
823.905 .0273875
824.599 .0273720
825.294 .0273558
825.988 .0273395
826.682 .0273234
827.376 .0273075
828.069 .0272918
828.762 .0272754
829.455 .0272588
830.147 .0272418
830.840 .0272245
831.531 .0272074
832.223 .0271916
832.914 .0271771
833.605 .0271649
834.296 .0271552
834.986 .0271470
835.676 .0271399
836.366 .0271336
837.055 .0271274
837.744 .0271215
838.433 .0271153
839.121 .0271083
839.809 .0271015
840.497 .0270953
841.185 .0270884
841.872 .0270817
842.559 .0270751
843.245 .0270678
843.932 .0270597
844.617 .0270511
845.303 .0270418
845.988 .0270329
846.673 .0270249
847.358 .0270173
848.042 .0270104
848.726 .0270046
849.410 .0269986
850.093 .0269926
850.776 .0269870
851.459 .0269802
852.141 .0269722
852.823 .0269637
853.505 .0269543
854.186 .0269440
854.867 .0269339
855.548 .0269231
856.228 .0269116
856.908 .0268995
857.588 .0268858
858.267 .0268710
858.946 .0268555
859.625 .0268394
860.303 .0268226
860.981 .0268058
861.659 .0267896
862.336 .0267736
863.013 .0267584
863.690 .0267435
864.366 .0267287
865.042 .0267132
865.718 .0266972
866.393 .0266810
867.068 .0266651
867.743 .0266497
868.417 .0266348
869.091 .0266208
869.765 .0266073
870.438 .0265944
871.111 .0265815
871.783 .0265684
872.456 .0265549
873.127 .0265409
873.799 .0265260
874.470 .0265108
875.141 .0264962
875.811 .0264823
876.481 .0264691
877.151 .0264572
877.820 .0264459
878.489 .0264356
879.158 .0264259
879.826 .0264164
880.494 .0264062
881.162 .0263961
881.829 .0263851
882.496 .0263733
883.163 .0263610
883.829 .0263485
884.495 .0263359
885.160 .0263250
885.825 .0263153
886.490 .0263073
887.154 .0263008
887.818 .0262956
888.482 .0262907
889.145 .0262858
889.808 .0262804
890.471 .0262750
891.133 .0262694
891.795 .0262636
892.456 .0262581
893.117 .0262539
893.778 .0262508
894.439 .0262491
895.099 .0262478
895.758 .0262467
896.417 .0262450
897.076 .0262425
897.735 .0262383
898.393 .0262337
899.051 .0262290
899.708 .0262241
900.365 .0262187
901.022 .0262135
901.678 .0262072
902.334 .0262001
902.990 .0261914
903.645 .0261808
904.300 .0261682
904.954 .0261539
905.608 .0261377
906.262 .0261214
906.915 .0261053
907.568 .0260903
908.221 .0260763
908.873 .0260641
909.525 .0260523
910.176 .0260412
910.828 .0260301
911.478 .0260188
912.129 .0260068
912.778 .0259941
913.428 .0259804
914.077 .0259665
914.726 .0259531
915.375 .0259403
916.023 .0259283
916.670 .0259181
917.318 .0259089
917.964 .0259004
918.611 .0258918
919.257 .0258829
919.903 .0258728
920.548 .0258620
921.193 .0258501
921.838 .0258375
922.482 .0258252
923.126 .0258132
923.770 .0258019
924.413 .0257920
925.056 .0257840
925.698 .0257771
926.340 .0257716
926.982 .0257669
927.623 .0257624
928.264 .0257574
928.904 .0257515
929.544 .0257440
930.184 .0257352
930.823 .0257245
931.462 .0257120
932.101 .0256981
932.739 .0256833
933.377 .0256675
934.014 .0256508
934.651 .0256343
935.288 .0256175
935.924 .0256004
936.560 .0255828
937.196 .0255645
937.831 .0255457
938.466 .0255262
939.100 .0255064
939.734 .0254868
940.368 .0254673
941.001 .0254493
941.634 .0254325
942.266 .0254179
942.899 .0254043
943.530 .0253920
944.162 .0253803
944.793 .0253690
945.423 .0253569
946.053 .0253438
946.683 .0253294
947.313 .0253138
947.942 .0252963
948.571 .0252777
949.199 .0252579
949.827 .0252372
950.455 .0252155
951.082 .0251944
951.709 .0251735
952.335 .0251536
952.961 .0251344
953.587 .0251162
954.212 .0250989
954.837 .0250825
955.462 .0250667
956.086 .0250517
956.710 .0250384
957.334 .0250273
957.957 .0250177
958.579 .0250108
959.202 .0250057
959.824 .0250022
960.445 .0249995
961.067 .0249964
961.688 .0249921
962.308 .0249860
962.928 .0249786
963.548 .0249690
964.168 .0249579
964.787 .0249457
965.406 .0249328
966.024 .0249198
966.642 .0249065
967.260 .0248918
967.877 .0248761
968.494 .0248597
969.110 .0248418
969.727 .0248223
970.342 .0248019
970.958 .0247810
971.573 .0247614
972.188 .0247425
972.802 .0247253
973.416 .0247104
974.030 .0246984
974.643 .0246890
975.256 .0246814
975.869 .0246754
976.481 .0246702
977.093 .0246656
977.705 .0246616
978.316 .0246577
978.927 .0246545
979.538 .0246520
980.148 .0246505
980.758 .0246504
981.367 .0246515
981.977 .0246530
982.586 .0246552
983.194 .0246570
983.802 .0246576
984.410 .0246560
985.018 .0246527
985.625 .0246484
986.232 .0246428
986.838 .0246362
987.445 .0246288
988.050 .0246211
988.656 .0246132
989.261 .0246044
989.866 .0245947
990.471 .0245844
991.075 .0245741
991.679 .0245640
992.282 .0245546
992.886 .0245463
993.489 .0245399
994.091 .0245342
994.694 .0245296
995.296 .0245256
995.897 .0245206
996.499 .0245155
997.100 .0245103
997.701 .0245060
998.301 .0245027
998.901 .0245016
999.501 .0245029
1000.101 .0245062
1000.700 .0245113
1001.299 .0245157
1001.898 .0245188
1002.496 .0245202
1003.094 .0245186
1003.692 .0245131
1004.289 .0245060
1004.887 .0244978
1005.484 .0244894
1006.080 .0244825
1006.677 .0244771
1007.273 .0244732
1007.868 .0244700
1008.464 .0244668
1009.059 .0244622
1009.654 .0244563
1010.249 .0244492
1010.843 .0244406
1011.437 .0244327
1012.031 .0244259
1012.625 .0244205
1013.218 .0244172
1013.811 .0244164
1014.404 .0244178
1014.997 .0244203
1015.589 .0244236
1016.181 .0244283
1016.773 .0244339
1017.365 .0244405
1017.956 .0244476
1018.547 .0244557
1019.138 .0244644
1019.728 .0244731
1020.319 .0244809
1020.909 .0244879
1021.499 .0244940
1022.088 .0244998
1022.678 .0245048
1023.267 .0245113
1023.856 .0245191
1024.445 .0245273
1025.033 .0245356
1025.621 .0245424
1026.209 .0245463
1026.797 .0245464
1027.385 .0245418
1027.972 .0245333
1028.560 .0245223
1029.147 .0245093
1029.734 .0244972
1030.320 .0244868
1030.907 .0244801
1031.493 .0244751
1032.079 .0244717
1032.665 .0244687
1033.250 .0244640
1033.836 .0244576
1034.421 .0244494
1035.006 .0244404
1035.591 .0244329
1036.176 .0244254
1036.761 .0244211
1037.345 .0244196
1037.929 .0244210
1038.514 .0244231
1039.097 .0244263
1039.681 .0244288
1040.265 .0244308
1040.848 .0244307
1041.432 .0244294
1042.015 .0244280
1042.598 .0244273
1043.181 .0244262
1043.764 .0244265
1044.346 .0244281
1044.929 .0244311
1045.511 .0244347
1046.094 .0244402
1046.676 .0244456
1047.258 .0244516
1047.840 .0244583
1048.422 .0244652
1049.003 .0244717
1049.585 .0244773
1050.166 .0244814
1050.748 .0244853
1051.329 .0244886
1051.910 .0244899
1052.491 .0244899
1053.072 .0244895
1053.653 .0244866
1054.234 .0244816
1054.815 .0244735
1055.396 .0244635
1055.976 .0244524
1056.557 .0244380
1057.138 .0244225
1057.718 .0244059
1058.298 .0243903
1058.879 .0243764
1059.459 .0243642
1060.039 .0243534
1060.620 .0243416
1061.200 .0243286
1061.780 .0243128
1062.360 .0242937
1062.940 .0242736
1063.520 .0242513
1064.101 .0242286
1064.681 .0242060
1065.261 .0241843
1065.841 .0241638
1066.421 .0241475
1067.001 .0241330
1067.581 .0241209
1068.161 .0241090
1068.741 .0240976
1069.321 .0240868
1069.901 .0240784
1070.482 .0240720
1071.062 .0240696
1071.642 .0240701
1072.222 .0240749
1072.803 .0240811
1073.383 .0240897
1073.963 .0240992
1074.544 .0241088
1075.124 .0241149
1075.705 .0241149
1076.286 .0241093
1076.866 .0240998
1077.447 .0240842
1078.028 .0240674
1078.609 .0240496
1079.190 .0240331
1079.771 .0240189
1080.352 .0240093
1080.934 .0240041
1081.515 .0240042
1082.097 .0240100
1082.679 .0240179
1083.260 .0240290
1083.842 .0240428
1084.424 .0240603
1085.007 .0240832
1085.589 .0241126
1086.172 .0241481
1086.754 .0241893
1087.337 .0242349
1087.920 .0242830
1088.503 .0243301
1089.087 .0243740
1089.670 .0244101
1090.254 .0244387
1090.838 .0244565
1091.422 .0244653
1092.006 .0244639
1092.590 .0244561
1093.175 .0244415
1093.760 .0244234
1094.345 .0244010
1094.930 .0243750
1095.516 .0243480
1096.102 .0243191
1096.688 .0242878
1097.274 .0242567
1097.860 .0242216
1098.447 .0241841
1099.034 .0241444
1099.622 .0241060
1100.209 .0240678
1100.797 .0240339
1101.385 .0240058
1101.973 .0239859
1102.562 .0239767
1103.151 .0239770
1103.740 .0239833
1104.330 .0239948
1104.920 .0240096
1105.510 .0240232
1106.101 .0240359
1106.691 .0240471
1107.283 .0240581
1107.874 .0240680
1108.466 .0240762
1109.058 .0240845
1109.651 .0240911
1110.244 .0240983
1110.837 .0241057
1111.431 .0241117
1112.025 .0241172
1112.620 .0241237
1113.215 .0241337
1113.810 .0241451
1114.406 .0241614
1115.002 .0241800
1115.599 .0241971
1116.196 .0242130
1116.793 .0242255
1117.391 .0242333
1117.989 .0242386
1118.588 .0242434
1119.187 .0242446
1119.787 .0242478
1120.387 .0242524
1120.988 .0242567
1121.589 .0242597
1122.190 .0242662
1122.793 .0242715
1123.395 .0242785
1123.998 .0242880
1124.602 .0243019
1125.206 .0243199
1125.811 .0243425
1126.416 .0243648
1127.022 .0243865
1127.628 .0244050
1128.235 .0244208
1128.843 .0244335
1129.451 .0244525
1130.059 .0244803
1130.669 .0245178
1131.278 .0245661
1131.889 .0246256
1132.500 .0246869
1133.112 .0247472
1133.724 .0247951
1134.337 .0248341
1134.950 .0248578
1135.564 .0248730
1136.179 .0248870
1136.795 .0249102
1137.411 .0249522
1138.028 .0250126
1138.645 .0250983
1139.263 .0251960
1139.882 .0253033
1140.502 .0254229
1141.122 .0255409
1141.743 .0256748
1142.365 .0258287
1142.987 .0257616
1143.611 .0260537
1144.235 .0261733
1144.859 .0266922
1145.485 .0271948
