Measurement Sequence started on: 10-20-44-796
Integration time: 35
Scans to Average: 2 
>>>>>Begin Spectral Data<<<<<
432.953 .0410795
433.882 .0392082
434.810 .0376439
435.737 .0338009
436.662 .0324164
437.586 .0341101
438.509 .0335563
439.431 .0332211
440.351 .0330354
441.269 .0329960
442.187 .0329770
443.103 .0329489
444.018 .0329168
444.932 .0329100
445.844 .0329205
446.756 .0329455
447.666 .0329813
448.575 .0330043
449.482 .0330159
450.388 .0330026
451.294 .0329608
452.198 .0329080
453.100 .0328443
454.002 .0327816
454.902 .0327196
455.801 .0326614
456.699 .0326119
457.596 .0325687
458.492 .0325235
459.387 .0324788
460.280 .0324360
461.172 .0323898
462.064 .0323467
462.954 .0323047
463.843 .0322685
464.730 .0322408
465.617 .0322189
466.503 .0322017
467.387 .0321856
468.271 .0321669
469.153 .0321421
470.035 .0321118
470.915 .0320808
471.794 .0320467
472.673 .0320131
473.550 .0319843
474.426 .0319604
475.301 .0319410
476.175 .0319286
477.048 .0319158
477.920 .0319024
478.791 .0318846
479.661 .0318613
480.530 .0318321
481.398 .0318027
482.266 .0317719
483.132 .0317467
483.997 .0317272
484.861 .0317157
485.724 .0317088
486.587 .0317078
487.448 .0317068
488.308 .0317023
489.168 .0316906
490.026 .0316708
490.884 .0316370
491.741 .0315989
492.597 .0315538
493.452 .0315063
494.306 .0314583
495.159 .0314120
496.011 .0313625
496.862 .0313122
497.713 .0312542
498.562 .0311862
499.411 .0311072
500.259 .0310184
501.106 .0309160
501.952 .0308066
502.798 .0306935
503.642 .0305802
504.486 .0304678
505.329 .0303616
506.171 .0302554
507.012 .0301532
507.852 .0300515
508.692 .0299476
509.531 .0298397
510.369 .0297290
511.206 .0296170
512.043 .0295047
512.878 .0293939
513.713 .0292863
514.547 .0291830
515.381 .0290881
516.213 .0289994
517.045 .0289154
517.876 .0288289
518.706 .0287401
519.536 .0286464
520.365 .0285428
521.193 .0284276
522.020 .0283041
522.847 .0281727
523.673 .0280354
524.498 .0278932
525.323 .0277452
526.146 .0275989
526.969 .0274584
527.792 .0273154
528.614 .0271649
529.435 .0270094
530.255 .0268520
531.075 .0266923
531.894 .0265412
532.712 .0264004
533.530 .0262716
534.347 .0261636
535.163 .0260710
535.979 .0259974
536.794 .0259412
537.608 .0259023
538.422 .0258760
539.235 .0258576
540.048 .0258406
540.860 .0258226
541.671 .0258087
542.481 .0257985
543.292 .0257874
544.101 .0257775
544.910 .0257692
545.718 .0257707
546.526 .0257792
547.333 .0258013
548.139 .0258373
548.945 .0258873
549.750 .0259449
550.555 .0260066
551.359 .0260717
552.162 .0261371
552.965 .0262032
553.768 .0262679
554.569 .0263300
555.371 .0263902
556.171 .0264485
556.972 .0265103
557.771 .0265768
558.570 .0266496
559.369 .0267265
560.167 .0268085
560.964 .0268907
561.761 .0269712
562.558 .0270493
563.354 .0271240
564.149 .0271948
564.944 .0272599
565.738 .0273242
566.532 .0273891
567.325 .0274544
568.118 .0275230
568.910 .0275965
569.702 .0276761
570.494 .0277600
571.285 .0278477
572.075 .0279377
572.865 .0280297
573.654 .0281201
574.443 .0282048
575.232 .0282841
576.020 .0283584
576.807 .0284267
577.594 .0284902
578.381 .0285536
579.167 .0286168
579.952 .0286819
580.738 .0287495
581.522 .0288192
582.307 .0288882
583.091 .0289550
583.874 .0290173
584.657 .0290723
585.440 .0291212
586.222 .0291621
587.004 .0291965
587.785 .0292269
588.566 .0292535
589.346 .0292780
590.126 .0293000
590.906 .0293219
591.685 .0293437
592.464 .0293645
593.242 .0293848
594.020 .0294036
594.797 .0294203
595.575 .0294350
596.351 .0294473
597.128 .0294569
597.904 .0294641
598.679 .0294698
599.454 .0294730
600.229 .0294753
601.004 .0294774
601.778 .0294785
602.551 .0294786
603.325 .0294784
604.097 .0294768
604.870 .0294731
605.642 .0294682
606.414 .0294613
607.185 .0294524
607.956 .0294434
608.727 .0294332
609.497 .0294220
610.267 .0294111
611.037 .0293994
611.806 .0293868
612.575 .0293741
613.344 .0293611
614.112 .0293475
614.880 .0293348
615.647 .0293222
616.414 .0293101
617.181 .0292991
617.948 .0292882
618.714 .0292767
619.480 .0292659
620.245 .0292554
621.011 .0292443
621.775 .0292338
622.540 .0292249
623.304 .0292166
624.068 .0292106
624.832 .0292053
625.595 .0292008
626.358 .0291968
627.120 .0291918
627.883 .0291849
628.645 .0291764
629.406 .0291667
630.168 .0291555
630.929 .0291434
631.689 .0291313
632.450 .0291186
633.210 .0291060
633.970 .0290926
634.729 .0290784
635.489 .0290623
636.248 .0290445
637.006 .0290249
637.765 .0290045
638.523 .0289830
639.280 .0289612
640.038 .0289406
640.795 .0289213
641.552 .0289042
642.309 .0288889
643.065 .0288751
643.821 .0288628
644.577 .0288513
645.332 .0288390
646.088 .0288261
646.843 .0288136
647.597 .0288007
648.352 .0287879
649.106 .0287759
649.860 .0287635
650.613 .0287516
651.367 .0287401
652.120 .0287280
652.872 .0287141
653.625 .0286993
654.377 .0286831
655.129 .0286660
655.881 .0286493
656.632 .0286329
657.384 .0286177
658.135 .0286049
658.885 .0285933
659.636 .0285823
660.386 .0285728
661.136 .0285636
661.885 .0285543
662.635 .0285455
663.384 .0285363
664.133 .0285269
664.881 .0285176
665.630 .0285093
666.378 .0285008
667.126 .0284920
667.874 .0284823
668.621 .0284709
669.368 .0284585
670.115 .0284443
670.862 .0284277
671.608 .0284113
672.354 .0283950
673.100 .0283786
673.846 .0283629
674.591 .0283488
675.337 .0283353
676.082 .0283224
676.826 .0283096
677.571 .0282968
678.315 .0282838
679.059 .0282709
679.803 .0282577
680.547 .0282452
681.290 .0282332
682.033 .0282206
682.776 .0282076
683.518 .0281947
684.261 .0281802
685.003 .0281644
685.745 .0281477
686.487 .0281305
687.228 .0281128
687.969 .0280956
688.710 .0280791
689.451 .0280637
690.192 .0280492
690.932 .0280352
691.672 .0280214
692.412 .0280081
693.152 .0279940
693.891 .0279794
694.630 .0279648
695.369 .0279500
696.108 .0279349
696.846 .0279195
697.585 .0279042
698.323 .0278893
699.061 .0278745
699.798 .0278597
700.536 .0278445
701.273 .0278296
702.010 .0278147
702.746 .0277997
703.483 .0277848
704.219 .0277700
704.955 .0277551
705.691 .0277402
706.427 .0277254
707.162 .0277107
707.897 .0276963
708.632 .0276829
709.367 .0276701
710.101 .0276582
710.835 .0276468
711.569 .0276359
712.303 .0276251
713.037 .0276142
713.770 .0276026
714.503 .0275897
715.236 .0275766
715.969 .0275629
716.702 .0275485
717.434 .0275344
718.166 .0275200
718.898 .0275058
719.629 .0274917
720.361 .0274778
721.092 .0274639
721.823 .0274502
722.554 .0274363
723.284 .0274216
724.014 .0274059
724.744 .0273892
725.474 .0273708
726.204 .0273508
726.933 .0273295
727.662 .0273066
728.391 .0272829
729.120 .0272591
729.849 .0272354
730.577 .0272128
731.305 .0271907
732.033 .0271695
732.760 .0271488
733.488 .0271283
734.215 .0271078
734.942 .0270872
735.669 .0270665
736.395 .0270458
737.122 .0270256
737.848 .0270063
738.573 .0269885
739.299 .0269723
740.024 .0269577
740.750 .0269442
741.474 .0269314
742.199 .0269190
742.924 .0269060
743.648 .0268924
744.372 .0268780
745.096 .0268631
745.819 .0268477
746.543 .0268315
747.266 .0268152
747.989 .0267988
748.711 .0267829
749.434 .0267674
750.156 .0267528
750.878 .0267396
751.599 .0267276
752.321 .0267166
753.042 .0267070
753.763 .0266987
754.484 .0266915
755.205 .0266853
755.925 .0266799
756.645 .0266750
757.365 .0266703
758.085 .0266654
758.804 .0266605
759.523 .0266549
760.242 .0266489
760.961 .0266414
761.679 .0266330
762.397 .0266232
763.115 .0266118
763.833 .0265986
764.551 .0265838
765.268 .0265665
765.985 .0265468
766.702 .0265247
767.418 .0265009
768.134 .0264757
768.850 .0264500
769.566 .0264244
770.282 .0263996
770.997 .0263759
771.712 .0263536
772.427 .0263325
773.142 .0263130
773.856 .0262944
774.570 .0262761
775.284 .0262578
775.998 .0262393
776.711 .0262210
777.424 .0262028
778.137 .0261847
778.849 .0261671
779.562 .0261502
780.274 .0261337
780.986 .0261182
781.697 .0261028
782.409 .0260883
783.120 .0260744
783.831 .0260610
784.541 .0260477
785.252 .0260344
785.962 .0260208
786.671 .0260070
787.381 .0259932
788.090 .0259793
788.799 .0259655
789.508 .0259525
790.217 .0259404
790.925 .0259296
791.633 .0259195
792.341 .0259101
793.048 .0259007
793.755 .0258907
794.462 .0258789
795.169 .0258652
795.875 .0258498
796.581 .0258330
797.287 .0258155
797.993 .0257978
798.698 .0257810
799.403 .0257650
800.108 .0257498
800.812 .0257353
801.517 .0257209
802.221 .0257070
802.924 .0256926
803.628 .0256785
804.331 .0256649
805.034 .0256521
805.736 .0256406
806.439 .0256308
807.141 .0256231
807.843 .0256169
808.544 .0256122
809.245 .0256081
809.946 .0256047
810.647 .0256018
811.347 .0255992
812.047 .0255974
812.747 .0255967
813.447 .0255968
814.146 .0255970
814.845 .0255978
815.543 .0255982
816.242 .0255973
816.940 .0255952
817.638 .0255910
818.335 .0255849
819.032 .0255766
819.729 .0255669
820.426 .0255557
821.122 .0255431
821.818 .0255291
822.514 .0255134
823.209 .0254965
823.905 .0254784
824.599 .0254587
825.294 .0254384
825.988 .0254180
826.682 .0253975
827.376 .0253772
828.069 .0253577
828.762 .0253387
829.455 .0253204
830.147 .0253028
830.840 .0252857
831.531 .0252695
832.223 .0252544
832.914 .0252407
833.605 .0252281
834.296 .0252168
834.986 .0252064
835.676 .0251964
836.366 .0251869
837.055 .0251772
837.744 .0251668
838.433 .0251562
839.121 .0251453
839.809 .0251343
840.497 .0251232
841.185 .0251125
841.872 .0251022
842.559 .0250926
843.245 .0250834
843.932 .0250744
844.617 .0250657
845.303 .0250574
845.988 .0250490
846.673 .0250410
847.358 .0250330
848.042 .0250255
848.726 .0250180
849.410 .0250105
850.093 .0250025
850.776 .0249943
851.459 .0249857
852.141 .0249766
852.823 .0249669
853.505 .0249571
854.186 .0249469
854.867 .0249367
855.548 .0249260
856.228 .0249153
856.908 .0249042
857.588 .0248923
858.267 .0248795
858.946 .0248656
859.625 .0248506
860.303 .0248346
860.981 .0248181
861.659 .0248016
862.336 .0247850
863.013 .0247687
863.690 .0247529
864.366 .0247376
865.042 .0247232
865.718 .0247093
866.393 .0246956
867.068 .0246824
867.743 .0246691
868.417 .0246557
869.091 .0246424
869.765 .0246294
870.438 .0246169
871.111 .0246050
871.783 .0245939
872.456 .0245830
873.127 .0245726
873.799 .0245622
874.470 .0245515
875.141 .0245404
875.811 .0245283
876.481 .0245153
877.151 .0245015
877.820 .0244870
878.489 .0244720
879.158 .0244567
879.826 .0244411
880.494 .0244255
881.162 .0244095
881.829 .0243936
882.496 .0243772
883.163 .0243606
883.829 .0243443
884.495 .0243281
885.160 .0243126
885.825 .0242977
886.490 .0242837
887.154 .0242711
887.818 .0242588
888.482 .0242471
889.145 .0242353
889.808 .0242237
890.471 .0242117
891.133 .0241993
891.795 .0241867
892.456 .0241746
893.117 .0241629
893.778 .0241519
894.439 .0241421
895.099 .0241329
895.758 .0241241
896.417 .0241156
897.076 .0241069
897.735 .0240980
898.393 .0240885
899.051 .0240794
899.708 .0240696
900.365 .0240606
901.022 .0240518
901.678 .0240433
902.334 .0240358
902.990 .0240284
903.645 .0240207
904.300 .0240129
904.954 .0240046
905.608 .0239954
906.262 .0239856
906.915 .0239759
907.568 .0239655
908.221 .0239550
908.873 .0239446
909.525 .0239341
910.176 .0239234
910.828 .0239134
911.478 .0239034
912.129 .0238940
912.778 .0238858
913.428 .0238783
914.077 .0238715
914.726 .0238655
915.375 .0238597
916.023 .0238539
916.670 .0238483
917.318 .0238424
917.964 .0238358
918.611 .0238295
919.257 .0238237
919.903 .0238184
920.548 .0238137
921.193 .0238099
921.838 .0238058
922.482 .0238013
923.126 .0237954
923.770 .0237879
924.413 .0237788
925.056 .0237685
925.698 .0237575
926.340 .0237460
926.982 .0237350
927.623 .0237245
928.264 .0237146
928.904 .0237053
929.544 .0236955
930.184 .0236855
930.823 .0236742
931.462 .0236622
932.101 .0236489
932.739 .0236353
933.377 .0236214
934.014 .0236076
934.651 .0235944
935.288 .0235811
935.924 .0235686
936.560 .0235566
937.196 .0235448
937.831 .0235332
938.466 .0235216
939.100 .0235097
939.734 .0234973
940.368 .0234847
941.001 .0234711
941.634 .0234573
942.266 .0234439
942.899 .0234304
943.530 .0234168
944.162 .0234035
944.793 .0233907
945.423 .0233778
946.053 .0233653
946.683 .0233525
947.313 .0233392
947.942 .0233257
948.571 .0233113
949.199 .0232965
949.827 .0232814
950.455 .0232660
951.082 .0232504
951.709 .0232350
952.335 .0232197
952.961 .0232041
953.587 .0231888
954.212 .0231737
954.837 .0231588
955.462 .0231440
956.086 .0231296
956.710 .0231160
957.334 .0231036
957.957 .0230923
958.579 .0230820
959.202 .0230732
959.824 .0230653
960.445 .0230582
961.067 .0230521
961.688 .0230470
962.308 .0230425
962.928 .0230386
963.548 .0230353
964.168 .0230325
964.787 .0230297
965.406 .0230269
966.024 .0230239
966.642 .0230206
967.260 .0230166
967.877 .0230121
968.494 .0230070
969.110 .0230014
969.727 .0229947
970.342 .0229871
970.958 .0229787
971.573 .0229698
972.188 .0229606
972.802 .0229519
973.416 .0229439
974.030 .0229366
974.643 .0229302
975.256 .0229251
975.869 .0229212
976.481 .0229182
977.093 .0229156
977.705 .0229136
978.316 .0229118
978.927 .0229101
979.538 .0229087
980.148 .0229074
980.758 .0229061
981.367 .0229049
981.977 .0229040
982.586 .0229028
983.194 .0229014
983.802 .0228997
984.410 .0228980
985.018 .0228963
985.625 .0228945
986.232 .0228926
986.838 .0228912
987.445 .0228906
988.050 .0228903
988.656 .0228900
989.261 .0228899
989.866 .0228895
990.471 .0228889
991.075 .0228880
991.679 .0228869
992.282 .0228854
992.886 .0228839
993.489 .0228824
994.091 .0228802
994.694 .0228778
995.296 .0228750
995.897 .0228715
996.499 .0228671
997.100 .0228617
997.701 .0228559
998.301 .0228504
998.901 .0228457
999.501 .0228426
1000.101 .0228407
1000.700 .0228404
1001.299 .0228414
1001.898 .0228431
1002.496 .0228449
1003.094 .0228465
1003.692 .0228480
1004.289 .0228493
1004.887 .0228504
1005.484 .0228516
1006.080 .0228532
1006.677 .0228561
1007.273 .0228597
1007.868 .0228631
1008.464 .0228666
1009.059 .0228696
1009.654 .0228717
1010.249 .0228731
1010.843 .0228738
1011.437 .0228745
1012.031 .0228748
1012.625 .0228755
1013.218 .0228761
1013.811 .0228768
1014.404 .0228777
1014.997 .0228787
1015.589 .0228790
1016.181 .0228791
1016.773 .0228783
1017.365 .0228775
1017.956 .0228766
1018.547 .0228757
1019.138 .0228743
1019.728 .0228729
1020.319 .0228718
1020.909 .0228705
1021.499 .0228683
1022.088 .0228659
1022.678 .0228627
1023.267 .0228598
1023.856 .0228568
1024.445 .0228540
1025.033 .0228518
1025.621 .0228503
1026.209 .0228495
1026.797 .0228487
1027.385 .0228480
1027.972 .0228476
1028.560 .0228467
1029.147 .0228458
1029.734 .0228445
1030.320 .0228432
1030.907 .0228417
1031.493 .0228412
1032.079 .0228418
1032.665 .0228438
1033.250 .0228472
1033.836 .0228525
1034.421 .0228594
1035.006 .0228667
1035.591 .0228741
1036.176 .0228809
1036.761 .0228867
1037.345 .0228907
1037.929 .0228913
1038.514 .0228903
1039.097 .0228874
1039.681 .0228845
1040.265 .0228808
1040.848 .0228780
1041.432 .0228763
1042.015 .0228749
1042.598 .0228733
1043.181 .0228716
1043.764 .0228691
1044.346 .0228655
1044.929 .0228604
1045.511 .0228551
1046.094 .0228488
1046.676 .0228437
1047.258 .0228391
1047.840 .0228367
1048.422 .0228354
1049.003 .0228352
1049.585 .0228341
1050.166 .0228328
1050.748 .0228297
1051.329 .0228238
1051.910 .0228154
1052.491 .0228056
1053.072 .0227939
1053.653 .0227811
1054.234 .0227680
1054.815 .0227563
1055.396 .0227455
1055.976 .0227361
1056.557 .0227276
1057.138 .0227206
1057.718 .0227135
1058.298 .0227056
1058.879 .0226970
1059.459 .0226879
1060.039 .0226773
1060.620 .0226651
1061.200 .0226518
1061.780 .0226388
1062.360 .0226256
1062.940 .0226130
1063.520 .0226009
1064.101 .0225897
1064.681 .0225778
1065.261 .0225641
1065.841 .0225484
1066.421 .0225311
1067.001 .0225113
1067.581 .0224905
1068.161 .0224697
1068.741 .0224501
1069.321 .0224321
1069.901 .0224190
1070.482 .0224105
1071.062 .0224068
1071.642 .0224067
1072.222 .0224095
1072.803 .0224129
1073.383 .0224160
1073.963 .0224176
1074.544 .0224172
1075.124 .0224151
1075.705 .0224119
1076.286 .0224071
1076.866 .0224035
1077.447 .0224003
1078.028 .0223979
1078.609 .0223965
1079.190 .0223964
1079.771 .0223939
1080.352 .0223905
1080.934 .0223855
1081.515 .0223792
1082.097 .0223701
1082.679 .0223593
1083.260 .0223465
1083.842 .0223329
1084.424 .0223191
1085.007 .0223055
1085.589 .0222935
1086.172 .0222851
1086.754 .0222777
1087.337 .0222732
1087.920 .0222720
1088.503 .0222722
1089.087 .0222718
1089.670 .0222721
1090.254 .0222710
1090.838 .0222696
1091.422 .0222684
1092.006 .0222686
1092.590 .0222713
1093.175 .0222761
1093.760 .0222829
1094.345 .0222911
1094.930 .0223005
1095.516 .0223085
1096.102 .0223131
1096.688 .0223133
1097.274 .0223079
1097.860 .0222956
1098.447 .0222802
1099.034 .0222637
1099.622 .0222477
1100.209 .0222344
1100.797 .0222238
1101.385 .0222157
1101.973 .0222110
1102.562 .0222062
1103.151 .0222029
1103.740 .0221967
1104.330 .0221871
1104.920 .0221731
1105.510 .0221575
1106.101 .0221425
1106.691 .0221301
1107.283 .0221225
1107.874 .0221190
1108.466 .0221172
1109.058 .0221173
1109.651 .0221158
1110.244 .0221112
1110.837 .0221019
1111.431 .0220858
1112.025 .0220644
1112.620 .0220399
1113.215 .0220142
1113.810 .0219916
1114.406 .0219750
1115.002 .0219625
1115.599 .0219537
1116.196 .0219447
1116.793 .0219348
1117.391 .0219239
1117.989 .0219135
1118.588 .0219026
1119.187 .0218932
1119.787 .0218870
1120.387 .0218858
1120.988 .0218867
1121.589 .0218933
1122.190 .0219013
1122.793 .0219122
1123.395 .0219229
1123.998 .0219318
1124.602 .0219401
1125.206 .0219538
1125.811 .0219721
1126.416 .0219939
1127.022 .0220193
1127.628 .0220494
1128.235 .0220779
1128.843 .0221065
1129.451 .0221309
1130.059 .0221494
1130.669 .0221625
1131.278 .0221731
1131.889 .0221772
1132.500 .0221791
1133.112 .0221827
1133.724 .0221876
1134.337 .0221980
1134.950 .0222114
1135.564 .0222246
1136.179 .0222382
1136.795 .0222571
1137.411 .0222789
1138.028 .0222996
1138.645 .0223258
1139.263 .0223614
1139.882 .0224009
1140.502 .0224526
1141.122 .0225122
1141.743 .0225837
1142.365 .0226882
1142.987 .0226790
1143.611 .0229012
1144.235 .0229525
1144.859 .0230410
1145.485 .0237573
