Measurement Sequence started on: 10-20-44-796
Integration time: 35
Scans to Average: 2 
>>>>>Begin Spectral Data<<<<<
432.953 .0348425
433.882 .0415844
434.810 .0338776
435.737 .0330670
436.662 .0326304
437.586 .0335225
438.509 .0331824
439.431 .0327821
440.351 .0326742
441.269 .0325805
442.187 .0324836
443.103 .0323691
444.018 .0322781
444.932 .0321889
445.844 .0320943
446.756 .0320095
447.666 .0319449
448.575 .0318750
449.482 .0318045
450.388 .0317152
451.294 .0316293
452.198 .0315420
453.100 .0314520
454.002 .0313740
454.902 .0313154
455.801 .0312765
456.699 .0312543
457.596 .0312537
458.492 .0312720
459.387 .0312939
460.280 .0313197
461.172 .0313358
462.064 .0313437
462.954 .0313370
463.843 .0313237
464.730 .0313025
465.617 .0312815
466.503 .0312556
467.387 .0312247
468.271 .0311921
469.153 .0311560
470.035 .0311103
470.915 .0310636
471.794 .0310139
472.673 .0309653
473.550 .0309172
474.426 .0308773
475.301 .0308432
476.175 .0308185
477.048 .0307976
477.920 .0307841
478.791 .0307744
479.661 .0307691
480.530 .0307661
481.398 .0307687
482.266 .0307748
483.132 .0307812
483.997 .0307868
484.861 .0307933
485.724 .0307954
486.587 .0307973
487.448 .0307917
488.308 .0307834
489.168 .0307689
490.026 .0307494
490.884 .0307233
491.741 .0306926
492.597 .0306542
493.452 .0306101
494.306 .0305619
495.159 .0305097
496.011 .0304533
496.862 .0303954
497.713 .0303348
498.562 .0302708
499.411 .0302022
500.259 .0301309
501.106 .0300543
501.952 .0299770
502.798 .0298969
503.642 .0298152
504.486 .0297346
505.329 .0296551
506.171 .0295786
507.012 .0295038
507.852 .0294316
508.692 .0293597
509.531 .0292901
510.369 .0292205
511.206 .0291537
512.043 .0290868
512.878 .0290197
513.713 .0289495
514.547 .0288744
515.381 .0287931
516.213 .0287061
517.045 .0286098
517.876 .0285066
518.706 .0283931
519.536 .0282721
520.365 .0281370
521.193 .0279938
522.020 .0278368
522.847 .0276644
523.673 .0274782
524.498 .0272788
525.323 .0270654
526.146 .0268490
526.969 .0266257
527.792 .0263989
528.614 .0261675
529.435 .0259314
530.255 .0256934
531.075 .0254609
531.894 .0252435
532.712 .0250384
533.530 .0248557
534.347 .0247023
535.163 .0245682
535.979 .0244609
536.794 .0243773
537.608 .0243102
538.422 .0242596
539.235 .0242204
540.048 .0241937
540.860 .0241849
541.671 .0241998
542.481 .0242294
543.292 .0242744
544.101 .0243310
544.910 .0243930
545.718 .0244525
546.526 .0245137
547.333 .0245720
548.139 .0246303
548.945 .0246882
549.750 .0247407
550.555 .0247965
551.359 .0248564
552.162 .0249125
552.965 .0249663
553.768 .0250119
554.569 .0250530
555.371 .0250844
556.171 .0251126
556.972 .0251395
557.771 .0251714
558.570 .0252101
559.369 .0252562
560.167 .0253140
560.964 .0253826
561.761 .0254587
562.558 .0255444
563.354 .0256367
564.149 .0257316
564.944 .0258270
565.738 .0259248
566.532 .0260227
567.325 .0261238
568.118 .0262239
568.910 .0263246
569.702 .0264295
570.494 .0265375
571.285 .0266436
572.075 .0267494
572.865 .0268540
573.654 .0269512
574.443 .0270398
575.232 .0271193
576.020 .0271900
576.807 .0272538
577.594 .0273136
578.381 .0273697
579.167 .0274253
579.952 .0274823
580.738 .0275412
581.522 .0276025
582.307 .0276665
583.091 .0277306
583.874 .0277951
584.657 .0278573
585.440 .0279165
586.222 .0279713
587.004 .0280224
587.785 .0280691
588.566 .0281103
589.346 .0281471
590.126 .0281800
590.906 .0282075
591.685 .0282310
592.464 .0282501
593.242 .0282636
594.020 .0282700
594.797 .0282706
595.575 .0282659
596.351 .0282572
597.128 .0282451
597.904 .0282315
598.679 .0282177
599.454 .0282037
600.229 .0281900
601.004 .0281765
601.778 .0281642
602.551 .0281514
603.325 .0281378
604.097 .0281244
604.870 .0281103
605.642 .0280962
606.414 .0280828
607.185 .0280705
607.956 .0280600
608.727 .0280510
609.497 .0280434
610.267 .0280371
611.037 .0280310
611.806 .0280234
612.575 .0280139
613.344 .0280021
614.112 .0279873
614.880 .0279695
615.647 .0279500
616.414 .0279293
617.181 .0279083
617.948 .0278886
618.714 .0278699
619.480 .0278529
620.245 .0278373
621.011 .0278222
621.775 .0278075
622.540 .0277923
623.304 .0277764
624.068 .0277602
624.832 .0277449
625.595 .0277306
626.358 .0277174
627.120 .0277068
627.883 .0276982
628.645 .0276916
629.406 .0276865
630.168 .0276820
630.929 .0276779
631.689 .0276739
632.450 .0276692
633.210 .0276640
633.970 .0276581
634.729 .0276514
635.489 .0276429
636.248 .0276332
637.006 .0276212
637.765 .0276074
638.523 .0275922
639.280 .0275758
640.038 .0275590
640.795 .0275426
641.552 .0275262
642.309 .0275107
643.065 .0274954
643.821 .0274799
644.577 .0274638
645.332 .0274476
646.088 .0274308
646.843 .0274143
647.597 .0273984
648.352 .0273838
649.106 .0273709
649.860 .0273607
650.613 .0273522
651.367 .0273455
652.120 .0273396
652.872 .0273337
653.625 .0273269
654.377 .0273198
655.129 .0273109
655.881 .0273014
656.632 .0272910
657.384 .0272797
658.135 .0272672
658.885 .0272551
659.636 .0272422
660.386 .0272288
661.136 .0272148
661.885 .0272007
662.635 .0271861
663.384 .0271718
664.133 .0271568
664.881 .0271421
665.630 .0271277
666.378 .0271137
667.126 .0270987
667.874 .0270839
668.621 .0270686
669.368 .0270530
670.115 .0270369
670.862 .0270208
671.608 .0270045
672.354 .0269888
673.100 .0269729
673.846 .0269579
674.591 .0269428
675.337 .0269280
676.082 .0269136
676.826 .0268992
677.571 .0268847
678.315 .0268705
679.059 .0268561
679.803 .0268427
680.547 .0268297
681.290 .0268172
682.033 .0268038
682.776 .0267904
683.518 .0267766
684.261 .0267614
685.003 .0267456
685.745 .0267296
686.487 .0267132
687.228 .0266972
687.969 .0266809
688.710 .0266645
689.451 .0266485
690.192 .0266326
690.932 .0266157
691.672 .0265979
692.412 .0265798
693.152 .0265610
693.891 .0265426
694.630 .0265252
695.369 .0265090
696.108 .0264945
696.846 .0264819
697.585 .0264700
698.323 .0264595
699.061 .0264494
699.798 .0264394
700.536 .0264293
701.273 .0264193
702.010 .0264095
702.746 .0263999
703.483 .0263913
704.219 .0263837
704.955 .0263762
705.691 .0263696
706.427 .0263628
707.162 .0263560
707.897 .0263490
708.632 .0263415
709.367 .0263335
710.101 .0263250
710.835 .0263158
711.569 .0263060
712.303 .0262952
713.037 .0262844
713.770 .0262725
714.503 .0262599
715.236 .0262475
715.969 .0262344
716.702 .0262211
717.434 .0262079
718.166 .0261941
718.898 .0261802
719.629 .0261657
720.361 .0261511
721.092 .0261365
721.823 .0261220
722.554 .0261079
723.284 .0260941
724.014 .0260807
724.744 .0260674
725.474 .0260536
726.204 .0260394
726.933 .0260239
727.662 .0260068
728.391 .0259889
729.120 .0259699
729.849 .0259508
730.577 .0259317
731.305 .0259132
732.033 .0258960
732.760 .0258797
733.488 .0258640
734.215 .0258484
734.942 .0258327
735.669 .0258159
736.395 .0257980
737.122 .0257798
737.848 .0257609
738.573 .0257424
739.299 .0257249
740.024 .0257086
740.750 .0256939
741.474 .0256808
742.199 .0256683
742.924 .0256560
743.648 .0256430
744.372 .0256285
745.096 .0256124
745.819 .0255950
746.543 .0255765
747.266 .0255574
747.989 .0255390
748.711 .0255216
749.434 .0255055
750.156 .0254911
750.878 .0254784
751.599 .0254675
752.321 .0254577
753.042 .0254489
753.763 .0254411
754.484 .0254343
755.205 .0254287
755.925 .0254240
756.645 .0254202
757.365 .0254168
758.085 .0254136
758.804 .0254101
759.523 .0254058
760.242 .0254003
760.961 .0253930
761.679 .0253834
762.397 .0253713
763.115 .0253565
763.833 .0253390
764.551 .0253191
765.268 .0252966
765.985 .0252722
766.702 .0252460
767.418 .0252190
768.134 .0251917
768.850 .0251647
769.566 .0251384
770.282 .0251129
770.997 .0250884
771.712 .0250650
772.427 .0250428
773.142 .0250220
773.856 .0250022
774.570 .0249837
775.284 .0249661
775.998 .0249496
776.711 .0249337
777.424 .0249189
778.137 .0249044
778.849 .0248904
779.562 .0248766
780.274 .0248628
780.986 .0248490
781.697 .0248357
782.409 .0248227
783.120 .0248103
783.831 .0247985
784.541 .0247872
785.252 .0247765
785.962 .0247669
786.671 .0247583
787.381 .0247510
788.090 .0247447
788.799 .0247397
789.508 .0247357
790.217 .0247327
790.925 .0247303
791.633 .0247283
792.341 .0247268
793.048 .0247256
793.755 .0247235
794.462 .0247210
795.169 .0247179
795.875 .0247146
796.581 .0247109
797.287 .0247069
797.993 .0247026
798.698 .0246982
799.403 .0246933
800.108 .0246877
800.812 .0246813
801.517 .0246745
802.221 .0246669
802.924 .0246588
803.628 .0246508
804.331 .0246436
805.034 .0246371
805.736 .0246321
806.439 .0246281
807.141 .0246252
807.843 .0246229
808.544 .0246209
809.245 .0246192
809.946 .0246172
810.647 .0246153
811.347 .0246131
812.047 .0246111
812.747 .0246094
813.447 .0246080
814.146 .0246070
814.845 .0246064
815.543 .0246057
816.242 .0246046
816.940 .0246028
817.638 .0246002
818.335 .0245968
819.032 .0245927
819.729 .0245878
820.426 .0245828
821.122 .0245772
821.818 .0245719
822.514 .0245667
823.209 .0245619
823.905 .0245573
824.599 .0245521
825.294 .0245456
825.988 .0245379
826.682 .0245286
827.376 .0245177
828.069 .0245048
828.762 .0244911
829.455 .0244761
830.147 .0244606
830.840 .0244452
831.531 .0244300
832.223 .0244151
832.914 .0244006
833.605 .0243856
834.296 .0243703
834.986 .0243544
835.676 .0243383
836.366 .0243220
837.055 .0243060
837.744 .0242897
838.433 .0242734
839.121 .0242572
839.809 .0242415
840.497 .0242262
841.185 .0242118
841.872 .0241981
842.559 .0241854
843.245 .0241736
843.932 .0241624
844.617 .0241515
845.303 .0241410
845.988 .0241301
846.673 .0241186
847.358 .0241069
848.042 .0240950
848.726 .0240833
849.410 .0240725
850.093 .0240625
850.776 .0240530
851.459 .0240439
852.141 .0240343
852.823 .0240238
853.505 .0240122
854.186 .0239987
854.867 .0239831
855.548 .0239663
856.228 .0239486
856.908 .0239305
857.588 .0239125
858.267 .0238952
858.946 .0238784
859.625 .0238622
860.303 .0238464
860.981 .0238307
861.659 .0238152
862.336 .0237996
863.013 .0237838
863.690 .0237680
864.366 .0237523
865.042 .0237363
865.718 .0237203
866.393 .0237048
867.068 .0236892
867.743 .0236737
868.417 .0236583
869.091 .0236432
869.765 .0236283
870.438 .0236133
871.111 .0235986
871.783 .0235839
872.456 .0235693
873.127 .0235543
873.799 .0235393
874.470 .0235239
875.141 .0235085
875.811 .0234927
876.481 .0234767
877.151 .0234608
877.820 .0234448
878.489 .0234289
879.158 .0234130
879.826 .0233972
880.494 .0233813
881.162 .0233653
881.829 .0233498
882.496 .0233337
883.163 .0233176
883.829 .0233014
884.495 .0232853
885.160 .0232698
885.825 .0232551
886.490 .0232415
887.154 .0232297
887.818 .0232193
888.482 .0232103
889.145 .0232022
889.808 .0231956
890.471 .0231897
891.133 .0231841
891.795 .0231784
892.456 .0231725
893.117 .0231662
893.778 .0231599
894.439 .0231532
895.099 .0231465
895.758 .0231396
896.417 .0231324
897.076 .0231249
897.735 .0231166
898.393 .0231077
899.051 .0230986
899.708 .0230888
900.365 .0230790
901.022 .0230689
901.678 .0230592
902.334 .0230499
902.990 .0230411
903.645 .0230326
904.300 .0230243
904.954 .0230160
905.608 .0230078
906.262 .0229995
906.915 .0229920
907.568 .0229849
908.221 .0229789
908.873 .0229739
909.525 .0229701
910.176 .0229667
910.828 .0229639
911.478 .0229609
912.129 .0229574
912.778 .0229529
913.428 .0229474
914.077 .0229414
914.726 .0229354
915.375 .0229295
916.023 .0229244
916.670 .0229206
917.318 .0229179
917.964 .0229158
918.611 .0229144
919.257 .0229135
919.903 .0229127
920.548 .0229116
921.193 .0229104
921.838 .0229095
922.482 .0229092
923.126 .0229092
923.770 .0229102
924.413 .0229118
925.056 .0229140
925.698 .0229166
926.340 .0229198
926.982 .0229236
927.623 .0229277
928.264 .0229320
928.904 .0229362
929.544 .0229401
930.184 .0229433
930.823 .0229452
931.462 .0229461
932.101 .0229458
932.739 .0229439
933.377 .0229409
934.014 .0229369
934.651 .0229325
935.288 .0229278
935.924 .0229231
936.560 .0229186
937.196 .0229141
937.831 .0229092
938.466 .0229034
939.100 .0228968
939.734 .0228896
940.368 .0228814
941.001 .0228728
941.634 .0228644
942.266 .0228565
942.899 .0228491
943.530 .0228423
944.162 .0228363
944.793 .0228310
945.423 .0228250
946.053 .0228178
946.683 .0228095
947.313 .0228000
947.942 .0227893
948.571 .0227775
949.199 .0227656
949.827 .0227537
950.455 .0227417
951.082 .0227300
951.709 .0227184
952.335 .0227071
952.961 .0226959
953.587 .0226850
954.212 .0226743
954.837 .0226639
955.462 .0226543
956.086 .0226460
956.710 .0226393
957.334 .0226338
957.957 .0226288
958.579 .0226240
959.202 .0226191
959.824 .0226138
960.445 .0226078
961.067 .0226024
961.688 .0225973
962.308 .0225927
962.928 .0225891
963.548 .0225857
964.168 .0225828
964.787 .0225799
965.406 .0225766
966.024 .0225725
966.642 .0225680
967.260 .0225637
967.877 .0225594
968.494 .0225562
969.110 .0225540
969.727 .0225522
970.342 .0225514
970.958 .0225505
971.573 .0225488
972.188 .0225464
972.802 .0225433
973.416 .0225390
974.030 .0225343
974.643 .0225289
975.256 .0225234
975.869 .0225177
976.481 .0225121
977.093 .0225066
977.705 .0225014
978.316 .0224970
978.927 .0224932
979.538 .0224898
980.148 .0224874
980.758 .0224849
981.367 .0224831
981.977 .0224809
982.586 .0224785
983.194 .0224755
983.802 .0224719
984.410 .0224675
985.018 .0224634
985.625 .0224592
986.232 .0224557
986.838 .0224524
987.445 .0224494
988.050 .0224457
988.656 .0224416
989.261 .0224359
989.866 .0224289
990.471 .0224202
991.075 .0224105
991.679 .0223991
992.282 .0223877
992.886 .0223758
993.489 .0223643
994.091 .0223531
994.694 .0223425
995.296 .0223319
995.897 .0223217
996.499 .0223108
997.100 .0222996
997.701 .0222881
998.301 .0222765
998.901 .0222646
999.501 .0222534
1000.101 .0222427
1000.700 .0222326
1001.299 .0222228
1001.898 .0222135
1002.496 .0222037
1003.094 .0221939
1003.692 .0221839
1004.289 .0221737
1004.887 .0221637
1005.484 .0221542
1006.080 .0221453
1006.677 .0221376
1007.273 .0221307
1007.868 .0221244
1008.464 .0221183
1009.059 .0221122
1009.654 .0221057
1010.249 .0220990
1010.843 .0220923
1011.437 .0220862
1012.031 .0220810
1012.625 .0220769
1013.218 .0220741
1013.811 .0220726
1014.404 .0220724
1014.997 .0220726
1015.589 .0220723
1016.181 .0220714
1016.773 .0220692
1017.365 .0220664
1017.956 .0220625
1018.547 .0220584
1019.138 .0220541
1019.728 .0220496
1020.319 .0220452
1020.909 .0220402
1021.499 .0220343
1022.088 .0220276
1022.678 .0220195
1023.267 .0220107
1023.856 .0220007
1024.445 .0219908
1025.033 .0219811
1025.621 .0219726
1026.209 .0219650
1026.797 .0219578
1027.385 .0219507
1027.972 .0219435
1028.560 .0219355
1029.147 .0219266
1029.734 .0219168
1030.320 .0219068
1030.907 .0218970
1031.493 .0218878
1032.079 .0218799
1032.665 .0218730
1033.250 .0218670
1033.836 .0218616
1034.421 .0218554
1035.006 .0218484
1035.591 .0218392
1036.176 .0218282
1036.761 .0218154
1037.345 .0218013
1037.929 .0217862
1038.514 .0217712
1039.097 .0217571
1039.681 .0217442
1040.265 .0217331
1040.848 .0217248
1041.432 .0217185
1042.015 .0217147
1042.598 .0217136
1043.181 .0217148
1043.764 .0217170
1044.346 .0217209
1044.929 .0217258
1045.511 .0217325
1046.094 .0217397
1046.676 .0217481
1047.258 .0217565
1047.840 .0217650
1048.422 .0217720
1049.003 .0217770
1049.585 .0217795
1050.166 .0217789
1050.748 .0217746
1051.329 .0217668
1051.910 .0217553
1052.491 .0217417
1053.072 .0217255
1053.653 .0217089
1054.234 .0216914
1054.815 .0216740
1055.396 .0216558
1055.976 .0216379
1056.557 .0216201
1057.138 .0216023
1057.718 .0215851
1058.298 .0215695
1058.879 .0215548
1059.459 .0215417
1060.039 .0215296
1060.620 .0215182
1061.200 .0215083
1061.780 .0214995
1062.360 .0214898
1062.940 .0214811
1063.520 .0214724
1064.101 .0214630
1064.681 .0214531
1065.261 .0214432
1065.841 .0214332
1066.421 .0214233
1067.001 .0214144
1067.581 .0214046
1068.161 .0213958
1068.741 .0213890
1069.321 .0213828
1069.901 .0213779
1070.482 .0213746
1071.062 .0213706
1071.642 .0213663
1072.222 .0213614
1072.803 .0213554
1073.383 .0213491
1073.963 .0213447
1074.544 .0213416
1075.124 .0213405
1075.705 .0213414
1076.286 .0213427
1076.866 .0213437
1077.447 .0213456
1078.028 .0213453
1078.609 .0213435
1079.190 .0213416
1079.771 .0213409
1080.352 .0213420
1080.934 .0213468
1081.515 .0213547
1082.097 .0213658
1082.679 .0213792
1083.260 .0213918
1083.842 .0214017
1084.424 .0214101
1085.007 .0214159
1085.589 .0214196
1086.172 .0214228
1086.754 .0214271
1087.337 .0214330
1087.920 .0214423
1088.503 .0214530
1089.087 .0214659
1089.670 .0214796
1090.254 .0214926
1090.838 .0215031
1091.422 .0215122
1092.006 .0215199
1092.590 .0215257
1093.175 .0215317
1093.760 .0215388
1094.345 .0215453
1094.930 .0215510
1095.516 .0215546
1096.102 .0215579
1096.688 .0215584
1097.274 .0215573
1097.860 .0215553
1098.447 .0215535
1099.034 .0215517
1099.622 .0215491
1100.209 .0215461
1100.797 .0215431
1101.385 .0215379
1101.973 .0215296
1102.562 .0215187
1103.151 .0215069
1103.740 .0214942
1104.330 .0214819
1104.920 .0214729
1105.510 .0214669
1106.101 .0214619
1106.691 .0214571
1107.283 .0214527
1107.874 .0214460
1108.466 .0214377
1109.058 .0214265
1109.651 .0214155
1110.244 .0214037
1110.837 .0213921
1111.431 .0213814
1112.025 .0213722
1112.620 .0213662
1113.215 .0213614
1113.810 .0213604
1114.406 .0213644
1115.002 .0213707
1115.599 .0213823
1116.196 .0213975
1116.793 .0214171
1117.391 .0214367
1117.989 .0214562
1118.588 .0214737
1119.187 .0214873
1119.787 .0214957
1120.387 .0214998
1120.988 .0215015
1121.589 .0215049
1122.190 .0215074
1122.793 .0215097
1123.395 .0215128
1123.998 .0215147
1124.602 .0215149
1125.206 .0215148
1125.811 .0215133
1126.416 .0215134
1127.022 .0215168
1127.628 .0215262
1128.235 .0215397
1128.843 .0215612
1129.451 .0215912
1130.059 .0216262
1130.669 .0216640
1131.278 .0217019
1131.889 .0217347
1132.500 .0217679
1133.112 .0218005
1133.724 .0218312
1134.337 .0218610
1134.950 .0218923
1135.564 .0219227
1136.179 .0219541
1136.795 .0219865
1137.411 .0220216
1138.028 .0220578
1138.645 .0220981
1139.263 .0221373
1139.882 .0221847
1140.502 .0222446
1141.122 .0223144
1141.743 .0223964
1142.365 .0224905
1142.987 .0225896
1143.611 .0227940
1144.235 .0228016
1144.859 .0229459
1145.485 .0230478
