Measurement Sequence started on: 10-20-44-796
Integration time: 35
Scans to Average: 2 
>>>>>Begin Spectral Data<<<<<
432.953 .0610115
433.882 .0566080
434.810 .0552397
435.737 .0487971
436.662 .0453755
437.586 .0466063
438.509 .0448680
439.431 .0435260
440.351 .0424505
441.269 .0417188
442.187 .0411706
443.103 .0407208
444.018 .0403338
444.932 .0400313
445.844 .0397762
446.756 .0395353
447.666 .0392923
448.575 .0390398
449.482 .0387933
450.388 .0385648
451.294 .0383383
452.198 .0381274
453.100 .0379369
454.002 .0377835
454.902 .0376653
455.801 .0375642
456.699 .0374697
457.596 .0373981
458.492 .0373212
459.387 .0372443
460.280 .0371558
461.172 .0370612
462.064 .0369637
462.954 .0368598
463.843 .0367600
464.730 .0366696
465.617 .0365923
466.503 .0365319
467.387 .0364823
468.271 .0364477
469.153 .0364105
470.035 .0363740
470.915 .0363377
471.794 .0363017
472.673 .0362650
473.550 .0362321
474.426 .0362086
475.301 .0362027
476.175 .0362147
477.048 .0362393
477.920 .0362746
478.791 .0363149
479.661 .0363544
480.530 .0363846
481.398 .0364017
482.266 .0364072
483.132 .0364012
483.997 .0363851
484.861 .0363651
485.724 .0363451
486.587 .0363255
487.448 .0363060
488.308 .0362873
489.168 .0362649
490.026 .0362388
490.884 .0362021
491.741 .0361538
492.597 .0360938
493.452 .0360258
494.306 .0359475
495.159 .0358710
496.011 .0358005
496.862 .0357359
497.713 .0356733
498.562 .0356121
499.411 .0355440
500.259 .0354678
501.106 .0353842
501.952 .0352869
502.798 .0351781
503.642 .0350658
504.486 .0349480
505.329 .0348326
506.171 .0347195
507.012 .0346121
507.852 .0345066
508.692 .0344008
509.531 .0342851
510.369 .0341569
511.206 .0340233
512.043 .0338844
512.878 .0337368
513.713 .0335814
514.547 .0334201
515.381 .0332540
516.213 .0330807
517.045 .0329010
517.876 .0327169
518.706 .0325312
519.536 .0323500
520.365 .0321771
521.193 .0320145
522.020 .0318674
522.847 .0317387
523.673 .0316205
524.498 .0315045
525.323 .0313814
526.146 .0312494
526.969 .0311186
527.792 .0309924
528.614 .0308695
529.435 .0307532
530.255 .0306599
531.075 .0305790
531.894 .0305012
532.712 .0304254
533.530 .0303406
534.347 .0302564
535.163 .0301619
535.979 .0300599
536.794 .0299589
537.608 .0298674
538.422 .0298019
539.235 .0297572
540.048 .0297362
540.860 .0297295
541.671 .0297369
542.481 .0297525
543.292 .0297631
544.101 .0297793
544.910 .0297976
545.718 .0298224
546.526 .0298594
547.333 .0299043
548.139 .0299580
548.945 .0300261
549.750 .0300971
550.555 .0301624
551.359 .0302212
552.162 .0302647
552.965 .0302949
553.768 .0303181
554.569 .0303431
555.371 .0303705
556.171 .0304087
556.972 .0304596
557.771 .0305129
558.570 .0305704
559.369 .0306257
560.167 .0306796
560.964 .0307316
561.761 .0307781
562.558 .0308214
563.354 .0308662
564.149 .0309129
564.944 .0309623
565.738 .0310172
566.532 .0310788
567.325 .0311429
568.118 .0312025
568.910 .0312578
569.702 .0313109
570.494 .0313641
571.285 .0314164
572.075 .0314701
572.865 .0315312
573.654 .0315949
574.443 .0316640
575.232 .0317395
576.020 .0318161
576.807 .0318936
577.594 .0319706
578.381 .0320453
579.167 .0321163
579.952 .0321863
580.738 .0322549
581.522 .0323234
582.307 .0323925
583.091 .0324581
583.874 .0325187
584.657 .0325738
585.440 .0326236
586.222 .0326645
587.004 .0326982
587.785 .0327275
588.566 .0327512
589.346 .0327696
590.126 .0327821
590.906 .0327891
591.685 .0327910
592.464 .0327870
593.242 .0327786
594.020 .0327663
594.797 .0327526
595.575 .0327385
596.351 .0327249
597.128 .0327119
597.904 .0326995
598.679 .0326867
599.454 .0326712
600.229 .0326512
601.004 .0326260
601.778 .0325963
602.551 .0325633
603.325 .0325284
604.097 .0324934
604.870 .0324598
605.642 .0324276
606.414 .0323979
607.185 .0323697
607.956 .0323425
608.727 .0323153
609.497 .0322877
610.267 .0322599
611.037 .0322329
611.806 .0322059
612.575 .0321800
613.344 .0321570
614.112 .0321364
614.880 .0321173
615.647 .0320995
616.414 .0320824
617.181 .0320646
617.948 .0320464
618.714 .0320274
619.480 .0320071
620.245 .0319866
621.011 .0319666
621.775 .0319464
622.540 .0319277
623.304 .0319098
624.068 .0318930
624.832 .0318774
625.595 .0318633
626.358 .0318492
627.120 .0318358
627.883 .0318224
628.645 .0318086
629.406 .0317951
630.168 .0317818
630.929 .0317679
631.689 .0317542
632.450 .0317393
633.210 .0317241
633.970 .0317071
634.729 .0316886
635.489 .0316677
636.248 .0316445
637.006 .0316192
637.765 .0315913
638.523 .0315621
639.280 .0315321
640.038 .0315027
640.795 .0314753
641.552 .0314505
642.309 .0314291
643.065 .0314118
643.821 .0313981
644.577 .0313881
645.332 .0313816
646.088 .0313774
646.843 .0313761
647.597 .0313767
648.352 .0313778
649.106 .0313801
649.860 .0313818
650.613 .0313834
651.367 .0313847
652.120 .0313849
652.872 .0313833
653.625 .0313798
654.377 .0313752
655.129 .0313679
655.881 .0313573
656.632 .0313446
657.384 .0313286
658.135 .0313104
658.885 .0312897
659.636 .0312662
660.386 .0312418
661.136 .0312170
661.885 .0311911
662.635 .0311649
663.384 .0311397
664.133 .0311151
664.881 .0310906
665.630 .0310670
666.378 .0310445
667.126 .0310226
667.874 .0310013
668.621 .0309806
669.368 .0309593
670.115 .0309378
670.862 .0309157
671.608 .0308927
672.354 .0308695
673.100 .0308455
673.846 .0308212
674.591 .0307972
675.337 .0307739
676.082 .0307511
676.826 .0307282
677.571 .0307061
678.315 .0306843
679.059 .0306619
679.803 .0306395
680.547 .0306167
681.290 .0305939
682.033 .0305714
682.776 .0305488
683.518 .0305261
684.261 .0305031
685.003 .0304797
685.745 .0304549
686.487 .0304293
687.228 .0304036
687.969 .0303770
688.710 .0303506
689.451 .0303245
690.192 .0302983
690.932 .0302719
691.672 .0302451
692.412 .0302181
693.152 .0301908
693.891 .0301635
694.630 .0301357
695.369 .0301083
696.108 .0300814
696.846 .0300547
697.585 .0300282
698.323 .0300025
699.061 .0299774
699.798 .0299525
700.536 .0299282
701.273 .0299041
702.010 .0298811
702.746 .0298594
703.483 .0298388
704.219 .0298198
704.955 .0298014
705.691 .0297835
706.427 .0297657
707.162 .0297474
707.897 .0297278
708.632 .0297070
709.367 .0296855
710.101 .0296635
710.835 .0296419
711.569 .0296215
712.303 .0296023
713.037 .0295848
713.770 .0295689
714.503 .0295535
715.236 .0295388
715.969 .0295243
716.702 .0295094
717.434 .0294947
718.166 .0294804
718.898 .0294667
719.629 .0294545
720.361 .0294452
721.092 .0294377
721.823 .0294319
722.554 .0294274
723.284 .0294237
724.014 .0294194
724.744 .0294140
725.474 .0294070
726.204 .0293985
726.933 .0293893
727.662 .0293792
728.391 .0293678
729.120 .0293569
729.849 .0293450
730.577 .0293323
731.305 .0293184
732.033 .0293040
732.760 .0292877
733.488 .0292711
734.215 .0292538
734.942 .0292364
735.669 .0292189
736.395 .0292013
737.122 .0291833
737.848 .0291655
738.573 .0291480
739.299 .0291302
740.024 .0291125
740.750 .0290960
741.474 .0290790
742.199 .0290628
742.924 .0290468
743.648 .0290307
744.372 .0290141
745.096 .0289977
745.819 .0289813
746.543 .0289654
747.266 .0289512
747.989 .0289389
748.711 .0289291
749.434 .0289222
750.156 .0289173
750.878 .0289135
751.599 .0289111
752.321 .0289093
753.042 .0289065
753.763 .0289033
754.484 .0288992
755.205 .0288944
755.925 .0288895
756.645 .0288837
757.365 .0288772
758.085 .0288695
758.804 .0288601
759.523 .0288476
760.242 .0288314
760.961 .0288116
761.679 .0287884
762.397 .0287621
763.115 .0287331
763.833 .0287016
764.551 .0286689
765.268 .0286359
765.985 .0286036
766.702 .0285726
767.418 .0285430
768.134 .0285152
768.850 .0284894
769.566 .0284644
770.282 .0284406
770.997 .0284174
771.712 .0283946
772.427 .0283719
773.142 .0283489
773.856 .0283254
774.570 .0283016
775.284 .0282780
775.998 .0282547
776.711 .0282315
777.424 .0282094
778.137 .0281873
778.849 .0281650
779.562 .0281423
780.274 .0281190
780.986 .0280947
781.697 .0280698
782.409 .0280446
783.120 .0280199
783.831 .0279969
784.541 .0279765
785.252 .0279587
785.962 .0279437
786.671 .0279305
787.381 .0279180
788.090 .0279044
788.799 .0278895
789.508 .0278718
790.217 .0278520
790.925 .0278305
791.633 .0278082
792.341 .0277860
793.048 .0277647
793.755 .0277446
794.462 .0277255
795.169 .0277065
795.875 .0276872
796.581 .0276669
797.287 .0276455
797.993 .0276231
798.698 .0276006
799.403 .0275784
800.108 .0275576
800.812 .0275386
801.517 .0275210
802.221 .0275048
802.924 .0274891
803.628 .0274735
804.331 .0274576
805.034 .0274418
805.736 .0274256
806.439 .0274096
807.141 .0273945
807.843 .0273800
808.544 .0273654
809.245 .0273512
809.946 .0273364
810.647 .0273217
811.347 .0273069
812.047 .0272927
812.747 .0272794
813.447 .0272684
814.146 .0272591
814.845 .0272511
815.543 .0272447
816.242 .0272391
816.940 .0272332
817.638 .0272273
818.335 .0272205
819.032 .0272137
819.729 .0272065
820.426 .0271994
821.122 .0271914
821.818 .0271827
822.514 .0271724
823.209 .0271605
823.905 .0271467
824.599 .0271312
825.294 .0271138
825.988 .0270960
826.682 .0270786
827.376 .0270620
828.069 .0270464
828.762 .0270322
829.455 .0270192
830.147 .0270066
830.840 .0269938
831.531 .0269810
832.223 .0269683
832.914 .0269571
833.605 .0269470
834.296 .0269390
834.986 .0269333
835.676 .0269302
836.366 .0269290
837.055 .0269287
837.744 .0269285
838.433 .0269273
839.121 .0269245
839.809 .0269202
840.497 .0269146
841.185 .0269081
841.872 .0269011
842.559 .0268947
843.245 .0268885
843.932 .0268834
844.617 .0268782
845.303 .0268736
845.988 .0268689
846.673 .0268640
847.358 .0268583
848.042 .0268518
848.726 .0268453
849.410 .0268391
850.093 .0268332
850.776 .0268279
851.459 .0268228
852.141 .0268188
852.823 .0268151
853.505 .0268123
854.186 .0268092
854.867 .0268072
855.548 .0268054
856.228 .0268043
856.908 .0268033
857.588 .0268028
858.267 .0268024
858.946 .0268016
859.625 .0268000
860.303 .0267975
860.981 .0267933
861.659 .0267882
862.336 .0267818
863.013 .0267752
863.690 .0267682
864.366 .0267616
865.042 .0267546
865.718 .0267481
866.393 .0267408
867.068 .0267325
867.743 .0267226
868.417 .0267115
869.091 .0266985
869.765 .0266840
870.438 .0266688
871.111 .0266539
871.783 .0266397
872.456 .0266265
873.127 .0266146
873.799 .0266044
874.470 .0265946
875.141 .0265852
875.811 .0265753
876.481 .0265656
877.151 .0265551
877.820 .0265443
878.489 .0265339
879.158 .0265248
879.826 .0265170
880.494 .0265102
881.162 .0265045
881.829 .0265000
882.496 .0264948
883.163 .0264888
883.829 .0264819
884.495 .0264740
885.160 .0264653
885.825 .0264565
886.490 .0264471
887.154 .0264385
887.818 .0264304
888.482 .0264223
889.145 .0264133
889.808 .0264035
890.471 .0263921
891.133 .0263787
891.795 .0263642
892.456 .0263485
893.117 .0263320
893.778 .0263160
894.439 .0262999
895.099 .0262842
895.758 .0262686
896.417 .0262530
897.076 .0262371
897.735 .0262209
898.393 .0262038
899.051 .0261861
899.708 .0261685
900.365 .0261512
901.022 .0261338
901.678 .0261169
902.334 .0261004
902.990 .0260843
903.645 .0260691
904.300 .0260546
904.954 .0260409
905.608 .0260281
906.262 .0260162
906.915 .0260049
907.568 .0259938
908.221 .0259829
908.873 .0259716
909.525 .0259596
910.176 .0259464
910.828 .0259326
911.478 .0259185
912.129 .0259037
912.778 .0258882
913.428 .0258720
914.077 .0258554
914.726 .0258379
915.375 .0258189
916.023 .0257990
916.670 .0257785
917.318 .0257569
917.964 .0257342
918.611 .0257108
919.257 .0256881
919.903 .0256664
920.548 .0256454
921.193 .0256251
921.838 .0256059
922.482 .0255880
923.126 .0255708
923.770 .0255541
924.413 .0255382
925.056 .0255220
925.698 .0255059
926.340 .0254893
926.982 .0254714
927.623 .0254528
928.264 .0254333
928.904 .0254129
929.544 .0253922
930.184 .0253700
930.823 .0253471
931.462 .0253239
932.101 .0253012
932.739 .0252778
933.377 .0252543
934.014 .0252312
934.651 .0252081
935.288 .0251853
935.924 .0251635
936.560 .0251414
937.196 .0251206
937.831 .0251009
938.466 .0250815
939.100 .0250621
939.734 .0250440
940.368 .0250261
941.001 .0250087
941.634 .0249918
942.266 .0249747
942.899 .0249568
943.530 .0249390
944.162 .0249196
944.793 .0248985
945.423 .0248766
946.053 .0248533
946.683 .0248285
947.313 .0248034
947.942 .0247777
948.571 .0247518
949.199 .0247258
949.827 .0246996
950.455 .0246727
951.082 .0246455
951.709 .0246174
952.335 .0245885
952.961 .0245596
953.587 .0245309
954.212 .0245025
954.837 .0244748
955.462 .0244484
956.086 .0244231
956.710 .0243987
957.334 .0243760
957.957 .0243541
958.579 .0243335
959.202 .0243141
959.824 .0242961
960.445 .0242798
961.067 .0242648
961.688 .0242511
962.308 .0242383
962.928 .0242266
963.548 .0242157
964.168 .0242046
964.787 .0241942
965.406 .0241843
966.024 .0241749
966.642 .0241657
967.260 .0241575
967.877 .0241508
968.494 .0241450
969.110 .0241398
969.727 .0241347
970.342 .0241296
970.958 .0241242
971.573 .0241186
972.188 .0241123
972.802 .0241062
973.416 .0241001
974.030 .0240936
974.643 .0240872
975.256 .0240811
975.869 .0240758
976.481 .0240713
977.093 .0240679
977.705 .0240649
978.316 .0240613
978.927 .0240586
979.538 .0240563
980.148 .0240540
980.758 .0240519
981.367 .0240505
981.977 .0240490
982.586 .0240481
983.194 .0240477
983.802 .0240478
984.410 .0240486
985.018 .0240497
985.625 .0240495
986.232 .0240482
986.838 .0240462
987.445 .0240436
988.050 .0240410
988.656 .0240393
989.261 .0240378
989.866 .0240365
990.471 .0240364
991.075 .0240369
991.679 .0240376
992.282 .0240389
992.886 .0240402
993.489 .0240420
994.091 .0240439
994.694 .0240461
995.296 .0240498
995.897 .0240557
996.499 .0240633
997.100 .0240717
997.701 .0240812
998.301 .0240916
998.901 .0241020
999.501 .0241130
1000.101 .0241239
1000.700 .0241344
1001.299 .0241440
1001.898 .0241534
1002.496 .0241619
1003.094 .0241703
1003.692 .0241785
1004.289 .0241868
1004.887 .0241958
1005.484 .0242048
1006.080 .0242140
1006.677 .0242242
1007.273 .0242355
1007.868 .0242470
1008.464 .0242582
1009.059 .0242692
1009.654 .0242795
1010.249 .0242894
1010.843 .0242990
1011.437 .0243082
1012.031 .0243174
1012.625 .0243274
1013.218 .0243375
1013.811 .0243479
1014.404 .0243591
1014.997 .0243700
1015.589 .0243806
1016.181 .0243903
1016.773 .0243978
1017.365 .0244043
1017.956 .0244095
1018.547 .0244130
1019.138 .0244157
1019.728 .0244186
1020.319 .0244216
1020.909 .0244260
1021.499 .0244318
1022.088 .0244388
1022.678 .0244461
1023.267 .0244544
1023.856 .0244620
1024.445 .0244687
1025.033 .0244746
1025.621 .0244787
1026.209 .0244823
1026.797 .0244861
1027.385 .0244898
1027.972 .0244954
1028.560 .0245033
1029.147 .0245128
1029.734 .0245232
1030.320 .0245350
1030.907 .0245456
1031.493 .0245561
1032.079 .0245653
1032.665 .0245733
1033.250 .0245805
1033.836 .0245876
1034.421 .0245945
1035.006 .0246014
1035.591 .0246085
1036.176 .0246149
1036.761 .0246195
1037.345 .0246220
1037.929 .0246212
1038.514 .0246190
1039.097 .0246158
1039.681 .0246119
1040.265 .0246076
1040.848 .0246053
1041.432 .0246038
1042.015 .0246027
1042.598 .0246031
1043.181 .0246039
1043.764 .0246060
1044.346 .0246079
1044.929 .0246100
1045.511 .0246137
1046.094 .0246186
1046.676 .0246255
1047.258 .0246337
1047.840 .0246437
1048.422 .0246539
1049.003 .0246623
1049.585 .0246700
1050.166 .0246750
1050.748 .0246769
1051.329 .0246753
1051.910 .0246715
1052.491 .0246668
1053.072 .0246607
1053.653 .0246539
1054.234 .0246486
1054.815 .0246453
1055.396 .0246442
1055.976 .0246445
1056.557 .0246463
1057.138 .0246494
1057.718 .0246530
1058.298 .0246569
1058.879 .0246608
1059.459 .0246638
1060.039 .0246665
1060.620 .0246668
1061.200 .0246665
1061.780 .0246643
1062.360 .0246597
1062.940 .0246535
1063.520 .0246444
1064.101 .0246327
1064.681 .0246187
1065.261 .0246032
1065.841 .0245872
1066.421 .0245721
1067.001 .0245572
1067.581 .0245412
1068.161 .0245228
1068.741 .0245041
1069.321 .0244829
1069.901 .0244601
1070.482 .0244373
1071.062 .0244139
1071.642 .0243935
1072.222 .0243767
1072.803 .0243626
1073.383 .0243546
1073.963 .0243524
1074.544 .0243533
1075.124 .0243553
1075.705 .0243580
1076.286 .0243604
1076.866 .0243600
1077.447 .0243592
1078.028 .0243584
1078.609 .0243575
1079.190 .0243596
1079.771 .0243650
1080.352 .0243733
1080.934 .0243855
1081.515 .0243991
1082.097 .0244126
1082.679 .0244239
1083.260 .0244312
1083.842 .0244321
1084.424 .0244277
1085.007 .0244183
1085.589 .0244050
1086.172 .0243885
1086.754 .0243727
1087.337 .0243581
1087.920 .0243438
1088.503 .0243292
1089.087 .0243138
1089.670 .0242961
1090.254 .0242745
1090.838 .0242469
1091.422 .0242167
1092.006 .0241813
1092.590 .0241471
1093.175 .0241143
1093.760 .0240841
1094.345 .0240601
1094.930 .0240411
1095.516 .0240247
1096.102 .0240111
1096.688 .0240000
1097.274 .0239872
1097.860 .0239734
1098.447 .0239604
1099.034 .0239470
1099.622 .0239349
1100.209 .0239295
1100.797 .0239309
1101.385 .0239386
1101.973 .0239540
1102.562 .0239714
1103.151 .0239882
1103.740 .0240046
1104.330 .0240131
1104.920 .0240140
1105.510 .0240088
1106.101 .0239995
1106.691 .0239847
1107.283 .0239707
1107.874 .0239642
1108.466 .0239620
1109.058 .0239677
1109.651 .0239777
1110.244 .0239876
1110.837 .0239944
1111.431 .0239941
1112.025 .0239877
1112.620 .0239734
1113.215 .0239540
1113.810 .0239342
1114.406 .0239160
1115.002 .0239077
1115.599 .0239088
1116.196 .0239178
1116.793 .0239323
1117.391 .0239514
1117.989 .0239640
1118.588 .0239680
1119.187 .0239613
1119.787 .0239475
1120.387 .0239255
1120.988 .0239034
1121.589 .0238817
1122.190 .0238626
1122.793 .0238546
1123.395 .0238565
1123.998 .0238617
1124.602 .0238745
1125.206 .0238865
1125.811 .0239013
1126.416 .0239122
1127.022 .0239212
1127.628 .0239292
1128.235 .0239387
1128.843 .0239534
1129.451 .0239721
1130.059 .0239985
1130.669 .0240369
1131.278 .0240872
1131.889 .0241465
1132.500 .0242136
1133.112 .0242823
1133.724 .0243548
1134.337 .0244245
1134.950 .0244930
1135.564 .0245588
1136.179 .0246204
1136.795 .0246833
1137.411 .0247485
1138.028 .0248108
1138.645 .0248815
1139.263 .0249490
1139.882 .0250095
1140.502 .0250671
1141.122 .0251206
1141.743 .0251607
1142.365 .0251656
1142.987 .0250846
1143.611 .0253198
1144.235 .0253603
1144.859 .0251746
1145.485 .0244758
