Measurement Sequence started on: 10-20-44-796
Integration time: 35
Scans to Average: 2 
>>>>>Begin Spectral Data<<<<<
432.953 .0568991
433.882 .0452336
434.810 .0411476
435.737 .0392015
436.662 .0389563
437.586 .0406846
438.509 .0399761
439.431 .0398206
440.351 .0398300
441.269 .0398732
442.187 .0398824
443.103 .0398487
444.018 .0397839
444.932 .0397220
445.844 .0396475
446.756 .0395849
447.666 .0395352
448.575 .0394843
449.482 .0394283
450.388 .0393618
451.294 .0392741
452.198 .0391680
453.100 .0390468
454.002 .0389167
454.902 .0387858
455.801 .0386607
456.699 .0385559
457.596 .0384719
458.492 .0384087
459.387 .0383637
460.280 .0383264
461.172 .0382879
462.064 .0382375
462.954 .0381705
463.843 .0380888
464.730 .0379933
465.617 .0378917
466.503 .0377848
467.387 .0376777
468.271 .0375721
469.153 .0374718
470.035 .0373727
470.915 .0372814
471.794 .0371933
472.673 .0371074
473.550 .0370238
474.426 .0369442
475.301 .0368730
476.175 .0368099
477.048 .0367533
477.920 .0367022
478.791 .0366538
479.661 .0366105
480.530 .0365710
481.398 .0365327
482.266 .0365011
483.132 .0364772
483.997 .0364600
484.861 .0364477
485.724 .0364398
486.587 .0364337
487.448 .0364262
488.308 .0364136
489.168 .0363944
490.026 .0363613
490.884 .0363220
491.741 .0362767
492.597 .0362309
493.452 .0361905
494.306 .0361582
495.159 .0361326
496.011 .0361171
496.862 .0361035
497.713 .0360869
498.562 .0360605
499.411 .0360247
500.259 .0359744
501.106 .0359087
501.952 .0358332
502.798 .0357522
503.642 .0356701
504.486 .0355914
505.329 .0355137
506.171 .0354351
507.012 .0353508
507.852 .0352563
508.692 .0351485
509.531 .0350256
510.369 .0348907
511.206 .0347465
512.043 .0345983
512.878 .0344511
513.713 .0343117
514.547 .0341801
515.381 .0340622
516.213 .0339529
517.045 .0338473
517.876 .0337382
518.706 .0336269
519.536 .0335106
520.365 .0333917
521.193 .0332684
522.020 .0331394
522.847 .0330027
523.673 .0328610
524.498 .0327127
525.323 .0325563
526.146 .0323941
526.969 .0322366
527.792 .0320787
528.614 .0319270
529.435 .0317832
530.255 .0316512
531.075 .0315293
531.894 .0314149
532.712 .0313042
533.530 .0311901
534.347 .0310840
535.163 .0309896
535.979 .0309113
536.794 .0308595
537.608 .0308349
538.422 .0308318
539.235 .0308494
540.048 .0308810
540.860 .0309109
541.671 .0309358
542.481 .0309514
543.292 .0309538
544.101 .0309414
544.910 .0309229
545.718 .0309047
546.526 .0308924
547.333 .0308904
548.139 .0308948
548.945 .0309021
549.750 .0309119
550.555 .0309211
551.359 .0309332
552.162 .0309414
552.965 .0309538
553.768 .0309666
554.569 .0309876
555.371 .0310124
556.171 .0310470
556.972 .0310861
557.771 .0311306
558.570 .0311774
559.369 .0312276
560.167 .0312764
560.964 .0313326
561.761 .0313941
562.558 .0314643
563.354 .0315399
564.149 .0316184
564.944 .0316921
565.738 .0317644
566.532 .0318283
567.325 .0318838
568.118 .0319263
568.910 .0319635
569.702 .0319939
570.494 .0320238
571.285 .0320545
572.075 .0320881
572.865 .0321225
573.654 .0321584
574.443 .0321915
575.232 .0322239
576.020 .0322558
576.807 .0322897
577.594 .0323288
578.381 .0323747
579.167 .0324283
579.952 .0324908
580.738 .0325602
581.522 .0326368
582.307 .0327141
583.091 .0327903
583.874 .0328638
584.657 .0329319
585.440 .0329955
586.222 .0330520
587.004 .0331021
587.785 .0331453
588.566 .0331803
589.346 .0332073
590.126 .0332256
590.906 .0332360
591.685 .0332387
592.464 .0332342
593.242 .0332234
594.020 .0332063
594.797 .0331865
595.575 .0331646
596.351 .0331413
597.128 .0331169
597.904 .0330916
598.679 .0330656
599.454 .0330404
600.229 .0330162
601.004 .0329934
601.778 .0329725
602.551 .0329525
603.325 .0329326
604.097 .0329125
604.870 .0328920
605.642 .0328712
606.414 .0328496
607.185 .0328276
607.956 .0328049
608.727 .0327832
609.497 .0327628
610.267 .0327439
611.037 .0327273
611.806 .0327119
612.575 .0326952
613.344 .0326766
614.112 .0326552
614.880 .0326309
615.647 .0326038
616.414 .0325755
617.181 .0325467
617.948 .0325191
618.714 .0324933
619.480 .0324699
620.245 .0324494
621.011 .0324310
621.775 .0324123
622.540 .0323932
623.304 .0323729
624.068 .0323509
624.832 .0323269
625.595 .0323028
626.358 .0322794
627.120 .0322568
627.883 .0322342
628.645 .0322134
629.406 .0321945
630.168 .0321766
630.929 .0321588
631.689 .0321408
632.450 .0321218
633.210 .0321018
633.970 .0320797
634.729 .0320560
635.489 .0320311
636.248 .0320051
637.006 .0319777
637.765 .0319494
638.523 .0319208
639.280 .0318925
640.038 .0318649
640.795 .0318386
641.552 .0318130
642.309 .0317882
643.065 .0317646
643.821 .0317415
644.577 .0317189
645.332 .0316966
646.088 .0316745
646.843 .0316528
647.597 .0316313
648.352 .0316103
649.106 .0315899
649.860 .0315703
650.613 .0315521
651.367 .0315351
652.120 .0315193
652.872 .0315043
653.625 .0314900
654.377 .0314755
655.129 .0314603
655.881 .0314439
656.632 .0314263
657.384 .0314080
658.135 .0313895
658.885 .0313708
659.636 .0313528
660.386 .0313356
661.136 .0313189
661.885 .0313026
662.635 .0312866
663.384 .0312701
664.133 .0312534
664.881 .0312364
665.630 .0312195
666.378 .0312032
667.126 .0311884
667.874 .0311739
668.621 .0311598
669.368 .0311459
670.115 .0311310
670.862 .0311153
671.608 .0310989
672.354 .0310822
673.100 .0310660
673.846 .0310509
674.591 .0310367
675.337 .0310238
676.082 .0310127
676.826 .0310018
677.571 .0309906
678.315 .0309784
679.059 .0309645
679.803 .0309487
680.547 .0309313
681.290 .0309131
682.033 .0308938
682.776 .0308744
683.518 .0308541
684.261 .0308333
685.003 .0308119
685.745 .0307894
686.487 .0307659
687.228 .0307418
687.969 .0307166
688.710 .0306905
689.451 .0306638
690.192 .0306370
690.932 .0306102
691.672 .0305841
692.412 .0305583
693.152 .0305335
693.891 .0305093
694.630 .0304865
695.369 .0304644
696.108 .0304432
696.846 .0304225
697.585 .0304018
698.323 .0303816
699.061 .0303617
699.798 .0303421
700.536 .0303229
701.273 .0303038
702.010 .0302849
702.746 .0302652
703.483 .0302448
704.219 .0302238
704.955 .0302021
705.691 .0301797
706.427 .0301568
707.162 .0301335
707.897 .0301108
708.632 .0300891
709.367 .0300682
710.101 .0300481
710.835 .0300283
711.569 .0300084
712.303 .0299877
713.037 .0299664
713.770 .0299448
714.503 .0299225
715.236 .0299000
715.969 .0298772
716.702 .0298546
717.434 .0298323
718.166 .0298104
718.898 .0297888
719.629 .0297676
720.361 .0297463
721.092 .0297247
721.823 .0297025
722.554 .0296798
723.284 .0296563
724.014 .0296313
724.744 .0296053
725.474 .0295779
726.204 .0295503
726.933 .0295231
727.662 .0294971
728.391 .0294733
729.120 .0294513
729.849 .0294316
730.577 .0294138
731.305 .0293972
732.033 .0293813
732.760 .0293651
733.488 .0293479
734.215 .0293295
734.942 .0293098
735.669 .0292887
736.395 .0292672
737.122 .0292460
737.848 .0292250
738.573 .0292042
739.299 .0291842
740.024 .0291642
740.750 .0291439
741.474 .0291237
742.199 .0291026
742.924 .0290808
743.648 .0290591
744.372 .0290374
745.096 .0290173
745.819 .0289993
746.543 .0289839
747.266 .0289711
747.989 .0289610
748.711 .0289533
749.434 .0289468
750.156 .0289419
750.878 .0289380
751.599 .0289345
752.321 .0289318
753.042 .0289296
753.763 .0289277
754.484 .0289267
755.205 .0289256
755.925 .0289244
756.645 .0289225
757.365 .0289192
758.085 .0289147
758.804 .0289089
759.523 .0289017
760.242 .0288935
760.961 .0288839
761.679 .0288739
762.397 .0288623
763.115 .0288493
763.833 .0288345
764.551 .0288179
765.268 .0287994
765.985 .0287790
766.702 .0287571
767.418 .0287350
768.134 .0287127
768.850 .0286911
769.566 .0286700
770.282 .0286495
770.997 .0286294
771.712 .0286103
772.427 .0285916
773.142 .0285738
773.856 .0285566
774.570 .0285407
775.284 .0285257
775.998 .0285116
776.711 .0284987
777.424 .0284864
778.137 .0284747
778.849 .0284628
779.562 .0284501
780.274 .0284367
780.986 .0284229
781.697 .0284091
782.409 .0283951
783.120 .0283817
783.831 .0283687
784.541 .0283561
785.252 .0283444
785.962 .0283332
786.671 .0283222
787.381 .0283113
788.090 .0283010
788.799 .0282901
789.508 .0282790
790.217 .0282676
790.925 .0282558
791.633 .0282440
792.341 .0282316
793.048 .0282183
793.755 .0282043
794.462 .0281897
795.169 .0281745
795.875 .0281589
796.581 .0281432
797.287 .0281270
797.993 .0281110
798.698 .0280953
799.403 .0280799
800.108 .0280649
800.812 .0280508
801.517 .0280376
802.221 .0280254
802.924 .0280142
803.628 .0280036
804.331 .0279945
805.034 .0279867
805.736 .0279791
806.439 .0279722
807.141 .0279654
807.843 .0279588
808.544 .0279514
809.245 .0279435
809.946 .0279342
810.647 .0279238
811.347 .0279126
812.047 .0279006
812.747 .0278878
813.447 .0278748
814.146 .0278610
814.845 .0278475
815.543 .0278338
816.242 .0278199
816.940 .0278058
817.638 .0277919
818.335 .0277779
819.032 .0277635
819.729 .0277492
820.426 .0277351
821.122 .0277207
821.818 .0277060
822.514 .0276908
823.209 .0276752
823.905 .0276590
824.599 .0276424
825.294 .0276253
825.988 .0276081
826.682 .0275905
827.376 .0275725
828.069 .0275545
828.762 .0275359
829.455 .0275167
830.147 .0274972
830.840 .0274779
831.531 .0274587
832.223 .0274405
832.914 .0274237
833.605 .0274084
834.296 .0273945
834.986 .0273816
835.676 .0273693
836.366 .0273576
837.055 .0273459
837.744 .0273339
838.433 .0273216
839.121 .0273095
839.809 .0272968
840.497 .0272842
841.185 .0272712
841.872 .0272577
842.559 .0272430
843.245 .0272272
843.932 .0272100
844.617 .0271919
845.303 .0271731
845.988 .0271539
846.673 .0271351
847.358 .0271169
848.042 .0270997
848.726 .0270836
849.410 .0270688
850.093 .0270553
850.776 .0270433
851.459 .0270326
852.141 .0270226
852.823 .0270134
853.505 .0270047
854.186 .0269961
854.867 .0269878
855.548 .0269793
856.228 .0269710
856.908 .0269629
857.588 .0269553
858.267 .0269479
858.946 .0269406
859.625 .0269334
860.303 .0269257
860.981 .0269167
861.659 .0269059
862.336 .0268927
863.013 .0268773
863.690 .0268600
864.366 .0268411
865.042 .0268214
865.718 .0268017
866.393 .0267825
867.068 .0267643
867.743 .0267471
868.417 .0267314
869.091 .0267163
869.765 .0267022
870.438 .0266883
871.111 .0266745
871.783 .0266609
872.456 .0266473
873.127 .0266338
873.799 .0266204
874.470 .0266072
875.141 .0265943
875.811 .0265821
876.481 .0265706
877.151 .0265597
877.820 .0265495
878.489 .0265397
879.158 .0265298
879.826 .0265193
880.494 .0265080
881.162 .0264958
881.829 .0264830
882.496 .0264695
883.163 .0264557
883.829 .0264424
884.495 .0264297
885.160 .0264187
885.825 .0264091
886.490 .0264011
887.154 .0263942
887.818 .0263883
888.482 .0263824
889.145 .0263760
889.808 .0263691
890.471 .0263612
891.133 .0263531
891.795 .0263446
892.456 .0263360
893.117 .0263278
893.778 .0263203
894.439 .0263134
895.099 .0263071
895.758 .0263015
896.417 .0262962
897.076 .0262917
897.735 .0262875
898.393 .0262832
899.051 .0262793
899.708 .0262751
900.365 .0262703
901.022 .0262649
901.678 .0262589
902.334 .0262516
902.990 .0262440
903.645 .0262360
904.300 .0262278
904.954 .0262197
905.608 .0262116
906.262 .0262037
906.915 .0261965
907.568 .0261887
908.221 .0261802
908.873 .0261717
909.525 .0261629
910.176 .0261536
910.828 .0261441
911.478 .0261350
912.129 .0261264
912.778 .0261184
913.428 .0261109
914.077 .0261033
914.726 .0260957
915.375 .0260873
916.023 .0260777
916.670 .0260676
917.318 .0260564
917.964 .0260443
918.611 .0260323
919.257 .0260207
919.903 .0260094
920.548 .0259988
921.193 .0259891
921.838 .0259803
922.482 .0259722
923.126 .0259646
923.770 .0259575
924.413 .0259510
925.056 .0259450
925.698 .0259393
926.340 .0259344
926.982 .0259300
927.623 .0259254
928.264 .0259206
928.904 .0259152
929.544 .0259090
930.184 .0259014
930.823 .0258927
931.462 .0258834
932.101 .0258733
932.739 .0258626
933.377 .0258515
934.014 .0258398
934.651 .0258279
935.288 .0258155
935.924 .0258029
936.560 .0257900
937.196 .0257769
937.831 .0257640
938.466 .0257515
939.100 .0257392
939.734 .0257270
940.368 .0257147
941.001 .0257025
941.634 .0256897
942.266 .0256762
942.899 .0256618
943.530 .0256468
944.162 .0256311
944.793 .0256143
945.423 .0255965
946.053 .0255777
946.683 .0255579
947.313 .0255373
947.942 .0255158
948.571 .0254934
949.199 .0254709
949.827 .0254484
950.455 .0254265
951.082 .0254057
951.709 .0253864
952.335 .0253684
952.961 .0253521
953.587 .0253373
954.212 .0253240
954.837 .0253118
955.462 .0253013
956.086 .0252917
956.710 .0252835
957.334 .0252763
957.957 .0252695
958.579 .0252631
959.202 .0252567
959.824 .0252497
960.445 .0252417
961.067 .0252326
961.688 .0252223
962.308 .0252104
962.928 .0251978
963.548 .0251841
964.168 .0251692
964.787 .0251531
965.406 .0251359
966.024 .0251180
966.642 .0250994
967.260 .0250803
967.877 .0250606
968.494 .0250414
969.110 .0250222
969.727 .0250035
970.342 .0249854
970.958 .0249688
971.573 .0249537
972.188 .0249404
972.802 .0249288
973.416 .0249188
974.030 .0249097
974.643 .0249018
975.256 .0248948
975.869 .0248886
976.481 .0248830
977.093 .0248784
977.705 .0248755
978.316 .0248748
978.927 .0248759
979.538 .0248789
980.148 .0248830
980.758 .0248881
981.367 .0248926
981.977 .0248961
982.586 .0248983
983.194 .0248991
983.802 .0248987
984.410 .0248971
985.018 .0248948
985.625 .0248921
986.232 .0248895
986.838 .0248869
987.445 .0248836
988.050 .0248797
988.656 .0248747
989.261 .0248685
989.866 .0248609
990.471 .0248522
991.075 .0248428
991.679 .0248330
992.282 .0248229
992.886 .0248129
993.489 .0248036
994.091 .0247949
994.694 .0247869
995.296 .0247796
995.897 .0247728
996.499 .0247666
997.100 .0247605
997.701 .0247551
998.301 .0247502
998.901 .0247461
999.501 .0247430
1000.101 .0247410
1000.700 .0247404
1001.299 .0247407
1001.898 .0247421
1002.496 .0247447
1003.094 .0247479
1003.692 .0247507
1004.289 .0247531
1004.887 .0247550
1005.484 .0247559
1006.080 .0247558
1006.677 .0247542
1007.273 .0247514
1007.868 .0247475
1008.464 .0247422
1009.059 .0247362
1009.654 .0247297
1010.249 .0247232
1010.843 .0247170
1011.437 .0247113
1012.031 .0247067
1012.625 .0247029
1013.218 .0247004
1013.811 .0246990
1014.404 .0246986
1014.997 .0246985
1015.589 .0246982
1016.181 .0246982
1016.773 .0246982
1017.365 .0246978
1017.956 .0246976
1018.547 .0246976
1019.138 .0246977
1019.728 .0246981
1020.319 .0246987
1020.909 .0246991
1021.499 .0246983
1022.088 .0246958
1022.678 .0246905
1023.267 .0246829
1023.856 .0246733
1024.445 .0246621
1025.033 .0246505
1025.621 .0246407
1026.209 .0246327
1026.797 .0246267
1027.385 .0246233
1027.972 .0246216
1028.560 .0246208
1029.147 .0246196
1029.734 .0246165
1030.320 .0246123
1030.907 .0246059
1031.493 .0245994
1032.079 .0245927
1032.665 .0245880
1033.250 .0245846
1033.836 .0245827
1034.421 .0245822
1035.006 .0245824
1035.591 .0245827
1036.176 .0245829
1036.761 .0245818
1037.345 .0245807
1037.929 .0245787
1038.514 .0245766
1039.097 .0245754
1039.681 .0245767
1040.265 .0245793
1040.848 .0245837
1041.432 .0245889
1042.015 .0245944
1042.598 .0245993
1043.181 .0246034
1043.764 .0246065
1044.346 .0246086
1044.929 .0246095
1045.511 .0246095
1046.094 .0246077
1046.676 .0246060
1047.258 .0246032
1047.840 .0246002
1048.422 .0245967
1049.003 .0245924
1049.585 .0245875
1050.166 .0245820
1050.748 .0245766
1051.329 .0245708
1051.910 .0245649
1052.491 .0245589
1053.072 .0245524
1053.653 .0245456
1054.234 .0245383
1054.815 .0245315
1055.396 .0245252
1055.976 .0245194
1056.557 .0245146
1057.138 .0245106
1057.718 .0245072
1058.298 .0245041
1058.879 .0245007
1059.459 .0244952
1060.039 .0244877
1060.620 .0244773
1061.200 .0244647
1061.780 .0244497
1062.360 .0244331
1062.940 .0244167
1063.520 .0244012
1064.101 .0243869
1064.681 .0243722
1065.261 .0243575
1065.841 .0243425
1066.421 .0243257
1067.001 .0243071
1067.581 .0242871
1068.161 .0242677
1068.741 .0242505
1069.321 .0242350
1069.901 .0242244
1070.482 .0242190
1071.062 .0242194
1071.642 .0242234
1072.222 .0242308
1072.803 .0242406
1073.383 .0242520
1073.963 .0242641
1074.544 .0242781
1075.124 .0242920
1075.705 .0243081
1076.286 .0243242
1076.866 .0243411
1077.447 .0243572
1078.028 .0243719
1078.609 .0243827
1079.190 .0243913
1079.771 .0243949
1080.352 .0243939
1080.934 .0243882
1081.515 .0243823
1082.097 .0243744
1082.679 .0243662
1083.260 .0243574
1083.842 .0243495
1084.424 .0243429
1085.007 .0243389
1085.589 .0243340
1086.172 .0243313
1086.754 .0243290
1087.337 .0243258
1087.920 .0243205
1088.503 .0243138
1089.087 .0243047
1089.670 .0242954
1090.254 .0242843
1090.838 .0242719
1091.422 .0242601
1092.006 .0242501
1092.590 .0242406
1093.175 .0242320
1093.760 .0242233
1094.345 .0242111
1094.930 .0241959
1095.516 .0241777
1096.102 .0241562
1096.688 .0241354
1097.274 .0241153
1097.860 .0240963
1098.447 .0240821
1099.034 .0240722
1099.622 .0240642
1100.209 .0240585
1100.797 .0240550
1101.385 .0240497
1101.973 .0240436
1102.562 .0240363
1103.151 .0240284
1103.740 .0240222
1104.330 .0240195
1104.920 .0240186
1105.510 .0240223
1106.101 .0240295
1106.691 .0240376
1107.283 .0240461
1107.874 .0240550
1108.466 .0240611
1109.058 .0240656
1109.651 .0240689
1110.244 .0240718
1110.837 .0240731
1111.431 .0240762
1112.025 .0240780
1112.620 .0240819
1113.215 .0240868
1113.810 .0240939
1114.406 .0241034
1115.002 .0241150
1115.599 .0241271
1116.196 .0241407
1116.793 .0241534
1117.391 .0241664
1117.989 .0241790
1118.588 .0241930
1119.187 .0242060
1119.787 .0242208
1120.387 .0242369
1120.988 .0242575
1121.589 .0242794
1122.190 .0243044
1122.793 .0243315
1123.395 .0243609
1123.998 .0243903
1124.602 .0244186
1125.206 .0244491
1125.811 .0244810
1126.416 .0245112
1127.022 .0245426
1127.628 .0245736
1128.235 .0246093
1128.843 .0246457
1129.451 .0246826
1130.059 .0247200
1130.669 .0247564
1131.278 .0247895
1131.889 .0248178
1132.500 .0248414
1133.112 .0248606
1133.724 .0248761
1134.337 .0248926
1134.950 .0249083
1135.564 .0249253
1136.179 .0249432
1136.795 .0249646
1137.411 .0249861
1138.028 .0250104
1138.645 .0250332
1139.263 .0250602
1139.882 .0250919
1140.502 .0251293
1141.122 .0251671
1141.743 .0252033
1142.365 .0252577
1142.987 .0253264
1143.611 .0254531
1144.235 .0253639
1144.859 .0252292
1145.485 .0258149
