Measurement Sequence started on: 10-20-44-796
Integration time: 35
Scans to Average: 2 
>>>>>Begin Spectral Data<<<<<
432.953 .0583979
433.882 .0435740
434.810 .0479687
435.737 .0460441
436.662 .0439166
437.586 .0444106
438.509 .0434220
439.431 .0429288
440.351 .0423539
441.269 .0418796
442.187 .0415087
443.103 .0411842
444.018 .0408798
444.932 .0406510
445.844 .0404601
446.756 .0403017
447.666 .0401743
448.575 .0400585
449.482 .0399677
450.388 .0398928
451.294 .0398291
452.198 .0397515
453.100 .0396735
454.002 .0396140
454.902 .0395427
455.801 .0394692
456.699 .0394004
457.596 .0393376
458.492 .0392671
459.387 .0391883
460.280 .0391024
461.172 .0390118
462.064 .0389179
462.954 .0388135
463.843 .0387067
464.730 .0386063
465.617 .0385179
466.503 .0384316
467.387 .0383533
468.271 .0382909
469.153 .0382402
470.035 .0382065
470.915 .0381857
471.794 .0381702
472.673 .0381590
473.550 .0381537
474.426 .0381499
475.301 .0381425
476.175 .0381341
477.048 .0381147
477.920 .0380879
478.791 .0380522
479.661 .0380054
480.530 .0379478
481.398 .0378908
482.266 .0378355
483.132 .0377719
483.997 .0377025
484.861 .0376254
485.724 .0375422
486.587 .0374538
487.448 .0373587
488.308 .0372565
489.168 .0371601
490.026 .0370712
490.884 .0369903
491.741 .0369257
492.597 .0368782
493.452 .0368392
494.306 .0368107
495.159 .0367874
496.011 .0367625
496.862 .0367309
497.713 .0366994
498.562 .0366631
499.411 .0366284
500.259 .0365958
501.106 .0365665
501.952 .0365461
502.798 .0365357
503.642 .0365233
504.486 .0365046
505.329 .0364753
506.171 .0364319
507.012 .0363658
507.852 .0362857
508.692 .0361882
509.531 .0360790
510.369 .0359629
511.206 .0358496
512.043 .0357328
512.878 .0356157
513.713 .0354915
514.547 .0353594
515.381 .0352156
516.213 .0350546
517.045 .0348726
517.876 .0346816
518.706 .0344855
519.536 .0342899
520.365 .0340911
521.193 .0339080
522.020 .0337456
522.847 .0335986
523.673 .0334625
524.498 .0333377
525.323 .0332193
526.146 .0331158
526.969 .0330110
527.792 .0329036
528.614 .0327959
529.435 .0326880
530.255 .0325724
531.075 .0324475
531.894 .0323226
532.712 .0321964
533.530 .0320641
534.347 .0319321
535.163 .0317862
535.979 .0316351
536.794 .0314804
537.608 .0313207
538.422 .0311630
539.235 .0310139
540.048 .0308777
540.860 .0307662
541.671 .0306877
542.481 .0306400
543.292 .0306161
544.101 .0306182
544.910 .0306444
545.718 .0306742
546.526 .0307104
547.333 .0307533
548.139 .0308039
548.945 .0308598
549.750 .0309125
550.555 .0309634
551.359 .0310163
552.162 .0310651
552.965 .0310999
553.768 .0311211
554.569 .0311329
555.371 .0311244
556.171 .0311009
556.972 .0310701
557.771 .0310325
558.570 .0309956
559.369 .0309660
560.167 .0309466
560.964 .0309423
561.761 .0309490
562.558 .0309651
563.354 .0310006
564.149 .0310547
564.944 .0311190
565.738 .0311932
566.532 .0312840
567.325 .0313832
568.118 .0314832
568.910 .0315828
569.702 .0316818
570.494 .0317803
571.285 .0318756
572.075 .0319613
572.865 .0320437
573.654 .0321277
574.443 .0322101
575.232 .0322936
576.020 .0323814
576.807 .0324680
577.594 .0325524
578.381 .0326318
579.167 .0327066
579.952 .0327742
580.738 .0328360
581.522 .0328918
582.307 .0329443
583.091 .0329947
583.874 .0330440
584.657 .0330933
585.440 .0331458
586.222 .0331960
587.004 .0332389
587.785 .0332745
588.566 .0333012
589.346 .0333189
590.126 .0333292
590.906 .0333337
591.685 .0333371
592.464 .0333401
593.242 .0333460
594.020 .0333543
594.797 .0333669
595.575 .0333807
596.351 .0333936
597.128 .0334037
597.904 .0334100
598.679 .0334116
599.454 .0334090
600.229 .0334041
601.004 .0333972
601.778 .0333892
602.551 .0333804
603.325 .0333707
604.097 .0333607
604.870 .0333501
605.642 .0333384
606.414 .0333240
607.185 .0333084
607.956 .0332912
608.727 .0332721
609.497 .0332512
610.267 .0332278
611.037 .0332017
611.806 .0331725
612.575 .0331412
613.344 .0331082
614.112 .0330758
614.880 .0330456
615.647 .0330171
616.414 .0329905
617.181 .0329659
617.948 .0329414
618.714 .0329163
619.480 .0328903
620.245 .0328610
621.011 .0328278
621.775 .0327919
622.540 .0327546
623.304 .0327167
624.068 .0326794
624.832 .0326436
625.595 .0326094
626.358 .0325775
627.120 .0325466
627.883 .0325155
628.645 .0324850
629.406 .0324546
630.168 .0324224
630.929 .0323891
631.689 .0323550
632.450 .0323206
633.210 .0322874
633.970 .0322554
634.729 .0322249
635.489 .0321950
636.248 .0321666
637.006 .0321391
637.765 .0321120
638.523 .0320861
639.280 .0320602
640.038 .0320345
640.795 .0320088
641.552 .0319832
642.309 .0319587
643.065 .0319361
643.821 .0319156
644.577 .0318970
645.332 .0318797
646.088 .0318637
646.843 .0318488
647.597 .0318350
648.352 .0318223
649.106 .0318111
649.860 .0318007
650.613 .0317918
651.367 .0317842
652.120 .0317781
652.872 .0317731
653.625 .0317687
654.377 .0317644
655.129 .0317593
655.881 .0317526
656.632 .0317439
657.384 .0317331
658.135 .0317215
658.885 .0317081
659.636 .0316941
660.386 .0316788
661.136 .0316635
661.885 .0316478
662.635 .0316320
663.384 .0316163
664.133 .0316008
664.881 .0315847
665.630 .0315679
666.378 .0315506
667.126 .0315329
667.874 .0315142
668.621 .0314957
669.368 .0314766
670.115 .0314576
670.862 .0314383
671.608 .0314195
672.354 .0314016
673.100 .0313856
673.846 .0313711
674.591 .0313579
675.337 .0313466
676.082 .0313361
676.826 .0313250
677.571 .0313134
678.315 .0313001
679.059 .0312853
679.803 .0312683
680.547 .0312493
681.290 .0312281
682.033 .0312059
682.776 .0311829
683.518 .0311590
684.261 .0311348
685.003 .0311110
685.745 .0310861
686.487 .0310599
687.228 .0310323
687.969 .0310027
688.710 .0309711
689.451 .0309378
690.192 .0309027
690.932 .0308665
691.672 .0308300
692.412 .0307934
693.152 .0307581
693.891 .0307247
694.630 .0306934
695.369 .0306632
696.108 .0306344
696.846 .0306061
697.585 .0305769
698.323 .0305475
699.061 .0305178
699.798 .0304872
700.536 .0304561
701.273 .0304243
702.010 .0303928
702.746 .0303624
703.483 .0303331
704.219 .0303043
704.955 .0302772
705.691 .0302512
706.427 .0302259
707.162 .0302017
707.897 .0301786
708.632 .0301560
709.367 .0301339
710.101 .0301116
710.835 .0300891
711.569 .0300670
712.303 .0300466
713.037 .0300280
713.770 .0300119
714.503 .0299977
715.236 .0299850
715.969 .0299740
716.702 .0299633
717.434 .0299519
718.166 .0299394
718.898 .0299246
719.629 .0299077
720.361 .0298893
721.092 .0298700
721.823 .0298507
722.554 .0298321
723.284 .0298137
724.014 .0297950
724.744 .0297759
725.474 .0297554
726.204 .0297342
726.933 .0297130
727.662 .0296915
728.391 .0296705
729.120 .0296507
729.849 .0296329
730.577 .0296167
731.305 .0296023
732.033 .0295890
732.760 .0295757
733.488 .0295621
734.215 .0295475
734.942 .0295324
735.669 .0295172
736.395 .0295029
737.122 .0294893
737.848 .0294772
738.573 .0294668
739.299 .0294571
740.024 .0294480
740.750 .0294389
741.474 .0294293
742.199 .0294183
742.924 .0294068
743.648 .0293950
744.372 .0293828
745.096 .0293719
745.819 .0293624
746.543 .0293547
747.266 .0293488
747.989 .0293448
748.711 .0293417
749.434 .0293392
750.156 .0293374
750.878 .0293353
751.599 .0293341
752.321 .0293341
753.042 .0293347
753.763 .0293358
754.484 .0293377
755.205 .0293391
755.925 .0293405
756.645 .0293414
757.365 .0293406
758.085 .0293385
758.804 .0293352
759.523 .0293300
760.242 .0293230
760.961 .0293148
761.679 .0293048
762.397 .0292924
763.115 .0292780
763.833 .0292598
764.551 .0292389
765.268 .0292157
765.985 .0291908
766.702 .0291651
767.418 .0291393
768.134 .0291133
768.850 .0290879
769.566 .0290641
770.282 .0290406
770.997 .0290174
771.712 .0289952
772.427 .0289731
773.142 .0289511
773.856 .0289298
774.570 .0289091
775.284 .0288900
775.998 .0288725
776.711 .0288553
777.424 .0288395
778.137 .0288244
778.849 .0288098
779.562 .0287956
780.274 .0287821
780.986 .0287688
781.697 .0287549
782.409 .0287411
783.120 .0287264
783.831 .0287109
784.541 .0286948
785.252 .0286772
785.962 .0286591
786.671 .0286401
787.381 .0286191
788.090 .0285977
788.799 .0285760
789.508 .0285534
790.217 .0285303
790.925 .0285074
791.633 .0284841
792.341 .0284600
793.048 .0284352
793.755 .0284100
794.462 .0283842
795.169 .0283586
795.875 .0283330
796.581 .0283080
797.287 .0282846
797.993 .0282625
798.698 .0282417
799.403 .0282228
800.108 .0282045
800.812 .0281867
801.517 .0281686
802.221 .0281501
802.924 .0281312
803.628 .0281117
804.331 .0280928
805.034 .0280745
805.736 .0280558
806.439 .0280376
807.141 .0280195
807.843 .0280008
808.544 .0279813
809.245 .0279605
809.946 .0279380
810.647 .0279144
811.347 .0278897
812.047 .0278650
812.747 .0278406
813.447 .0278174
814.146 .0277955
814.845 .0277753
815.543 .0277574
816.242 .0277406
816.940 .0277248
817.638 .0277108
818.335 .0276975
819.032 .0276846
819.729 .0276718
820.426 .0276593
821.122 .0276466
821.818 .0276333
822.514 .0276190
823.209 .0276046
823.905 .0275897
824.599 .0275745
825.294 .0275587
825.988 .0275425
826.682 .0275256
827.376 .0275076
828.069 .0274890
828.762 .0274702
829.455 .0274508
830.147 .0274315
830.840 .0274127
831.531 .0273956
832.223 .0273796
832.914 .0273650
833.605 .0273519
834.296 .0273400
834.986 .0273279
835.676 .0273156
836.366 .0273026
837.055 .0272894
837.744 .0272759
838.433 .0272624
839.121 .0272489
839.809 .0272356
840.497 .0272218
841.185 .0272086
841.872 .0271953
842.559 .0271829
843.245 .0271703
843.932 .0271586
844.617 .0271476
845.303 .0271378
845.988 .0271294
846.673 .0271223
847.358 .0271164
848.042 .0271121
848.726 .0271084
849.410 .0271056
850.093 .0271029
850.776 .0271012
851.459 .0270998
852.141 .0270993
852.823 .0270986
853.505 .0270981
854.186 .0270977
854.867 .0270972
855.548 .0270957
856.228 .0270934
856.908 .0270907
857.588 .0270872
858.267 .0270829
858.946 .0270786
859.625 .0270743
860.303 .0270708
860.981 .0270676
861.659 .0270651
862.336 .0270623
863.013 .0270595
863.690 .0270553
864.366 .0270500
865.042 .0270433
865.718 .0270352
866.393 .0270261
867.068 .0270171
867.743 .0270085
868.417 .0270004
869.091 .0269932
869.765 .0269878
870.438 .0269830
871.111 .0269787
871.783 .0269741
872.456 .0269689
873.127 .0269627
873.799 .0269563
874.470 .0269498
875.141 .0269444
875.811 .0269405
876.481 .0269380
877.151 .0269372
877.820 .0269379
878.489 .0269397
879.158 .0269417
879.826 .0269437
880.494 .0269446
881.162 .0269439
881.829 .0269420
882.496 .0269390
883.163 .0269353
883.829 .0269316
884.495 .0269280
885.160 .0269247
885.825 .0269218
886.490 .0269200
887.154 .0269184
887.818 .0269174
888.482 .0269164
889.145 .0269148
889.808 .0269126
890.471 .0269094
891.133 .0269052
891.795 .0269004
892.456 .0268950
893.117 .0268891
893.778 .0268819
894.439 .0268746
895.099 .0268666
895.758 .0268583
896.417 .0268497
897.076 .0268407
897.735 .0268311
898.393 .0268209
899.051 .0268103
899.708 .0267993
900.365 .0267881
901.022 .0267775
901.678 .0267676
902.334 .0267582
902.990 .0267496
903.645 .0267419
904.300 .0267344
904.954 .0267273
905.608 .0267191
906.262 .0267099
906.915 .0266997
907.568 .0266880
908.221 .0266749
908.873 .0266617
909.525 .0266486
910.176 .0266358
910.828 .0266228
911.478 .0266105
912.129 .0265975
912.778 .0265840
913.428 .0265694
914.077 .0265543
914.726 .0265385
915.375 .0265230
916.023 .0265081
916.670 .0264950
917.318 .0264834
917.964 .0264731
918.611 .0264632
919.257 .0264543
919.903 .0264443
920.548 .0264331
921.193 .0264199
921.838 .0264058
922.482 .0263902
923.126 .0263740
923.770 .0263569
924.413 .0263401
925.056 .0263232
925.698 .0263061
926.340 .0262882
926.982 .0262702
927.623 .0262513
928.264 .0262320
928.904 .0262118
929.544 .0261919
930.184 .0261704
930.823 .0261488
931.462 .0261262
932.101 .0261030
932.739 .0260791
933.377 .0260538
934.014 .0260278
934.651 .0260015
935.288 .0259748
935.924 .0259478
936.560 .0259216
937.196 .0258970
937.831 .0258729
938.466 .0258494
939.100 .0258265
939.734 .0258042
940.368 .0257820
941.001 .0257596
941.634 .0257369
942.266 .0257146
942.899 .0256919
943.530 .0256685
944.162 .0256449
944.793 .0256202
945.423 .0255943
946.053 .0255671
946.683 .0255384
947.313 .0255086
947.942 .0254773
948.571 .0254449
949.199 .0254113
949.827 .0253770
950.455 .0253421
951.082 .0253070
951.709 .0252735
952.335 .0252406
952.961 .0252091
953.587 .0251804
954.212 .0251541
954.837 .0251296
955.462 .0251070
956.086 .0250862
956.710 .0250671
957.334 .0250491
957.957 .0250315
958.579 .0250150
959.202 .0250002
959.824 .0249862
960.445 .0249723
961.067 .0249587
961.688 .0249450
962.308 .0249299
962.928 .0249135
963.548 .0248954
964.168 .0248758
964.787 .0248554
965.406 .0248353
966.024 .0248163
966.642 .0247987
967.260 .0247826
967.877 .0247684
968.494 .0247553
969.110 .0247416
969.727 .0247272
970.342 .0247120
970.958 .0246961
971.573 .0246796
972.188 .0246629
972.802 .0246471
973.416 .0246329
974.030 .0246206
974.643 .0246091
975.256 .0245994
975.869 .0245909
976.481 .0245829
977.093 .0245762
977.705 .0245706
978.316 .0245655
978.927 .0245612
979.538 .0245574
980.148 .0245530
980.758 .0245475
981.367 .0245415
981.977 .0245344
982.586 .0245271
983.194 .0245197
983.802 .0245126
984.410 .0245058
985.018 .0245002
985.625 .0244946
986.232 .0244893
986.838 .0244840
987.445 .0244780
988.050 .0244713
988.656 .0244641
989.261 .0244570
989.866 .0244502
990.471 .0244444
991.075 .0244403
991.679 .0244373
992.282 .0244356
992.886 .0244350
993.489 .0244352
994.091 .0244363
994.694 .0244374
995.296 .0244387
995.897 .0244395
996.499 .0244398
997.100 .0244390
997.701 .0244377
998.301 .0244354
998.901 .0244324
999.501 .0244291
1000.101 .0244264
1000.700 .0244240
1001.299 .0244228
1001.898 .0244220
1002.496 .0244222
1003.094 .0244227
1003.692 .0244238
1004.289 .0244250
1004.887 .0244276
1005.484 .0244313
1006.080 .0244364
1006.677 .0244425
1007.273 .0244499
1007.868 .0244574
1008.464 .0244655
1009.059 .0244728
1009.654 .0244796
1010.249 .0244854
1010.843 .0244912
1011.437 .0244974
1012.031 .0245048
1012.625 .0245129
1013.218 .0245212
1013.811 .0245297
1014.404 .0245368
1014.997 .0245407
1015.589 .0245419
1016.181 .0245403
1016.773 .0245366
1017.365 .0245313
1017.956 .0245253
1018.547 .0245194
1019.138 .0245156
1019.728 .0245145
1020.319 .0245149
1020.909 .0245174
1021.499 .0245210
1022.088 .0245254
1022.678 .0245296
1023.267 .0245350
1023.856 .0245399
1024.445 .0245452
1025.033 .0245513
1025.621 .0245565
1026.209 .0245608
1026.797 .0245645
1027.385 .0245677
1027.972 .0245701
1028.560 .0245729
1029.147 .0245761
1029.734 .0245791
1030.320 .0245839
1030.907 .0245885
1031.493 .0245932
1032.079 .0245971
1032.665 .0246018
1033.250 .0246056
1033.836 .0246104
1034.421 .0246173
1035.006 .0246277
1035.591 .0246424
1036.176 .0246619
1036.761 .0246848
1037.345 .0247106
1037.929 .0247371
1038.514 .0247638
1039.097 .0247879
1039.681 .0248101
1040.265 .0248292
1040.848 .0248460
1041.432 .0248602
1042.015 .0248736
1042.598 .0248854
1043.181 .0248965
1043.764 .0249061
1044.346 .0249139
1044.929 .0249197
1045.511 .0249244
1046.094 .0249279
1046.676 .0249311
1047.258 .0249338
1047.840 .0249373
1048.422 .0249408
1049.003 .0249452
1049.585 .0249489
1050.166 .0249520
1050.748 .0249547
1051.329 .0249563
1051.910 .0249570
1052.491 .0249582
1053.072 .0249604
1053.653 .0249649
1054.234 .0249701
1054.815 .0249754
1055.396 .0249788
1055.976 .0249796
1056.557 .0249767
1057.138 .0249701
1057.718 .0249601
1058.298 .0249481
1058.879 .0249359
1059.459 .0249252
1060.039 .0249174
1060.620 .0249125
1061.200 .0249100
1061.780 .0249079
1062.360 .0249043
1062.940 .0248979
1063.520 .0248881
1064.101 .0248768
1064.681 .0248651
1065.261 .0248534
1065.841 .0248431
1066.421 .0248351
1067.001 .0248297
1067.581 .0248263
1068.161 .0248237
1068.741 .0248215
1069.321 .0248196
1069.901 .0248189
1070.482 .0248197
1071.062 .0248229
1071.642 .0248316
1072.222 .0248444
1072.803 .0248620
1073.383 .0248818
1073.963 .0249027
1074.544 .0249224
1075.124 .0249402
1075.705 .0249549
1076.286 .0249665
1076.866 .0249751
1077.447 .0249824
1078.028 .0249876
1078.609 .0249920
1079.190 .0249954
1079.771 .0249981
1080.352 .0250005
1080.934 .0250034
1081.515 .0250056
1082.097 .0250091
1082.679 .0250121
1083.260 .0250152
1083.842 .0250184
1084.424 .0250221
1085.007 .0250274
1085.589 .0250329
1086.172 .0250413
1086.754 .0250507
1087.337 .0250612
1087.920 .0250735
1088.503 .0250840
1089.087 .0250918
1089.670 .0250937
1090.254 .0250860
1090.838 .0250694
1091.422 .0250450
1092.006 .0250148
1092.590 .0249813
1093.175 .0249470
1093.760 .0249126
1094.345 .0248792
1094.930 .0248469
1095.516 .0248196
1096.102 .0247951
1096.688 .0247761
1097.274 .0247610
1097.860 .0247498
1098.447 .0247427
1099.034 .0247403
1099.622 .0247409
1100.209 .0247457
1100.797 .0247522
1101.385 .0247588
1101.973 .0247638
1102.562 .0247678
1103.151 .0247719
1103.740 .0247742
1104.330 .0247750
1104.920 .0247735
1105.510 .0247667
1106.101 .0247567
1106.691 .0247395
1107.283 .0247187
1107.874 .0246963
1108.466 .0246729
1109.058 .0246515
1109.651 .0246318
1110.244 .0246169
1110.837 .0246048
1111.431 .0245919
1112.025 .0245744
1112.620 .0245532
1113.215 .0245252
1113.810 .0244948
1114.406 .0244620
1115.002 .0244294
1115.599 .0244045
1116.196 .0243844
1116.793 .0243709
1117.391 .0243633
1117.989 .0243595
1118.588 .0243595
1119.187 .0243557
1119.787 .0243540
1120.387 .0243492
1120.988 .0243469
1121.589 .0243505
1122.190 .0243608
1122.793 .0243787
1123.395 .0244079
1123.998 .0244466
1124.602 .0244972
1125.206 .0245604
1125.811 .0246259
1126.416 .0246940
1127.022 .0247653
1127.628 .0248313
1128.235 .0248896
1128.843 .0249322
1129.451 .0249663
1130.059 .0249868
1130.669 .0249966
1131.278 .0250022
1131.889 .0250107
1132.500 .0250326
1133.112 .0250674
1133.724 .0251134
1134.337 .0251708
1134.950 .0252274
1135.564 .0252795
1136.179 .0253177
1136.795 .0253437
1137.411 .0253559
1138.028 .0253590
1138.645 .0253665
1139.263 .0253857
1139.882 .0254131
1140.502 .0254398
1141.122 .0254706
1141.743 .0255043
1142.365 .0255471
1142.987 .0256768
1143.611 .0253326
1144.235 .0254522
1144.859 .0256471
1145.485 .0260739
