Measurement Sequence started on: 10-20-44-796
Integration time: 35
Scans to Average: 2 
>>>>>Begin Spectral Data<<<<<
432.953 .0306394
433.882 .0454870
434.810 .0406049
435.737 .0401471
436.662 .0378170
437.586 .0390875
438.509 .0392524
439.431 .0390840
440.351 .0391842
441.269 .0393408
442.187 .0395604
443.103 .0397602
444.018 .0399295
444.932 .0400799
445.844 .0402168
446.756 .0403282
447.666 .0404309
448.575 .0404927
449.482 .0405363
450.388 .0405370
451.294 .0405113
452.198 .0404529
453.100 .0403564
454.002 .0402181
454.902 .0400590
455.801 .0398737
456.699 .0396887
457.596 .0395109
458.492 .0393532
459.387 .0392128
460.280 .0391032
461.172 .0390180
462.064 .0389522
462.954 .0388936
463.843 .0388482
464.730 .0388080
465.617 .0387741
466.503 .0387536
467.387 .0387474
468.271 .0387531
469.153 .0387733
470.035 .0388008
470.915 .0388314
471.794 .0388545
472.673 .0388720
473.550 .0388809
474.426 .0388846
475.301 .0388858
476.175 .0388867
477.048 .0388879
477.920 .0388899
478.791 .0388847
479.661 .0388654
480.530 .0388365
481.398 .0387911
482.266 .0387309
483.132 .0386621
483.997 .0385891
484.861 .0385198
485.724 .0384555
486.587 .0384008
487.448 .0383515
488.308 .0383061
489.168 .0382608
490.026 .0382105
490.884 .0381538
491.741 .0380914
492.597 .0380258
493.452 .0379645
494.306 .0379161
495.159 .0378788
496.011 .0378562
496.862 .0378485
497.713 .0378458
498.562 .0378430
499.411 .0378275
500.259 .0377996
501.106 .0377537
501.952 .0376913
502.798 .0376165
503.642 .0375306
504.486 .0374411
505.329 .0373492
506.171 .0372524
507.012 .0371551
507.852 .0370487
508.692 .0369301
509.531 .0367961
510.369 .0366476
511.206 .0364856
512.043 .0363221
512.878 .0361647
513.713 .0360217
514.547 .0358958
515.381 .0357938
516.213 .0357038
517.045 .0356186
517.876 .0355310
518.706 .0354306
519.536 .0353193
520.365 .0352025
521.193 .0350757
522.020 .0349511
522.847 .0348340
523.673 .0347316
524.498 .0346373
525.323 .0345543
526.146 .0344741
526.969 .0343880
527.792 .0342975
528.614 .0341929
529.435 .0340738
530.255 .0339590
531.075 .0338372
531.894 .0337125
532.712 .0335912
533.530 .0334706
534.347 .0333494
535.163 .0332215
535.979 .0330922
536.794 .0329559
537.608 .0328193
538.422 .0326813
539.235 .0325405
540.048 .0324132
540.860 .0322925
541.671 .0321826
542.481 .0320829
543.292 .0319954
544.101 .0319150
544.910 .0318440
545.718 .0317897
546.526 .0317485
547.333 .0317210
548.139 .0317043
548.945 .0316906
549.750 .0316760
550.555 .0316550
551.359 .0316349
552.162 .0316141
552.965 .0316045
553.768 .0315957
554.569 .0315963
555.371 .0316005
556.171 .0316106
556.972 .0316127
557.771 .0316124
558.570 .0316090
559.369 .0316015
560.167 .0316006
560.964 .0316135
561.761 .0316425
562.558 .0317006
563.354 .0317780
564.149 .0318743
564.944 .0319746
565.738 .0320773
566.532 .0321672
567.325 .0322404
568.118 .0322949
568.910 .0323326
569.702 .0323554
570.494 .0323766
571.285 .0323934
572.075 .0324197
572.865 .0324583
573.654 .0325032
574.443 .0325502
575.232 .0325992
576.020 .0326404
576.807 .0326749
577.594 .0327016
578.381 .0327236
579.167 .0327441
579.952 .0327702
580.738 .0328032
581.522 .0328438
582.307 .0328927
583.091 .0329472
583.874 .0330022
584.657 .0330578
585.440 .0331056
586.222 .0331442
587.004 .0331754
587.785 .0331999
588.566 .0332182
589.346 .0332341
590.126 .0332500
590.906 .0332677
591.685 .0332862
592.464 .0333038
593.242 .0333199
594.020 .0333324
594.797 .0333422
595.575 .0333487
596.351 .0333511
597.128 .0333520
597.904 .0333510
598.679 .0333502
599.454 .0333490
600.229 .0333474
601.004 .0333440
601.778 .0333361
602.551 .0333249
603.325 .0333091
604.097 .0332890
604.870 .0332664
605.642 .0332425
606.414 .0332175
607.185 .0331925
607.956 .0331672
608.727 .0331417
609.497 .0331169
610.267 .0330917
611.037 .0330652
611.806 .0330367
612.575 .0330077
613.344 .0329771
614.112 .0329447
614.880 .0329126
615.647 .0328796
616.414 .0328472
617.181 .0328150
617.948 .0327834
618.714 .0327530
619.480 .0327237
620.245 .0326954
621.011 .0326673
621.775 .0326395
622.540 .0326108
623.304 .0325811
624.068 .0325508
624.832 .0325200
625.595 .0324884
626.358 .0324561
627.120 .0324250
627.883 .0323943
628.645 .0323647
629.406 .0323355
630.168 .0323074
630.929 .0322804
631.689 .0322530
632.450 .0322250
633.210 .0321973
633.970 .0321701
634.729 .0321417
635.489 .0321127
636.248 .0320829
637.006 .0320520
637.765 .0320210
638.523 .0319899
639.280 .0319608
640.038 .0319341
640.795 .0319105
641.552 .0318893
642.309 .0318709
643.065 .0318539
643.821 .0318354
644.577 .0318149
645.332 .0317926
646.088 .0317657
646.843 .0317349
647.597 .0317021
648.352 .0316679
649.106 .0316337
649.860 .0316000
650.613 .0315662
651.367 .0315329
652.120 .0314990
652.872 .0314641
653.625 .0314275
654.377 .0313902
655.129 .0313513
655.881 .0313117
656.632 .0312734
657.384 .0312360
658.135 .0312000
658.885 .0311670
659.636 .0311367
660.386 .0311078
661.136 .0310799
661.885 .0310524
662.635 .0310262
663.384 .0310014
664.133 .0309770
664.881 .0309533
665.630 .0309315
666.378 .0309112
667.126 .0308917
667.874 .0308723
668.621 .0308528
669.368 .0308322
670.115 .0308112
670.862 .0307886
671.608 .0307662
672.354 .0307444
673.100 .0307250
673.846 .0307081
674.591 .0306944
675.337 .0306838
676.082 .0306754
676.826 .0306682
677.571 .0306615
678.315 .0306538
679.059 .0306448
679.803 .0306342
680.547 .0306231
681.290 .0306117
682.033 .0306002
682.776 .0305895
683.518 .0305792
684.261 .0305688
685.003 .0305576
685.745 .0305441
686.487 .0305286
687.228 .0305111
687.969 .0304907
688.710 .0304687
689.451 .0304465
690.192 .0304247
690.932 .0304032
691.672 .0303832
692.412 .0303648
693.152 .0303482
693.891 .0303327
694.630 .0303183
695.369 .0303048
696.108 .0302927
696.846 .0302810
697.585 .0302693
698.323 .0302584
699.061 .0302483
699.798 .0302382
700.536 .0302283
701.273 .0302180
702.010 .0302075
702.746 .0301953
703.483 .0301821
704.219 .0301677
704.955 .0301516
705.691 .0301337
706.427 .0301138
707.162 .0300926
707.897 .0300699
708.632 .0300461
709.367 .0300213
710.101 .0299965
710.835 .0299720
711.569 .0299474
712.303 .0299237
713.037 .0299015
713.770 .0298803
714.503 .0298593
715.236 .0298386
715.969 .0298175
716.702 .0297954
717.434 .0297724
718.166 .0297486
718.898 .0297243
719.629 .0296991
720.361 .0296733
721.092 .0296466
721.823 .0296193
722.554 .0295917
723.284 .0295630
724.014 .0295327
724.744 .0295007
725.474 .0294669
726.204 .0294317
726.933 .0293958
727.662 .0293597
728.391 .0293240
729.120 .0292894
729.849 .0292562
730.577 .0292246
731.305 .0291951
732.033 .0291680
732.760 .0291426
733.488 .0291187
734.215 .0290956
734.942 .0290725
735.669 .0290493
736.395 .0290262
737.122 .0290029
737.848 .0289786
738.573 .0289533
739.299 .0289274
740.024 .0289015
740.750 .0288766
741.474 .0288516
742.199 .0288282
742.924 .0288056
743.648 .0287830
744.372 .0287600
745.096 .0287371
745.819 .0287144
746.543 .0286915
747.266 .0286688
747.989 .0286466
748.711 .0286255
749.434 .0286064
750.156 .0285892
750.878 .0285754
751.599 .0285640
752.321 .0285545
753.042 .0285457
753.763 .0285381
754.484 .0285300
755.205 .0285210
755.925 .0285109
756.645 .0285000
757.365 .0284885
758.085 .0284764
758.804 .0284644
759.523 .0284529
760.242 .0284412
760.961 .0284287
761.679 .0284144
762.397 .0283984
763.115 .0283796
763.833 .0283584
764.551 .0283353
765.268 .0283118
765.985 .0282883
766.702 .0282651
767.418 .0282435
768.134 .0282235
768.850 .0282043
769.566 .0281856
770.282 .0281671
770.997 .0281492
771.712 .0281312
772.427 .0281141
773.142 .0280982
773.856 .0280839
774.570 .0280717
775.284 .0280620
775.998 .0280543
776.711 .0280486
777.424 .0280435
778.137 .0280385
778.849 .0280335
779.562 .0280278
780.274 .0280217
780.986 .0280155
781.697 .0280101
782.409 .0280050
783.120 .0280006
783.831 .0279972
784.541 .0279944
785.252 .0279923
785.962 .0279902
786.671 .0279876
787.381 .0279847
788.090 .0279811
788.799 .0279772
789.508 .0279729
790.217 .0279686
790.925 .0279640
791.633 .0279596
792.341 .0279546
793.048 .0279494
793.755 .0279433
794.462 .0279369
795.169 .0279299
795.875 .0279229
796.581 .0279158
797.287 .0279093
797.993 .0279037
798.698 .0278991
799.403 .0278951
800.108 .0278923
800.812 .0278896
801.517 .0278872
802.221 .0278854
802.924 .0278839
803.628 .0278828
804.331 .0278836
805.034 .0278857
805.736 .0278890
806.439 .0278929
807.141 .0278973
807.843 .0279012
808.544 .0279042
809.245 .0279056
809.946 .0279049
810.647 .0279025
811.347 .0278986
812.047 .0278924
812.747 .0278850
813.447 .0278769
814.146 .0278671
814.845 .0278565
815.543 .0278453
816.242 .0278334
816.940 .0278212
817.638 .0278097
818.335 .0277993
819.032 .0277898
819.729 .0277813
820.426 .0277733
821.122 .0277654
821.818 .0277578
822.514 .0277496
823.209 .0277411
823.905 .0277326
824.599 .0277247
825.294 .0277162
825.988 .0277080
826.682 .0276997
827.376 .0276904
828.069 .0276800
828.762 .0276679
829.455 .0276536
830.147 .0276376
830.840 .0276203
831.531 .0276029
832.223 .0275862
832.914 .0275713
833.605 .0275578
834.296 .0275461
834.986 .0275360
835.676 .0275271
836.366 .0275185
837.055 .0275104
837.744 .0275023
838.433 .0274938
839.121 .0274860
839.809 .0274786
840.497 .0274720
841.185 .0274657
841.872 .0274597
842.559 .0274538
843.245 .0274462
843.932 .0274376
844.617 .0274272
845.303 .0274151
845.988 .0274018
846.673 .0273875
847.358 .0273731
848.042 .0273588
848.726 .0273453
849.410 .0273324
850.093 .0273199
850.776 .0273081
851.459 .0272958
852.141 .0272826
852.823 .0272691
853.505 .0272547
854.186 .0272385
854.867 .0272227
855.548 .0272066
856.228 .0271910
856.908 .0271759
857.588 .0271611
858.267 .0271467
858.946 .0271323
859.625 .0271176
860.303 .0271013
860.981 .0270840
861.659 .0270667
862.336 .0270480
863.013 .0270291
863.690 .0270101
864.366 .0269911
865.042 .0269723
865.718 .0269541
866.393 .0269353
867.068 .0269163
867.743 .0268968
868.417 .0268771
869.091 .0268568
869.765 .0268359
870.438 .0268146
871.111 .0267938
871.783 .0267740
872.456 .0267550
873.127 .0267360
873.799 .0267179
874.470 .0266995
875.141 .0266808
875.811 .0266614
876.481 .0266415
877.151 .0266216
877.820 .0266018
878.489 .0265818
879.158 .0265624
879.826 .0265436
880.494 .0265260
881.162 .0265088
881.829 .0264926
882.496 .0264759
883.163 .0264590
883.829 .0264423
884.495 .0264256
885.160 .0264094
885.825 .0263942
886.490 .0263803
887.154 .0263683
887.818 .0263573
888.482 .0263475
889.145 .0263389
889.808 .0263313
890.471 .0263233
891.133 .0263151
891.795 .0263065
892.456 .0262978
893.117 .0262881
893.778 .0262784
894.439 .0262685
895.099 .0262581
895.758 .0262471
896.417 .0262348
897.076 .0262222
897.735 .0262095
898.393 .0261966
899.051 .0261846
899.708 .0261728
900.365 .0261618
901.022 .0261513
901.678 .0261418
902.334 .0261328
902.990 .0261238
903.645 .0261146
904.300 .0261055
904.954 .0260955
905.608 .0260851
906.262 .0260740
906.915 .0260636
907.568 .0260535
908.221 .0260438
908.873 .0260347
909.525 .0260259
910.176 .0260173
910.828 .0260088
911.478 .0259997
912.129 .0259902
912.778 .0259793
913.428 .0259677
914.077 .0259552
914.726 .0259424
915.375 .0259293
916.023 .0259158
916.670 .0259018
917.318 .0258878
917.964 .0258733
918.611 .0258583
919.257 .0258429
919.903 .0258273
920.548 .0258112
921.193 .0257938
921.838 .0257757
922.482 .0257565
923.126 .0257372
923.770 .0257184
924.413 .0256998
925.056 .0256821
925.698 .0256660
926.340 .0256520
926.982 .0256401
927.623 .0256299
928.264 .0256216
928.904 .0256140
929.544 .0256076
930.184 .0256013
930.823 .0255950
931.462 .0255891
932.101 .0255846
932.739 .0255808
933.377 .0255780
934.014 .0255757
934.651 .0255747
935.288 .0255742
935.924 .0255739
936.560 .0255736
937.196 .0255728
937.831 .0255721
938.466 .0255714
939.100 .0255701
939.734 .0255686
940.368 .0255665
941.001 .0255640
941.634 .0255604
942.266 .0255551
942.899 .0255485
943.530 .0255403
944.162 .0255316
944.793 .0255217
945.423 .0255112
946.053 .0255002
946.683 .0254891
947.313 .0254775
947.942 .0254654
948.571 .0254524
949.199 .0254399
949.827 .0254266
950.455 .0254127
951.082 .0253992
951.709 .0253861
952.335 .0253734
952.961 .0253624
953.587 .0253528
954.212 .0253448
954.837 .0253383
955.462 .0253333
956.086 .0253289
956.710 .0253253
957.334 .0253220
957.957 .0253177
958.579 .0253124
959.202 .0253071
959.824 .0253009
960.445 .0252954
961.067 .0252916
961.688 .0252894
962.308 .0252892
962.928 .0252909
963.548 .0252938
964.168 .0252970
964.787 .0253003
965.406 .0253025
966.024 .0253032
966.642 .0253023
967.260 .0253001
967.877 .0252969
968.494 .0252938
969.110 .0252908
969.727 .0252876
970.342 .0252842
970.958 .0252808
971.573 .0252770
972.188 .0252730
972.802 .0252685
973.416 .0252651
974.030 .0252625
974.643 .0252615
975.256 .0252624
975.869 .0252651
976.481 .0252697
977.093 .0252758
977.705 .0252831
978.316 .0252910
978.927 .0253001
979.538 .0253101
980.148 .0253199
980.758 .0253305
981.367 .0253405
981.977 .0253497
982.586 .0253577
983.194 .0253642
983.802 .0253683
984.410 .0253696
985.018 .0253682
985.625 .0253640
986.232 .0253579
986.838 .0253507
987.445 .0253424
988.050 .0253340
988.656 .0253261
989.261 .0253186
989.866 .0253110
990.471 .0253048
991.075 .0252991
991.679 .0252938
992.282 .0252893
992.886 .0252854
993.489 .0252827
994.091 .0252814
994.694 .0252819
995.296 .0252837
995.897 .0252866
996.499 .0252907
997.100 .0252952
997.701 .0253008
998.301 .0253067
998.901 .0253133
999.501 .0253202
1000.101 .0253282
1000.700 .0253364
1001.299 .0253437
1001.898 .0253513
1002.496 .0253579
1003.094 .0253624
1003.692 .0253646
1004.289 .0253640
1004.887 .0253617
1005.484 .0253573
1006.080 .0253513
1006.677 .0253446
1007.273 .0253377
1007.868 .0253310
1008.464 .0253239
1009.059 .0253161
1009.654 .0253082
1010.249 .0252989
1010.843 .0252885
1011.437 .0252777
1012.031 .0252665
1012.625 .0252567
1013.218 .0252485
1013.811 .0252437
1014.404 .0252421
1014.997 .0252419
1015.589 .0252445
1016.181 .0252486
1016.773 .0252525
1017.365 .0252557
1017.956 .0252576
1018.547 .0252590
1019.138 .0252598
1019.728 .0252610
1020.319 .0252632
1020.909 .0252668
1021.499 .0252715
1022.088 .0252753
1022.678 .0252761
1023.267 .0252746
1023.856 .0252679
1024.445 .0252569
1025.033 .0252429
1025.621 .0252257
1026.209 .0252069
1026.797 .0251884
1027.385 .0251710
1027.972 .0251559
1028.560 .0251426
1029.147 .0251303
1029.734 .0251178
1030.320 .0251046
1030.907 .0250898
1031.493 .0250732
1032.079 .0250560
1032.665 .0250396
1033.250 .0250238
1033.836 .0250104
1034.421 .0249993
1035.006 .0249923
1035.591 .0249894
1036.176 .0249885
1036.761 .0249894
1037.345 .0249898
1037.929 .0249884
1038.514 .0249848
1039.097 .0249792
1039.681 .0249713
1040.265 .0249625
1040.848 .0249540
1041.432 .0249466
1042.015 .0249416
1042.598 .0249387
1043.181 .0249374
1043.764 .0249369
1044.346 .0249359
1044.929 .0249313
1045.511 .0249235
1046.094 .0249147
1046.676 .0249036
1047.258 .0248921
1047.840 .0248808
1048.422 .0248703
1049.003 .0248621
1049.585 .0248548
1050.166 .0248490
1050.748 .0248437
1051.329 .0248395
1051.910 .0248352
1052.491 .0248305
1053.072 .0248263
1053.653 .0248228
1054.234 .0248197
1054.815 .0248162
1055.396 .0248106
1055.976 .0248015
1056.557 .0247894
1057.138 .0247756
1057.718 .0247601
1058.298 .0247432
1058.879 .0247251
1059.459 .0247073
1060.039 .0246883
1060.620 .0246682
1061.200 .0246465
1061.780 .0246227
1062.360 .0245973
1062.940 .0245717
1063.520 .0245464
1064.101 .0245228
1064.681 .0245047
1065.261 .0244919
1065.841 .0244847
1066.421 .0244813
1067.001 .0244796
1067.581 .0244788
1068.161 .0244778
1068.741 .0244751
1069.321 .0244708
1069.901 .0244664
1070.482 .0244612
1071.062 .0244538
1071.642 .0244468
1072.222 .0244379
1072.803 .0244285
1073.383 .0244181
1073.963 .0244071
1074.544 .0243955
1075.124 .0243844
1075.705 .0243727
1076.286 .0243630
1076.866 .0243554
1077.447 .0243472
1078.028 .0243371
1078.609 .0243274
1079.190 .0243141
1079.771 .0242984
1080.352 .0242814
1080.934 .0242648
1081.515 .0242487
1082.097 .0242355
1082.679 .0242234
1083.260 .0242112
1083.842 .0241983
1084.424 .0241823
1085.007 .0241625
1085.589 .0241395
1086.172 .0241113
1086.754 .0240810
1087.337 .0240511
1087.920 .0240249
1088.503 .0240014
1089.087 .0239844
1089.670 .0239722
1090.254 .0239648
1090.838 .0239591
1091.422 .0239519
1092.006 .0239438
1092.590 .0239312
1093.175 .0239148
1093.760 .0238956
1094.345 .0238741
1094.930 .0238513
1095.516 .0238306
1096.102 .0238148
1096.688 .0238038
1097.274 .0238011
1097.860 .0238053
1098.447 .0238141
1099.034 .0238287
1099.622 .0238458
1100.209 .0238634
1100.797 .0238808
1101.385 .0238983
1101.973 .0239136
1102.562 .0239319
1103.151 .0239506
1103.740 .0239700
1104.330 .0239934
1104.920 .0240221
1105.510 .0240521
1106.101 .0240826
1106.691 .0241112
1107.283 .0241322
1107.874 .0241458
1108.466 .0241507
1109.058 .0241444
1109.651 .0241307
1110.244 .0241105
1110.837 .0240856
1111.431 .0240584
1112.025 .0240324
1112.620 .0240071
1113.215 .0239858
1113.810 .0239676
1114.406 .0239476
1115.002 .0239228
1115.599 .0238954
1116.196 .0238631
1116.793 .0238271
1117.391 .0237931
1117.989 .0237614
1118.588 .0237392
1119.187 .0237278
1119.787 .0237295
1120.387 .0237426
1120.988 .0237656
1121.589 .0238007
1122.190 .0238405
1122.793 .0238837
1123.395 .0239312
1123.998 .0239848
1124.602 .0240468
1125.206 .0241134
1125.811 .0241812
1126.416 .0242497
1127.022 .0243143
1127.628 .0243694
1128.235 .0244150
1128.843 .0244515
1129.451 .0244802
1130.059 .0244995
1130.669 .0245138
1131.278 .0245294
1131.889 .0245459
1132.500 .0245682
1133.112 .0245894
1133.724 .0246131
1134.337 .0246398
1134.950 .0246622
1135.564 .0246898
1136.179 .0247308
1136.795 .0247843
1137.411 .0248553
1138.028 .0249459
1138.645 .0250571
1139.263 .0251896
1139.882 .0253367
1140.502 .0254871
1141.122 .0256525
1141.743 .0258474
1142.365 .0260360
1142.987 .0261469
1143.611 .0261450
1144.235 .0267050
1144.859 .0274373
1145.485 .0269232
