Measurement Sequence started on: 10-20-44-796
Integration time: 35
Scans to Average: 2 
>>>>>Begin Spectral Data<<<<<
432.953 .0495508
433.882 .0467578
434.810 .0397363
435.737 .0352253
436.662 .0306114
437.586 .0341549
438.509 .0327994
439.431 .0319139
440.351 .0314696
441.269 .0312610
442.187 .0312165
443.103 .0311617
444.018 .0311677
444.932 .0312181
445.844 .0313030
446.756 .0314089
447.666 .0315026
448.575 .0315699
449.482 .0315896
450.388 .0315657
451.294 .0315033
452.198 .0314063
453.100 .0312903
454.002 .0311682
454.902 .0310621
455.801 .0309769
456.699 .0309147
457.596 .0308715
458.492 .0308461
459.387 .0308323
460.280 .0308173
461.172 .0308005
462.064 .0307771
462.954 .0307508
463.843 .0307211
464.730 .0306912
465.617 .0306674
466.503 .0306538
467.387 .0306544
468.271 .0306664
469.153 .0306906
470.035 .0307190
470.915 .0307456
471.794 .0307656
472.673 .0307741
473.550 .0307725
474.426 .0307696
475.301 .0307687
476.175 .0307722
477.048 .0307829
477.920 .0308036
478.791 .0308292
479.661 .0308584
480.530 .0308848
481.398 .0309023
482.266 .0309132
483.132 .0309183
483.997 .0309127
484.861 .0309035
485.724 .0308923
486.587 .0308819
487.448 .0308679
488.308 .0308513
489.168 .0308250
490.026 .0307880
490.884 .0307408
491.741 .0306826
492.597 .0306143
493.452 .0305426
494.306 .0304743
495.159 .0304061
496.011 .0303443
496.862 .0302881
497.713 .0302335
498.562 .0301834
499.411 .0301315
500.259 .0300762
501.106 .0300157
501.952 .0299559
502.798 .0298956
503.642 .0298325
504.486 .0297757
505.329 .0297180
506.171 .0296582
507.012 .0295938
507.852 .0295183
508.692 .0294249
509.531 .0293168
510.369 .0291922
511.206 .0290486
512.043 .0288944
512.878 .0287282
513.713 .0285550
514.547 .0283809
515.381 .0282053
516.213 .0280302
517.045 .0278452
517.876 .0276571
518.706 .0274531
519.536 .0272434
520.365 .0270324
521.193 .0268228
522.020 .0266319
522.847 .0264556
523.673 .0262983
524.498 .0261562
525.323 .0260206
526.146 .0258829
526.969 .0257408
527.792 .0255906
528.614 .0254214
529.435 .0252393
530.255 .0250493
531.075 .0248664
531.894 .0246978
532.712 .0245485
533.530 .0244177
534.347 .0243096
535.163 .0242294
535.979 .0241614
536.794 .0241186
537.608 .0241018
538.422 .0241045
539.235 .0241266
540.048 .0241531
540.860 .0241893
541.671 .0242287
542.481 .0242750
543.292 .0243166
544.101 .0243556
544.910 .0243953
545.718 .0244364
546.526 .0244865
547.333 .0245464
548.139 .0246143
548.945 .0246843
549.750 .0247535
550.555 .0248155
551.359 .0248632
552.162 .0248999
552.965 .0249234
553.768 .0249384
554.569 .0249449
555.371 .0249430
556.171 .0249403
556.972 .0249406
557.771 .0249480
558.570 .0249615
559.369 .0249840
560.167 .0250185
560.964 .0250653
561.761 .0251208
562.558 .0251863
563.354 .0252617
564.149 .0253433
564.944 .0254295
565.738 .0255169
566.532 .0256093
567.325 .0257059
568.118 .0258061
568.910 .0259091
569.702 .0260154
570.494 .0261266
571.285 .0262372
572.075 .0263492
572.865 .0264618
573.654 .0265697
574.443 .0266745
575.232 .0267757
576.020 .0268729
576.807 .0269674
577.594 .0270611
578.381 .0271526
579.167 .0272454
579.952 .0273381
580.738 .0274291
581.522 .0275181
582.307 .0276073
583.091 .0276920
583.874 .0277708
584.657 .0278448
585.440 .0279131
586.222 .0279738
587.004 .0280282
587.785 .0280740
588.566 .0281153
589.346 .0281526
590.126 .0281867
590.906 .0282157
591.685 .0282425
592.464 .0282679
593.242 .0282902
594.020 .0283099
594.797 .0283280
595.575 .0283449
596.351 .0283618
597.128 .0283765
597.904 .0283906
598.679 .0284045
599.454 .0284175
600.229 .0284306
601.004 .0284419
601.778 .0284507
602.551 .0284575
603.325 .0284603
604.097 .0284601
604.870 .0284563
605.642 .0284480
606.414 .0284367
607.185 .0284229
607.956 .0284081
608.727 .0283912
609.497 .0283743
610.267 .0283586
611.037 .0283430
611.806 .0283277
612.575 .0283119
613.344 .0282944
614.112 .0282767
614.880 .0282569
615.647 .0282355
616.414 .0282135
617.181 .0281917
617.948 .0281707
618.714 .0281510
619.480 .0281327
620.245 .0281162
621.011 .0280998
621.775 .0280837
622.540 .0280661
623.304 .0280467
624.068 .0280252
624.832 .0280013
625.595 .0279766
626.358 .0279518
627.120 .0279280
627.883 .0279063
628.645 .0278867
629.406 .0278703
630.168 .0278572
630.929 .0278466
631.689 .0278377
632.450 .0278297
633.210 .0278216
633.970 .0278125
634.729 .0278026
635.489 .0277915
636.248 .0277799
637.006 .0277684
637.765 .0277565
638.523 .0277441
639.280 .0277322
640.038 .0277196
640.795 .0277059
641.552 .0276911
642.309 .0276747
643.065 .0276555
643.821 .0276343
644.577 .0276121
645.332 .0275885
646.088 .0275646
646.843 .0275408
647.597 .0275170
648.352 .0274946
649.106 .0274739
649.860 .0274542
650.613 .0274371
651.367 .0274228
652.120 .0274101
652.872 .0273990
653.625 .0273896
654.377 .0273809
655.129 .0273727
655.881 .0273649
656.632 .0273566
657.384 .0273477
658.135 .0273392
658.885 .0273296
659.636 .0273199
660.386 .0273102
661.136 .0272998
661.885 .0272889
662.635 .0272776
663.384 .0272650
664.133 .0272510
664.881 .0272362
665.630 .0272203
666.378 .0272033
667.126 .0271861
667.874 .0271686
668.621 .0271513
669.368 .0271353
670.115 .0271206
670.862 .0271074
671.608 .0270966
672.354 .0270876
673.100 .0270799
673.846 .0270739
674.591 .0270698
675.337 .0270668
676.082 .0270654
676.826 .0270657
677.571 .0270664
678.315 .0270676
679.059 .0270699
679.803 .0270719
680.547 .0270736
681.290 .0270745
682.033 .0270738
682.776 .0270721
683.518 .0270689
684.261 .0270648
685.003 .0270599
685.745 .0270552
686.487 .0270498
687.228 .0270426
687.969 .0270350
688.710 .0270255
689.451 .0270135
690.192 .0269990
690.932 .0269827
691.672 .0269646
692.412 .0269457
693.152 .0269267
693.891 .0269089
694.630 .0268931
695.369 .0268786
696.108 .0268645
696.846 .0268514
697.585 .0268377
698.323 .0268227
699.061 .0268064
699.798 .0267901
700.536 .0267725
701.273 .0267553
702.010 .0267388
702.746 .0267234
703.483 .0267093
704.219 .0266960
704.955 .0266830
705.691 .0266700
706.427 .0266558
707.162 .0266397
707.897 .0266222
708.632 .0266040
709.367 .0265850
710.101 .0265661
710.835 .0265475
711.569 .0265295
712.303 .0265116
713.037 .0264938
713.770 .0264764
714.503 .0264592
715.236 .0264424
715.969 .0264258
716.702 .0264095
717.434 .0263931
718.166 .0263769
718.898 .0263608
719.629 .0263442
720.361 .0263272
721.092 .0263098
721.823 .0262910
722.554 .0262715
723.284 .0262514
724.014 .0262308
724.744 .0262097
725.474 .0261886
726.204 .0261668
726.933 .0261442
727.662 .0261212
728.391 .0260978
729.120 .0260746
729.849 .0260520
730.577 .0260299
731.305 .0260084
732.033 .0259882
732.760 .0259687
733.488 .0259502
734.215 .0259325
734.942 .0259159
735.669 .0259000
736.395 .0258844
737.122 .0258688
737.848 .0258534
738.573 .0258378
739.299 .0258219
740.024 .0258053
740.750 .0257887
741.474 .0257716
742.199 .0257548
742.924 .0257381
743.648 .0257221
744.372 .0257063
745.096 .0256912
745.819 .0256759
746.543 .0256606
747.266 .0256453
747.989 .0256302
748.711 .0256155
749.434 .0256021
750.156 .0255904
750.878 .0255810
751.599 .0255743
752.321 .0255703
753.042 .0255682
753.763 .0255681
754.484 .0255694
755.205 .0255712
755.925 .0255733
756.645 .0255755
757.365 .0255771
758.085 .0255785
758.804 .0255790
759.523 .0255779
760.242 .0255758
760.961 .0255719
761.679 .0255659
762.397 .0255572
763.115 .0255464
763.833 .0255337
764.551 .0255193
765.268 .0255036
765.985 .0254869
766.702 .0254699
767.418 .0254532
768.134 .0254363
768.850 .0254198
769.566 .0254037
770.282 .0253884
770.997 .0253741
771.712 .0253607
772.427 .0253483
773.142 .0253371
773.856 .0253271
774.570 .0253184
775.284 .0253102
775.998 .0253024
776.711 .0252949
777.424 .0252870
778.137 .0252782
778.849 .0252685
779.562 .0252579
780.274 .0252465
780.986 .0252348
781.697 .0252231
782.409 .0252115
783.120 .0252009
783.831 .0251916
784.541 .0251839
785.252 .0251777
785.962 .0251728
786.671 .0251688
787.381 .0251651
788.090 .0251614
788.799 .0251573
789.508 .0251523
790.217 .0251466
790.925 .0251403
791.633 .0251336
792.341 .0251269
793.048 .0251198
793.755 .0251125
794.462 .0251046
795.169 .0250954
795.875 .0250842
796.581 .0250706
797.287 .0250547
797.993 .0250366
798.698 .0250163
799.403 .0249949
800.108 .0249729
800.812 .0249513
801.517 .0249306
802.221 .0249106
802.924 .0248917
803.628 .0248733
804.331 .0248551
805.034 .0248374
805.736 .0248198
806.439 .0248027
807.141 .0247870
807.843 .0247733
808.544 .0247615
809.245 .0247519
809.946 .0247445
810.647 .0247387
811.347 .0247340
812.047 .0247299
812.747 .0247256
813.447 .0247211
814.146 .0247156
814.845 .0247085
815.543 .0247000
816.242 .0246903
816.940 .0246783
817.638 .0246649
818.335 .0246499
819.032 .0246327
819.729 .0246137
820.426 .0245939
821.122 .0245728
821.818 .0245504
822.514 .0245275
823.209 .0245039
823.905 .0244801
824.599 .0244560
825.294 .0244318
825.988 .0244086
826.682 .0243866
827.376 .0243660
828.069 .0243464
828.762 .0243290
829.455 .0243128
830.147 .0242977
830.840 .0242839
831.531 .0242706
832.223 .0242581
832.914 .0242455
833.605 .0242330
834.296 .0242210
834.986 .0242088
835.676 .0241962
836.366 .0241833
837.055 .0241700
837.744 .0241557
838.433 .0241407
839.121 .0241256
839.809 .0241110
840.497 .0240971
841.185 .0240837
841.872 .0240708
842.559 .0240582
843.245 .0240457
843.932 .0240324
844.617 .0240183
845.303 .0240037
845.988 .0239886
846.673 .0239738
847.358 .0239594
848.042 .0239458
848.726 .0239329
849.410 .0239202
850.093 .0239071
850.776 .0238937
851.459 .0238794
852.141 .0238642
852.823 .0238486
853.505 .0238330
854.186 .0238178
854.867 .0238031
855.548 .0237894
856.228 .0237771
856.908 .0237657
857.588 .0237545
858.267 .0237439
858.946 .0237341
859.625 .0237246
860.303 .0237157
860.981 .0237081
861.659 .0237013
862.336 .0236952
863.013 .0236895
863.690 .0236837
864.366 .0236778
865.042 .0236715
865.718 .0236640
866.393 .0236558
867.068 .0236475
867.743 .0236389
868.417 .0236302
869.091 .0236218
869.765 .0236134
870.438 .0236044
871.111 .0235952
871.783 .0235853
872.456 .0235749
873.127 .0235642
873.799 .0235536
874.470 .0235432
875.141 .0235340
875.811 .0235259
876.481 .0235189
877.151 .0235138
877.820 .0235103
878.489 .0235077
879.158 .0235058
879.826 .0235043
880.494 .0235028
881.162 .0235013
881.829 .0235004
882.496 .0234988
883.163 .0234976
883.829 .0234964
884.495 .0234950
885.160 .0234933
885.825 .0234918
886.490 .0234896
887.154 .0234874
887.818 .0234853
888.482 .0234829
889.145 .0234800
889.808 .0234773
890.471 .0234741
891.133 .0234705
891.795 .0234666
892.456 .0234618
893.117 .0234561
893.778 .0234510
894.439 .0234457
895.099 .0234411
895.758 .0234377
896.417 .0234358
897.076 .0234353
897.735 .0234358
898.393 .0234369
899.051 .0234377
899.708 .0234383
900.365 .0234380
901.022 .0234361
901.678 .0234329
902.334 .0234287
902.990 .0234239
903.645 .0234190
904.300 .0234142
904.954 .0234098
905.608 .0234059
906.262 .0234025
906.915 .0233990
907.568 .0233950
908.221 .0233909
908.873 .0233866
909.525 .0233819
910.176 .0233775
910.828 .0233733
911.478 .0233704
912.129 .0233688
912.778 .0233684
913.428 .0233692
914.077 .0233706
914.726 .0233723
915.375 .0233734
916.023 .0233740
916.670 .0233740
917.318 .0233729
917.964 .0233716
918.611 .0233696
919.257 .0233669
919.903 .0233635
920.548 .0233597
921.193 .0233556
921.838 .0233515
922.482 .0233472
923.126 .0233429
923.770 .0233386
924.413 .0233343
925.056 .0233295
925.698 .0233246
926.340 .0233195
926.982 .0233141
927.623 .0233082
928.264 .0233021
928.904 .0232957
929.544 .0232895
930.184 .0232826
930.823 .0232752
931.462 .0232667
932.101 .0232567
932.739 .0232451
933.377 .0232318
934.014 .0232168
934.651 .0232007
935.288 .0231838
935.924 .0231670
936.560 .0231508
937.196 .0231361
937.831 .0231222
938.466 .0231095
939.100 .0230978
939.734 .0230862
940.368 .0230744
941.001 .0230625
941.634 .0230501
942.266 .0230373
942.899 .0230243
943.530 .0230105
944.162 .0229964
944.793 .0229821
945.423 .0229669
946.053 .0229513
946.683 .0229357
947.313 .0229194
947.942 .0229027
948.571 .0228852
949.199 .0228673
949.827 .0228480
950.455 .0228275
951.082 .0228050
951.709 .0227809
952.335 .0227555
952.961 .0227293
953.587 .0227026
954.212 .0226768
954.837 .0226523
955.462 .0226304
956.086 .0226108
956.710 .0225936
957.334 .0225779
957.957 .0225635
958.579 .0225489
959.202 .0225337
959.824 .0225170
960.445 .0225001
961.067 .0224829
961.688 .0224665
962.308 .0224510
962.928 .0224369
963.548 .0224239
964.168 .0224115
964.787 .0223984
965.406 .0223844
966.024 .0223689
966.642 .0223519
967.260 .0223337
967.877 .0223150
968.494 .0222966
969.110 .0222798
969.727 .0222649
970.342 .0222521
970.958 .0222411
971.573 .0222316
972.188 .0222229
972.802 .0222150
973.416 .0222078
974.030 .0222005
974.643 .0221930
975.256 .0221857
975.869 .0221777
976.481 .0221688
977.093 .0221596
977.705 .0221501
978.316 .0221405
978.927 .0221304
979.538 .0221192
980.148 .0221073
980.758 .0220943
981.367 .0220803
981.977 .0220655
982.586 .0220507
983.194 .0220360
983.802 .0220214
984.410 .0220076
985.018 .0219956
985.625 .0219852
986.232 .0219766
986.838 .0219686
987.445 .0219613
988.050 .0219539
988.656 .0219452
989.261 .0219360
989.866 .0219258
990.471 .0219152
991.075 .0219046
991.679 .0218935
992.282 .0218825
992.886 .0218718
993.489 .0218614
994.091 .0218511
994.694 .0218407
995.296 .0218302
995.897 .0218191
996.499 .0218078
997.100 .0217971
997.701 .0217877
998.301 .0217808
998.901 .0217765
999.501 .0217741
1000.101 .0217737
1000.700 .0217738
1001.299 .0217733
1001.898 .0217728
1002.496 .0217717
1003.094 .0217703
1003.692 .0217685
1004.289 .0217673
1004.887 .0217675
1005.484 .0217693
1006.080 .0217729
1006.677 .0217773
1007.273 .0217814
1007.868 .0217846
1008.464 .0217855
1009.059 .0217845
1009.654 .0217821
1010.249 .0217791
1010.843 .0217763
1011.437 .0217750
1012.031 .0217744
1012.625 .0217749
1013.218 .0217763
1013.811 .0217783
1014.404 .0217799
1014.997 .0217807
1015.589 .0217809
1016.181 .0217808
1016.773 .0217807
1017.365 .0217814
1017.956 .0217824
1018.547 .0217839
1019.138 .0217852
1019.728 .0217860
1020.319 .0217861
1020.909 .0217854
1021.499 .0217830
1022.088 .0217800
1022.678 .0217754
1023.267 .0217700
1023.856 .0217634
1024.445 .0217567
1025.033 .0217495
1025.621 .0217416
1026.209 .0217333
1026.797 .0217253
1027.385 .0217171
1027.972 .0217098
1028.560 .0217025
1029.147 .0216961
1029.734 .0216906
1030.320 .0216862
1030.907 .0216822
1031.493 .0216805
1032.079 .0216798
1032.665 .0216812
1033.250 .0216841
1033.836 .0216890
1034.421 .0216951
1035.006 .0217026
1035.591 .0217107
1036.176 .0217184
1036.761 .0217255
1037.345 .0217320
1037.929 .0217364
1038.514 .0217402
1039.097 .0217429
1039.681 .0217454
1040.265 .0217482
1040.848 .0217519
1041.432 .0217561
1042.015 .0217614
1042.598 .0217668
1043.181 .0217725
1043.764 .0217784
1044.346 .0217842
1044.929 .0217896
1045.511 .0217940
1046.094 .0217971
1046.676 .0217989
1047.258 .0217995
1047.840 .0217994
1048.422 .0218001
1049.003 .0218019
1049.585 .0218048
1050.166 .0218091
1050.748 .0218151
1051.329 .0218217
1051.910 .0218287
1052.491 .0218355
1053.072 .0218400
1053.653 .0218418
1054.234 .0218423
1054.815 .0218413
1055.396 .0218425
1055.976 .0218461
1056.557 .0218536
1057.138 .0218647
1057.718 .0218790
1058.298 .0218950
1058.879 .0219109
1059.459 .0219254
1060.039 .0219375
1060.620 .0219452
1061.200 .0219499
1061.780 .0219537
1062.360 .0219572
1062.940 .0219616
1063.520 .0219680
1064.101 .0219753
1064.681 .0219816
1065.261 .0219858
1065.841 .0219877
1066.421 .0219845
1067.001 .0219780
1067.581 .0219684
1068.161 .0219533
1068.741 .0219378
1069.321 .0219229
1069.901 .0219098
1070.482 .0219013
1071.062 .0218976
1071.642 .0218972
1072.222 .0219007
1072.803 .0219081
1073.383 .0219164
1073.963 .0219235
1074.544 .0219323
1075.124 .0219385
1075.705 .0219428
1076.286 .0219465
1076.866 .0219490
1077.447 .0219521
1078.028 .0219583
1078.609 .0219652
1079.190 .0219734
1079.771 .0219819
1080.352 .0219906
1080.934 .0219984
1081.515 .0220054
1082.097 .0220098
1082.679 .0220111
1083.260 .0220096
1083.842 .0220057
1084.424 .0219974
1085.007 .0219896
1085.589 .0219814
1086.172 .0219737
1086.754 .0219657
1087.337 .0219566
1087.920 .0219486
1088.503 .0219415
1089.087 .0219352
1089.670 .0219301
1090.254 .0219245
1090.838 .0219163
1091.422 .0219049
1092.006 .0218917
1092.590 .0218772
1093.175 .0218635
1093.760 .0218519
1094.345 .0218452
1094.930 .0218425
1095.516 .0218456
1096.102 .0218550
1096.688 .0218701
1097.274 .0218903
1097.860 .0219089
1098.447 .0219252
1099.034 .0219378
1099.622 .0219459
1100.209 .0219506
1100.797 .0219512
1101.385 .0219498
1101.973 .0219484
1102.562 .0219440
1103.151 .0219395
1103.740 .0219349
1104.330 .0219312
1104.920 .0219272
1105.510 .0219232
1106.101 .0219178
1106.691 .0219126
1107.283 .0219075
1107.874 .0219038
1108.466 .0219000
1109.058 .0218973
1109.651 .0218939
1110.244 .0218923
1110.837 .0218926
1111.431 .0218946
1112.025 .0218960
1112.620 .0218992
1113.215 .0219031
1113.810 .0219094
1114.406 .0219162
1115.002 .0219231
1115.599 .0219311
1116.196 .0219394
1116.793 .0219481
1117.391 .0219574
1117.989 .0219695
1118.588 .0219846
1119.187 .0220023
1119.787 .0220204
1120.387 .0220365
1120.988 .0220534
1121.589 .0220708
1122.190 .0220855
1122.793 .0220984
1123.395 .0221080
1123.998 .0221151
1124.602 .0221175
1125.206 .0221183
1125.811 .0221142
1126.416 .0221082
1127.022 .0220993
1127.628 .0220873
1128.235 .0220748
1128.843 .0220651
1129.451 .0220597
1130.059 .0220589
1130.669 .0220653
1131.278 .0220803
1131.889 .0220957
1132.500 .0221150
1133.112 .0221376
1133.724 .0221654
1134.337 .0221989
1134.950 .0222382
1135.564 .0222862
1136.179 .0223430
1136.795 .0224112
1137.411 .0224851
1138.028 .0225624
1138.645 .0226428
1139.263 .0227216
1139.882 .0227906
1140.502 .0228640
1141.122 .0229296
1141.743 .0229920
1142.365 .0230455
1142.987 .0229900
1143.611 .0233944
1144.235 .0232316
1144.859 .0232221
1145.485 .0230966
