Measurement Sequence started on: 10-20-44-796
Integration time: 35
Scans to Average: 2 
>>>>>Begin Spectral Data<<<<<
432.953 .0426852
433.882 .0403020
434.810 .0336543
435.737 .0334385
436.662 .0346860
437.586 .0340862
438.509 .0334057
439.431 .0329505
440.351 .0327480
441.269 .0325886
442.187 .0324487
443.103 .0323756
444.018 .0323567
444.932 .0323514
445.844 .0323387
446.756 .0323194
447.666 .0322974
448.575 .0322711
449.482 .0322427
450.388 .0322201
451.294 .0322039
452.198 .0321961
453.100 .0321905
454.002 .0321769
454.902 .0321476
455.801 .0320967
456.699 .0320284
457.596 .0319594
458.492 .0318876
459.387 .0318146
460.280 .0317529
461.172 .0316980
462.064 .0316478
462.954 .0316004
463.843 .0315506
464.730 .0315017
465.617 .0314550
466.503 .0314082
467.387 .0313590
468.271 .0313108
469.153 .0312663
470.035 .0312177
470.915 .0311709
471.794 .0311217
472.673 .0310689
473.550 .0310195
474.426 .0309767
475.301 .0309412
476.175 .0309199
477.048 .0309112
477.920 .0309137
478.791 .0309244
479.661 .0309393
480.530 .0309513
481.398 .0309592
482.266 .0309662
483.132 .0309712
483.997 .0309756
484.861 .0309846
485.724 .0310002
486.587 .0310214
487.448 .0310434
488.308 .0310618
489.168 .0310739
490.026 .0310758
490.884 .0310658
491.741 .0310413
492.597 .0310081
493.452 .0309691
494.306 .0309273
495.159 .0308871
496.011 .0308487
496.862 .0308106
497.713 .0307711
498.562 .0307263
499.411 .0306748
500.259 .0306131
501.106 .0305420
501.952 .0304622
502.798 .0303776
503.642 .0302900
504.486 .0302007
505.329 .0301136
506.171 .0300307
507.012 .0299477
507.852 .0298658
508.692 .0297829
509.531 .0296957
510.369 .0296081
511.206 .0295163
512.043 .0294197
512.878 .0293206
513.713 .0292165
514.547 .0291079
515.381 .0289970
516.213 .0288868
517.045 .0287736
517.876 .0286562
518.706 .0285345
519.536 .0284009
520.365 .0282576
521.193 .0281002
522.020 .0279218
522.847 .0277247
523.673 .0275062
524.498 .0272647
525.323 .0270095
526.146 .0267533
526.969 .0265048
527.792 .0262774
528.614 .0260739
529.435 .0258994
530.255 .0257557
531.075 .0256364
531.894 .0255355
532.712 .0254483
533.530 .0253710
534.347 .0252942
535.163 .0252266
535.979 .0251731
536.794 .0251354
537.608 .0251221
538.422 .0251318
539.235 .0251580
540.048 .0251942
540.860 .0252331
541.671 .0252663
542.481 .0252941
543.292 .0253111
544.101 .0253133
544.910 .0253073
545.718 .0252980
546.526 .0252829
547.333 .0252707
548.139 .0252673
548.945 .0252698
549.750 .0252775
550.555 .0252903
551.359 .0253090
552.162 .0253328
552.965 .0253596
553.768 .0253915
554.569 .0254232
555.371 .0254580
556.171 .0254921
556.972 .0255320
557.771 .0255807
558.570 .0256364
559.369 .0257024
560.167 .0257786
560.964 .0258630
561.761 .0259501
562.558 .0260390
563.354 .0261304
564.149 .0262218
564.944 .0263081
565.738 .0263932
566.532 .0264803
567.325 .0265686
568.118 .0266615
568.910 .0267576
569.702 .0268602
570.494 .0269661
571.285 .0270705
572.075 .0271755
572.865 .0272778
573.654 .0273807
574.443 .0274783
575.232 .0275741
576.020 .0276687
576.807 .0277607
577.594 .0278506
578.381 .0279389
579.167 .0280241
579.952 .0281063
580.738 .0281828
581.522 .0282554
582.307 .0283227
583.091 .0283869
583.874 .0284458
584.657 .0285021
585.440 .0285550
586.222 .0286043
587.004 .0286477
587.785 .0286871
588.566 .0287236
589.346 .0287565
590.126 .0287851
590.906 .0288104
591.685 .0288337
592.464 .0288546
593.242 .0288719
594.020 .0288869
594.797 .0288997
595.575 .0289107
596.351 .0289179
597.128 .0289226
597.904 .0289252
598.679 .0289261
599.454 .0289248
600.229 .0289220
601.004 .0289180
601.778 .0289113
602.551 .0289029
603.325 .0288937
604.097 .0288839
604.870 .0288737
605.642 .0288636
606.414 .0288542
607.185 .0288457
607.956 .0288388
608.727 .0288324
609.497 .0288263
610.267 .0288197
611.037 .0288118
611.806 .0288021
612.575 .0287908
613.344 .0287778
614.112 .0287637
614.880 .0287495
615.647 .0287356
616.414 .0287218
617.181 .0287094
617.948 .0286982
618.714 .0286885
619.480 .0286798
620.245 .0286713
621.011 .0286619
621.775 .0286523
622.540 .0286419
623.304 .0286311
624.068 .0286202
624.832 .0286098
625.595 .0286006
626.358 .0285934
627.120 .0285868
627.883 .0285813
628.645 .0285762
629.406 .0285708
630.168 .0285635
630.929 .0285551
631.689 .0285448
632.450 .0285337
633.210 .0285224
633.970 .0285116
634.729 .0285013
635.489 .0284923
636.248 .0284843
637.006 .0284766
637.765 .0284682
638.523 .0284586
639.280 .0284469
640.038 .0284342
640.795 .0284206
641.552 .0284064
642.309 .0283927
643.065 .0283804
643.821 .0283687
644.577 .0283573
645.332 .0283460
646.088 .0283340
646.843 .0283206
647.597 .0283058
648.352 .0282901
649.106 .0282741
649.860 .0282587
650.613 .0282445
651.367 .0282317
652.120 .0282208
652.872 .0282109
653.625 .0282009
654.377 .0281914
655.129 .0281813
655.881 .0281704
656.632 .0281587
657.384 .0281469
658.135 .0281352
658.885 .0281240
659.636 .0281131
660.386 .0281029
661.136 .0280928
661.885 .0280830
662.635 .0280723
663.384 .0280613
664.133 .0280496
664.881 .0280369
665.630 .0280237
666.378 .0280104
667.126 .0279968
667.874 .0279841
668.621 .0279715
669.368 .0279591
670.115 .0279458
670.862 .0279311
671.608 .0279143
672.354 .0278963
673.100 .0278763
673.846 .0278549
674.591 .0278325
675.337 .0278107
676.082 .0277895
676.826 .0277695
677.571 .0277510
678.315 .0277339
679.059 .0277177
679.803 .0277021
680.547 .0276860
681.290 .0276700
682.033 .0276534
682.776 .0276370
683.518 .0276203
684.261 .0276043
685.003 .0275894
685.745 .0275755
686.487 .0275631
687.228 .0275518
687.969 .0275410
688.710 .0275307
689.451 .0275200
690.192 .0275095
690.932 .0274979
691.672 .0274859
692.412 .0274737
693.152 .0274613
693.891 .0274494
694.630 .0274379
695.369 .0274264
696.108 .0274148
696.846 .0274020
697.585 .0273880
698.323 .0273724
699.061 .0273550
699.798 .0273364
700.536 .0273166
701.273 .0272964
702.010 .0272764
702.746 .0272570
703.483 .0272386
704.219 .0272209
704.955 .0272036
705.691 .0271859
706.427 .0271672
707.162 .0271485
707.897 .0271294
708.632 .0271108
709.367 .0270935
710.101 .0270769
710.835 .0270618
711.569 .0270485
712.303 .0270362
713.037 .0270249
713.770 .0270138
714.503 .0270027
715.236 .0269908
715.969 .0269785
716.702 .0269651
717.434 .0269510
718.166 .0269368
718.898 .0269225
719.629 .0269075
720.361 .0268935
721.092 .0268796
721.823 .0268658
722.554 .0268523
723.284 .0268388
724.014 .0268244
724.744 .0268092
725.474 .0267928
726.204 .0267752
726.933 .0267566
727.662 .0267373
728.391 .0267173
729.120 .0266976
729.849 .0266782
730.577 .0266593
731.305 .0266405
732.033 .0266224
732.760 .0266040
733.488 .0265854
734.215 .0265671
734.942 .0265490
735.669 .0265309
736.395 .0265137
737.122 .0264973
737.848 .0264815
738.573 .0264662
739.299 .0264517
740.024 .0264375
740.750 .0264239
741.474 .0264103
742.199 .0263970
742.924 .0263842
743.648 .0263723
744.372 .0263605
745.096 .0263496
745.819 .0263394
746.543 .0263291
747.266 .0263188
747.989 .0263090
748.711 .0262994
749.434 .0262902
750.156 .0262815
750.878 .0262736
751.599 .0262664
752.321 .0262599
753.042 .0262541
753.763 .0262489
754.484 .0262440
755.205 .0262386
755.925 .0262330
756.645 .0262269
757.365 .0262200
758.085 .0262121
758.804 .0262034
759.523 .0261936
760.242 .0261823
760.961 .0261692
761.679 .0261543
762.397 .0261375
763.115 .0261188
763.833 .0260978
764.551 .0260756
765.268 .0260522
765.985 .0260279
766.702 .0260030
767.418 .0259784
768.134 .0259539
768.850 .0259296
769.566 .0259059
770.282 .0258830
770.997 .0258611
771.712 .0258409
772.427 .0258222
773.142 .0258051
773.856 .0257893
774.570 .0257747
775.284 .0257609
775.998 .0257478
776.711 .0257346
777.424 .0257208
778.137 .0257067
778.849 .0256919
779.562 .0256761
780.274 .0256597
780.986 .0256431
781.697 .0256262
782.409 .0256094
783.120 .0255923
783.831 .0255757
784.541 .0255596
785.252 .0255441
785.962 .0255291
786.671 .0255148
787.381 .0255014
788.090 .0254888
788.799 .0254769
789.508 .0254659
790.217 .0254555
790.925 .0254461
791.633 .0254370
792.341 .0254287
793.048 .0254202
793.755 .0254117
794.462 .0254028
795.169 .0253939
795.875 .0253845
796.581 .0253752
797.287 .0253653
797.993 .0253551
798.698 .0253445
799.403 .0253332
800.108 .0253211
800.812 .0253081
801.517 .0252944
802.221 .0252799
802.924 .0252646
803.628 .0252495
804.331 .0252347
805.034 .0252211
805.736 .0252082
806.439 .0251963
807.141 .0251851
807.843 .0251743
808.544 .0251636
809.245 .0251526
809.946 .0251422
810.647 .0251325
811.347 .0251237
812.047 .0251165
812.747 .0251113
813.447 .0251081
814.146 .0251061
814.845 .0251054
815.543 .0251045
816.242 .0251028
816.940 .0250999
817.638 .0250951
818.335 .0250888
819.032 .0250810
819.729 .0250719
820.426 .0250621
821.122 .0250517
821.818 .0250409
822.514 .0250288
823.209 .0250162
823.905 .0250022
824.599 .0249861
825.294 .0249682
825.988 .0249488
826.682 .0249281
827.376 .0249067
828.069 .0248849
828.762 .0248632
829.455 .0248424
830.147 .0248224
830.840 .0248035
831.531 .0247856
832.223 .0247690
832.914 .0247533
833.605 .0247385
834.296 .0247250
834.986 .0247124
835.676 .0247007
836.366 .0246898
837.055 .0246793
837.744 .0246692
838.433 .0246588
839.121 .0246485
839.809 .0246382
840.497 .0246279
841.185 .0246178
841.872 .0246076
842.559 .0245978
843.245 .0245879
843.932 .0245776
844.617 .0245667
845.303 .0245549
845.988 .0245422
846.673 .0245289
847.358 .0245155
848.042 .0245028
848.726 .0244914
849.410 .0244814
850.093 .0244736
850.776 .0244672
851.459 .0244620
852.141 .0244571
852.823 .0244523
853.505 .0244473
854.186 .0244418
854.867 .0244361
855.548 .0244306
856.228 .0244253
856.908 .0244205
857.588 .0244159
858.267 .0244113
858.946 .0244061
859.625 .0243999
860.303 .0243922
860.981 .0243833
861.659 .0243726
862.336 .0243605
863.013 .0243475
863.690 .0243339
864.366 .0243197
865.042 .0243047
865.718 .0242892
866.393 .0242728
867.068 .0242557
867.743 .0242380
868.417 .0242195
869.091 .0242004
869.765 .0241813
870.438 .0241623
871.111 .0241439
871.783 .0241264
872.456 .0241098
873.127 .0240947
873.799 .0240807
874.470 .0240676
875.141 .0240553
875.811 .0240439
876.481 .0240334
877.151 .0240235
877.820 .0240143
878.489 .0240059
879.158 .0239983
879.826 .0239909
880.494 .0239837
881.162 .0239759
881.829 .0239670
882.496 .0239564
883.163 .0239438
883.829 .0239297
884.495 .0239137
885.160 .0238970
885.825 .0238802
886.490 .0238640
887.154 .0238486
887.818 .0238342
888.482 .0238206
889.145 .0238077
889.808 .0237954
890.471 .0237833
891.133 .0237718
891.795 .0237610
892.456 .0237511
893.117 .0237424
893.778 .0237351
894.439 .0237294
895.099 .0237245
895.758 .0237204
896.417 .0237168
897.076 .0237128
897.735 .0237085
898.393 .0237035
899.051 .0236980
899.708 .0236915
900.365 .0236840
901.022 .0236752
901.678 .0236651
902.334 .0236539
902.990 .0236420
903.645 .0236292
904.300 .0236160
904.954 .0236028
905.608 .0235893
906.262 .0235759
906.915 .0235635
907.568 .0235511
908.221 .0235391
908.873 .0235276
909.525 .0235164
910.176 .0235054
910.828 .0234952
911.478 .0234856
912.129 .0234765
912.778 .0234682
913.428 .0234606
914.077 .0234532
914.726 .0234469
915.375 .0234411
916.023 .0234352
916.670 .0234296
917.318 .0234240
917.964 .0234174
918.611 .0234103
919.257 .0234025
919.903 .0233937
920.548 .0233840
921.193 .0233739
921.838 .0233636
922.482 .0233535
923.126 .0233434
923.770 .0233333
924.413 .0233233
925.056 .0233132
925.698 .0233026
926.340 .0232920
926.982 .0232819
927.623 .0232722
928.264 .0232633
928.904 .0232552
929.544 .0232479
930.184 .0232409
930.823 .0232337
931.462 .0232260
932.101 .0232175
932.739 .0232076
933.377 .0231963
934.014 .0231844
934.651 .0231727
935.288 .0231607
935.924 .0231493
936.560 .0231385
937.196 .0231278
937.831 .0231169
938.466 .0231052
939.100 .0230927
939.734 .0230796
940.368 .0230659
941.001 .0230522
941.634 .0230391
942.266 .0230275
942.899 .0230174
943.530 .0230087
944.162 .0230013
944.793 .0229941
945.423 .0229863
946.053 .0229773
946.683 .0229666
947.313 .0229541
947.942 .0229397
948.571 .0229239
949.199 .0229070
949.827 .0228892
950.455 .0228708
951.082 .0228526
951.709 .0228344
952.335 .0228161
952.961 .0227975
953.587 .0227787
954.212 .0227601
954.837 .0227421
955.462 .0227249
956.086 .0227091
956.710 .0226954
957.334 .0226838
957.957 .0226740
958.579 .0226663
959.202 .0226596
959.824 .0226538
960.445 .0226480
961.067 .0226418
961.688 .0226350
962.308 .0226275
962.928 .0226198
963.548 .0226117
964.168 .0226038
964.787 .0225956
965.406 .0225875
966.024 .0225798
966.642 .0225717
967.260 .0225631
967.877 .0225539
968.494 .0225442
969.110 .0225342
969.727 .0225239
970.342 .0225138
970.958 .0225047
971.573 .0224970
972.188 .0224904
972.802 .0224850
973.416 .0224803
974.030 .0224759
974.643 .0224712
975.256 .0224662
975.869 .0224605
976.481 .0224542
977.093 .0224476
977.705 .0224410
978.316 .0224352
978.927 .0224304
979.538 .0224259
980.148 .0224228
980.758 .0224205
981.367 .0224186
981.977 .0224171
982.586 .0224164
983.194 .0224165
983.802 .0224174
984.410 .0224189
985.018 .0224206
985.625 .0224226
986.232 .0224249
986.838 .0224267
987.445 .0224280
988.050 .0224288
988.656 .0224290
989.261 .0224288
989.866 .0224279
990.471 .0224266
991.075 .0224248
991.679 .0224228
992.282 .0224204
992.886 .0224181
993.489 .0224159
994.091 .0224144
994.694 .0224141
995.296 .0224147
995.897 .0224165
996.499 .0224191
997.100 .0224219
997.701 .0224254
998.301 .0224292
998.901 .0224331
999.501 .0224372
1000.101 .0224426
1000.700 .0224483
1001.299 .0224539
1001.898 .0224597
1002.496 .0224646
1003.094 .0224679
1003.692 .0224689
1004.289 .0224672
1004.887 .0224632
1005.484 .0224575
1006.080 .0224505
1006.677 .0224429
1007.273 .0224365
1007.868 .0224310
1008.464 .0224270
1009.059 .0224249
1009.654 .0224242
1010.249 .0224247
1010.843 .0224262
1011.437 .0224290
1012.031 .0224324
1012.625 .0224371
1013.218 .0224425
1013.811 .0224494
1014.404 .0224578
1014.997 .0224667
1015.589 .0224758
1016.181 .0224849
1016.773 .0224934
1017.365 .0225003
1017.956 .0225052
1018.547 .0225088
1019.138 .0225096
1019.728 .0225095
1020.319 .0225082
1020.909 .0225063
1021.499 .0225046
1022.088 .0225035
1022.678 .0225019
1023.267 .0225003
1023.856 .0224977
1024.445 .0224944
1025.033 .0224901
1025.621 .0224850
1026.209 .0224786
1026.797 .0224712
1027.385 .0224632
1027.972 .0224556
1028.560 .0224477
1029.147 .0224406
1029.734 .0224334
1030.320 .0224270
1030.907 .0224213
1031.493 .0224160
1032.079 .0224120
1032.665 .0224092
1033.250 .0224079
1033.836 .0224082
1034.421 .0224092
1035.006 .0224115
1035.591 .0224150
1036.176 .0224194
1036.761 .0224243
1037.345 .0224298
1037.929 .0224352
1038.514 .0224395
1039.097 .0224436
1039.681 .0224468
1040.265 .0224484
1040.848 .0224483
1041.432 .0224469
1042.015 .0224437
1042.598 .0224399
1043.181 .0224359
1043.764 .0224320
1044.346 .0224291
1044.929 .0224269
1045.511 .0224245
1046.094 .0224222
1046.676 .0224205
1047.258 .0224184
1047.840 .0224163
1048.422 .0224148
1049.003 .0224143
1049.585 .0224144
1050.166 .0224155
1050.748 .0224169
1051.329 .0224181
1051.910 .0224180
1052.491 .0224155
1053.072 .0224105
1053.653 .0224033
1054.234 .0223939
1054.815 .0223836
1055.396 .0223740
1055.976 .0223663
1056.557 .0223598
1057.138 .0223555
1057.718 .0223528
1058.298 .0223514
1058.879 .0223486
1059.459 .0223447
1060.039 .0223391
1060.620 .0223324
1061.200 .0223233
1061.780 .0223140
1062.360 .0223053
1062.940 .0222985
1063.520 .0222923
1064.101 .0222867
1064.681 .0222817
1065.261 .0222769
1065.841 .0222696
1066.421 .0222609
1067.001 .0222499
1067.581 .0222381
1068.161 .0222241
1068.741 .0222116
1069.321 .0221999
1069.901 .0221908
1070.482 .0221832
1071.062 .0221777
1071.642 .0221735
1072.222 .0221696
1072.803 .0221645
1073.383 .0221588
1073.963 .0221540
1074.544 .0221500
1075.124 .0221454
1075.705 .0221429
1076.286 .0221426
1076.866 .0221438
1077.447 .0221446
1078.028 .0221457
1078.609 .0221460
1079.190 .0221457
1079.771 .0221449
1080.352 .0221423
1080.934 .0221401
1081.515 .0221379
1082.097 .0221361
1082.679 .0221342
1083.260 .0221326
1083.842 .0221298
1084.424 .0221246
1085.007 .0221181
1085.589 .0221095
1086.172 .0220980
1086.754 .0220858
1087.337 .0220734
1087.920 .0220612
1088.503 .0220482
1089.087 .0220342
1089.670 .0220197
1090.254 .0220064
1090.838 .0219924
1091.422 .0219773
1092.006 .0219631
1092.590 .0219500
1093.175 .0219388
1093.760 .0219295
1094.345 .0219226
1094.930 .0219168
1095.516 .0219121
1096.102 .0219066
1096.688 .0218992
1097.274 .0218919
1097.860 .0218826
1098.447 .0218710
1099.034 .0218600
1099.622 .0218463
1100.209 .0218314
1100.797 .0218161
1101.385 .0218019
1101.973 .0217874
1102.562 .0217746
1103.151 .0217599
1103.740 .0217441
1104.330 .0217282
1104.920 .0217129
1105.510 .0216967
1106.101 .0216846
1106.691 .0216748
1107.283 .0216666
1107.874 .0216608
1108.466 .0216580
1109.058 .0216558
1109.651 .0216556
1110.244 .0216552
1110.837 .0216558
1111.431 .0216557
1112.025 .0216568
1112.620 .0216580
1113.215 .0216632
1113.810 .0216704
1114.406 .0216791
1115.002 .0216891
1115.599 .0217009
1116.196 .0217109
1116.793 .0217190
1117.391 .0217249
1117.989 .0217310
1118.588 .0217374
1119.187 .0217429
1119.787 .0217489
1120.387 .0217561
1120.988 .0217631
1121.589 .0217708
1122.190 .0217747
1122.793 .0217754
1123.395 .0217729
1123.998 .0217677
1124.602 .0217584
1125.206 .0217482
1125.811 .0217387
1126.416 .0217304
1127.022 .0217231
1127.628 .0217151
1128.235 .0217065
1128.843 .0217007
1129.451 .0216993
1130.059 .0216996
1130.669 .0217047
1131.278 .0217164
1131.889 .0217327
1132.500 .0217545
1133.112 .0217805
1133.724 .0218114
1134.337 .0218446
1134.950 .0218821
1135.564 .0219216
1136.179 .0219632
1136.795 .0220090
1137.411 .0220616
1138.028 .0221208
1138.645 .0221860
1139.263 .0222573
1139.882 .0223334
1140.502 .0224167
1141.122 .0225048
1141.743 .0225927
1142.365 .0226874
1142.987 .0227554
1143.611 .0229120
1144.235 .0229730
1144.859 .0230223
1145.485 .0232445
