Measurement Sequence started on: 10-20-44-796
Integration time: 35
Scans to Average: 2 
>>>>>Begin Spectral Data<<<<<
432.953 .0532020
433.882 .0509137
434.810 .0396149
435.737 .0382315
436.662 .0392334
437.586 .0394936
438.509 .0385392
439.431 .0379816
440.351 .0379184
441.269 .0379722
442.187 .0380699
443.103 .0382497
444.018 .0384835
444.932 .0387203
445.844 .0389380
446.756 .0391431
447.666 .0393253
448.575 .0394526
449.482 .0395523
450.388 .0396190
451.294 .0396612
452.198 .0396941
453.100 .0397144
454.002 .0397053
454.902 .0396717
455.801 .0396191
456.699 .0395558
457.596 .0394810
458.492 .0393981
459.387 .0393069
460.280 .0392052
461.172 .0390977
462.064 .0389802
462.954 .0388609
463.843 .0387458
464.730 .0386325
465.617 .0385299
466.503 .0384361
467.387 .0383557
468.271 .0382827
469.153 .0382202
470.035 .0381588
470.915 .0380991
471.794 .0380303
472.673 .0379562
473.550 .0378836
474.426 .0378178
475.301 .0377613
476.175 .0377195
477.048 .0376866
477.920 .0376622
478.791 .0376427
479.661 .0376241
480.530 .0376007
481.398 .0375724
482.266 .0375367
483.132 .0375018
483.997 .0374624
484.861 .0374290
485.724 .0374010
486.587 .0373815
487.448 .0373667
488.308 .0373499
489.168 .0373289
490.026 .0373024
490.884 .0372691
491.741 .0372286
492.597 .0371837
493.452 .0371398
494.306 .0370968
495.159 .0370564
496.011 .0370230
496.862 .0369909
497.713 .0369550
498.562 .0369163
499.411 .0368695
500.259 .0368161
501.106 .0367611
501.952 .0367048
502.798 .0366548
503.642 .0366108
504.486 .0365708
505.329 .0365285
506.171 .0364854
507.012 .0364329
507.852 .0363595
508.692 .0362678
509.531 .0361581
510.369 .0360301
511.206 .0358950
512.043 .0357528
512.878 .0356099
513.713 .0354656
514.547 .0353167
515.381 .0351514
516.213 .0349714
517.045 .0347738
517.876 .0345555
518.706 .0343296
519.536 .0341076
520.365 .0338967
521.193 .0337046
522.020 .0335478
522.847 .0334261
523.673 .0333314
524.498 .0332584
525.323 .0331881
526.146 .0331197
526.969 .0330440
527.792 .0329592
528.614 .0328593
529.435 .0327600
530.255 .0326676
531.075 .0325682
531.894 .0324707
532.712 .0323720
533.530 .0322703
534.347 .0321687
535.163 .0320637
535.979 .0319523
536.794 .0318310
537.608 .0317188
538.422 .0316070
539.235 .0315056
540.048 .0314219
540.860 .0313616
541.671 .0313234
542.481 .0313036
543.292 .0312992
544.101 .0313019
544.910 .0313180
545.718 .0313358
546.526 .0313393
547.333 .0313291
548.139 .0313046
548.945 .0312672
549.750 .0312164
550.555 .0311695
551.359 .0311306
552.162 .0311031
552.965 .0310936
553.768 .0310956
554.569 .0311068
555.371 .0311217
556.171 .0311402
556.972 .0311550
557.771 .0311669
558.570 .0311797
559.369 .0311979
560.167 .0312308
560.964 .0312821
561.761 .0313526
562.558 .0314414
563.354 .0315455
564.149 .0316525
564.944 .0317518
565.738 .0318465
566.532 .0319327
567.325 .0320158
568.118 .0320933
568.910 .0321726
569.702 .0322540
570.494 .0323390
571.285 .0324257
572.075 .0325099
572.865 .0325923
573.654 .0326653
574.443 .0327252
575.232 .0327738
576.020 .0328095
576.807 .0328383
577.594 .0328640
578.381 .0328912
579.167 .0329152
579.952 .0329378
580.738 .0329594
581.522 .0329776
582.307 .0329950
583.091 .0330136
583.874 .0330329
584.657 .0330528
585.440 .0330738
586.222 .0330916
587.004 .0331077
587.785 .0331243
588.566 .0331347
589.346 .0331397
590.126 .0331409
590.906 .0331387
591.685 .0331335
592.464 .0331295
593.242 .0331261
594.020 .0331238
594.797 .0331230
595.575 .0331209
596.351 .0331169
597.128 .0331134
597.904 .0331076
598.679 .0330997
599.454 .0330914
600.229 .0330831
601.004 .0330749
601.778 .0330691
602.551 .0330637
603.325 .0330584
604.097 .0330516
604.870 .0330421
605.642 .0330293
606.414 .0330143
607.185 .0329966
607.956 .0329779
608.727 .0329594
609.497 .0329417
610.267 .0329231
611.037 .0329053
611.806 .0328877
612.575 .0328689
613.344 .0328485
614.112 .0328267
614.880 .0328039
615.647 .0327819
616.414 .0327599
617.181 .0327393
617.948 .0327209
618.714 .0327046
619.480 .0326895
620.245 .0326752
621.011 .0326611
621.775 .0326466
622.540 .0326307
623.304 .0326140
624.068 .0325954
624.832 .0325751
625.595 .0325544
626.358 .0325336
627.120 .0325118
627.883 .0324888
628.645 .0324657
629.406 .0324427
630.168 .0324186
630.929 .0323932
631.689 .0323665
632.450 .0323388
633.210 .0323101
633.970 .0322798
634.729 .0322485
635.489 .0322172
636.248 .0321860
637.006 .0321552
637.765 .0321245
638.523 .0320947
639.280 .0320654
640.038 .0320365
640.795 .0320088
641.552 .0319820
642.309 .0319558
643.065 .0319316
643.821 .0319092
644.577 .0318882
645.332 .0318679
646.088 .0318492
646.843 .0318316
647.597 .0318139
648.352 .0317956
649.106 .0317755
649.860 .0317535
650.613 .0317301
651.367 .0317045
652.120 .0316778
652.872 .0316504
653.625 .0316233
654.377 .0315953
655.129 .0315681
655.881 .0315408
656.632 .0315128
657.384 .0314832
658.135 .0314527
658.885 .0314198
659.636 .0313852
660.386 .0313497
661.136 .0313144
661.885 .0312804
662.635 .0312495
663.384 .0312207
664.133 .0311948
664.881 .0311710
665.630 .0311488
666.378 .0311265
667.126 .0311053
667.874 .0310836
668.621 .0310613
669.368 .0310387
670.115 .0310164
670.862 .0309940
671.608 .0309730
672.354 .0309538
673.100 .0309359
673.846 .0309196
674.591 .0309046
675.337 .0308894
676.082 .0308746
676.826 .0308595
677.571 .0308441
678.315 .0308279
679.059 .0308112
679.803 .0307936
680.547 .0307758
681.290 .0307588
682.033 .0307418
682.776 .0307255
683.518 .0307104
684.261 .0306950
685.003 .0306792
685.745 .0306629
686.487 .0306463
687.228 .0306295
687.969 .0306130
688.710 .0305969
689.451 .0305808
690.192 .0305653
690.932 .0305501
691.672 .0305351
692.412 .0305193
693.152 .0305023
693.891 .0304832
694.630 .0304631
695.369 .0304411
696.108 .0304176
696.846 .0303940
697.585 .0303707
698.323 .0303482
699.061 .0303259
699.798 .0303038
700.536 .0302819
701.273 .0302592
702.010 .0302367
702.746 .0302133
703.483 .0301903
704.219 .0301680
704.955 .0301467
705.691 .0301273
706.427 .0301096
707.162 .0300942
707.897 .0300810
708.632 .0300692
709.367 .0300578
710.101 .0300456
710.835 .0300330
711.569 .0300195
712.303 .0300047
713.037 .0299891
713.770 .0299742
714.503 .0299594
715.236 .0299452
715.969 .0299316
716.702 .0299189
717.434 .0299073
718.166 .0298954
718.898 .0298836
719.629 .0298712
720.361 .0298586
721.092 .0298454
721.823 .0298316
722.554 .0298180
723.284 .0298039
724.014 .0297891
724.744 .0297736
725.474 .0297574
726.204 .0297403
726.933 .0297212
727.662 .0297009
728.391 .0296792
729.120 .0296563
729.849 .0296318
730.577 .0296073
731.305 .0295823
732.033 .0295576
732.760 .0295325
733.488 .0295072
734.215 .0294822
734.942 .0294568
735.669 .0294313
736.395 .0294059
737.122 .0293816
737.848 .0293585
738.573 .0293365
739.299 .0293166
740.024 .0292976
740.750 .0292793
741.474 .0292611
742.199 .0292426
742.924 .0292232
743.648 .0292032
744.372 .0291825
745.096 .0291625
745.819 .0291436
746.543 .0291259
747.266 .0291101
747.989 .0290958
748.711 .0290828
749.434 .0290711
750.156 .0290598
750.878 .0290490
751.599 .0290389
752.321 .0290297
753.042 .0290210
753.763 .0290135
754.484 .0290074
755.205 .0290025
755.925 .0289982
756.645 .0289940
757.365 .0289890
758.085 .0289836
758.804 .0289774
759.523 .0289699
760.242 .0289614
760.961 .0289516
761.679 .0289398
762.397 .0289265
763.115 .0289112
763.833 .0288942
764.551 .0288752
765.268 .0288547
765.985 .0288325
766.702 .0288089
767.418 .0287836
768.134 .0287576
768.850 .0287314
769.566 .0287046
770.282 .0286775
770.997 .0286504
771.712 .0286242
772.427 .0285992
773.142 .0285754
773.856 .0285526
774.570 .0285307
775.284 .0285093
775.998 .0284874
776.711 .0284652
777.424 .0284433
778.137 .0284214
778.849 .0284014
779.562 .0283830
780.274 .0283671
780.986 .0283533
781.697 .0283432
782.409 .0283351
783.120 .0283282
783.831 .0283215
784.541 .0283142
785.252 .0283061
785.962 .0282974
786.671 .0282877
787.381 .0282781
788.090 .0282687
788.799 .0282599
789.508 .0282507
790.217 .0282416
790.925 .0282313
791.633 .0282192
792.341 .0282047
793.048 .0281877
793.755 .0281678
794.462 .0281463
795.169 .0281243
795.875 .0281031
796.581 .0280833
797.287 .0280658
797.993 .0280507
798.698 .0280380
799.403 .0280265
800.108 .0280159
800.812 .0280060
801.517 .0279967
802.221 .0279878
802.924 .0279795
803.628 .0279723
804.331 .0279660
805.034 .0279597
805.736 .0279523
806.439 .0279435
807.141 .0279331
807.843 .0279203
808.544 .0279052
809.245 .0278886
809.946 .0278707
810.647 .0278529
811.347 .0278352
812.047 .0278181
812.747 .0278017
813.447 .0277857
814.146 .0277693
814.845 .0277529
815.543 .0277370
816.242 .0277223
816.940 .0277094
817.638 .0276995
818.335 .0276917
819.032 .0276861
819.729 .0276814
820.426 .0276769
821.122 .0276715
821.818 .0276644
822.514 .0276548
823.209 .0276436
823.905 .0276316
824.599 .0276184
825.294 .0276054
825.988 .0275933
826.682 .0275816
827.376 .0275700
828.069 .0275581
828.762 .0275457
829.455 .0275331
830.147 .0275204
830.840 .0275075
831.531 .0274953
832.223 .0274845
832.914 .0274740
833.605 .0274646
834.296 .0274560
834.986 .0274482
835.676 .0274406
836.366 .0274341
837.055 .0274278
837.744 .0274214
838.433 .0274147
839.121 .0274071
839.809 .0273981
840.497 .0273873
841.185 .0273738
841.872 .0273585
842.559 .0273419
843.245 .0273247
843.932 .0273075
844.617 .0272918
845.303 .0272784
845.988 .0272669
846.673 .0272575
847.358 .0272498
848.042 .0272427
848.726 .0272360
849.410 .0272292
850.093 .0272225
850.776 .0272161
851.459 .0272106
852.141 .0272062
852.823 .0272037
853.505 .0272029
854.186 .0272034
854.867 .0272052
855.548 .0272075
856.228 .0272094
856.908 .0272097
857.588 .0272086
858.267 .0272055
858.946 .0272006
859.625 .0271951
860.303 .0271882
860.981 .0271808
861.659 .0271729
862.336 .0271644
863.013 .0271557
863.690 .0271465
864.366 .0271364
865.042 .0271256
865.718 .0271143
866.393 .0271023
867.068 .0270895
867.743 .0270772
868.417 .0270651
869.091 .0270536
869.765 .0270422
870.438 .0270308
871.111 .0270190
871.783 .0270082
872.456 .0269976
873.127 .0269880
873.799 .0269796
874.470 .0269727
875.141 .0269673
875.811 .0269639
876.481 .0269616
877.151 .0269596
877.820 .0269579
878.489 .0269557
879.158 .0269512
879.826 .0269451
880.494 .0269376
881.162 .0269289
881.829 .0269194
882.496 .0269091
883.163 .0268979
883.829 .0268869
884.495 .0268762
885.160 .0268663
885.825 .0268571
886.490 .0268493
887.154 .0268423
887.818 .0268359
888.482 .0268300
889.145 .0268236
889.808 .0268168
890.471 .0268106
891.133 .0268039
891.795 .0267973
892.456 .0267911
893.117 .0267870
893.778 .0267851
894.439 .0267856
895.099 .0267878
895.758 .0267914
896.417 .0267950
897.076 .0267978
897.735 .0267989
898.393 .0267986
899.051 .0267971
899.708 .0267944
900.365 .0267912
901.022 .0267887
901.678 .0267868
902.334 .0267857
902.990 .0267848
903.645 .0267839
904.300 .0267810
904.954 .0267753
905.608 .0267671
906.262 .0267558
906.915 .0267422
907.568 .0267269
908.221 .0267104
908.873 .0266937
909.525 .0266769
910.176 .0266608
910.828 .0266452
911.478 .0266306
912.129 .0266156
912.778 .0266003
913.428 .0265849
914.077 .0265699
914.726 .0265552
915.375 .0265415
916.023 .0265285
916.670 .0265166
917.318 .0265050
917.964 .0264934
918.611 .0264812
919.257 .0264684
919.903 .0264542
920.548 .0264379
921.193 .0264196
921.838 .0263996
922.482 .0263779
923.126 .0263560
923.770 .0263336
924.413 .0263110
925.056 .0262886
925.698 .0262664
926.340 .0262443
926.982 .0262231
927.623 .0262024
928.264 .0261822
928.904 .0261632
929.544 .0261454
930.184 .0261290
930.823 .0261145
931.462 .0261019
932.101 .0260900
932.739 .0260788
933.377 .0260678
934.014 .0260556
934.651 .0260429
935.288 .0260294
935.924 .0260152
936.560 .0260010
937.196 .0259873
937.831 .0259737
938.466 .0259608
939.100 .0259490
939.734 .0259366
940.368 .0259236
941.001 .0259096
941.634 .0258946
942.266 .0258785
942.899 .0258616
943.530 .0258438
944.162 .0258259
944.793 .0258083
945.423 .0257899
946.053 .0257711
946.683 .0257519
947.313 .0257314
947.942 .0257091
948.571 .0256847
949.199 .0256584
949.827 .0256300
950.455 .0256005
951.082 .0255703
951.709 .0255400
952.335 .0255100
952.961 .0254805
953.587 .0254524
954.212 .0254259
954.837 .0254003
955.462 .0253760
956.086 .0253536
956.710 .0253338
957.334 .0253155
957.957 .0252995
958.579 .0252862
959.202 .0252760
959.824 .0252667
960.445 .0252582
961.067 .0252500
961.688 .0252413
962.308 .0252309
962.928 .0252187
963.548 .0252049
964.168 .0251898
964.787 .0251731
965.406 .0251556
966.024 .0251367
966.642 .0251174
967.260 .0250967
967.877 .0250748
968.494 .0250521
969.110 .0250280
969.727 .0250029
970.342 .0249776
970.958 .0249530
971.573 .0249294
972.188 .0249075
972.802 .0248878
973.416 .0248699
974.030 .0248542
974.643 .0248403
975.256 .0248286
975.869 .0248189
976.481 .0248115
977.093 .0248057
977.705 .0248009
978.316 .0247972
978.927 .0247935
979.538 .0247902
980.148 .0247862
980.758 .0247816
981.367 .0247773
981.977 .0247738
982.586 .0247709
983.194 .0247689
983.802 .0247683
984.410 .0247677
985.018 .0247662
985.625 .0247632
986.232 .0247582
986.838 .0247513
987.445 .0247423
988.050 .0247318
988.656 .0247202
989.261 .0247089
989.866 .0246968
990.471 .0246845
991.075 .0246728
991.679 .0246599
992.282 .0246458
992.886 .0246307
993.489 .0246149
994.091 .0245985
994.694 .0245825
995.296 .0245676
995.897 .0245534
996.499 .0245412
997.100 .0245299
997.701 .0245190
998.301 .0245094
998.901 .0245007
999.501 .0244918
1000.101 .0244838
1000.700 .0244768
1001.299 .0244700
1001.898 .0244650
1002.496 .0244615
1003.094 .0244590
1003.692 .0244575
1004.289 .0244561
1004.887 .0244546
1005.484 .0244532
1006.080 .0244519
1006.677 .0244501
1007.273 .0244491
1007.868 .0244494
1008.464 .0244504
1009.059 .0244524
1009.654 .0244550
1010.249 .0244591
1010.843 .0244639
1011.437 .0244691
1012.031 .0244739
1012.625 .0244789
1013.218 .0244842
1013.811 .0244897
1014.404 .0244965
1014.997 .0245032
1015.589 .0245092
1016.181 .0245152
1016.773 .0245195
1017.365 .0245220
1017.956 .0245236
1018.547 .0245239
1019.138 .0245231
1019.728 .0245224
1020.319 .0245209
1020.909 .0245195
1021.499 .0245186
1022.088 .0245180
1022.678 .0245161
1023.267 .0245130
1023.856 .0245089
1024.445 .0245029
1025.033 .0244969
1025.621 .0244913
1026.209 .0244866
1026.797 .0244841
1027.385 .0244842
1027.972 .0244862
1028.560 .0244902
1029.147 .0244956
1029.734 .0245020
1030.320 .0245082
1030.907 .0245129
1031.493 .0245169
1032.079 .0245205
1032.665 .0245239
1033.250 .0245285
1033.836 .0245336
1034.421 .0245405
1035.006 .0245487
1035.591 .0245584
1036.176 .0245688
1036.761 .0245799
1037.345 .0245904
1037.929 .0245989
1038.514 .0246055
1039.097 .0246110
1039.681 .0246144
1040.265 .0246170
1040.848 .0246210
1041.432 .0246248
1042.015 .0246285
1042.598 .0246328
1043.181 .0246374
1043.764 .0246423
1044.346 .0246461
1044.929 .0246492
1045.511 .0246515
1046.094 .0246541
1046.676 .0246571
1047.258 .0246609
1047.840 .0246668
1048.422 .0246741
1049.003 .0246814
1049.585 .0246889
1050.166 .0246970
1050.748 .0247036
1051.329 .0247087
1051.910 .0247132
1052.491 .0247162
1053.072 .0247171
1053.653 .0247154
1054.234 .0247128
1054.815 .0247089
1055.396 .0247045
1055.976 .0246995
1056.557 .0246941
1057.138 .0246903
1057.718 .0246871
1058.298 .0246856
1058.879 .0246867
1059.459 .0246897
1060.039 .0246931
1060.620 .0246966
1061.200 .0247006
1061.780 .0247036
1062.360 .0247049
1062.940 .0247054
1063.520 .0247065
1064.101 .0247070
1064.681 .0247065
1065.261 .0247054
1065.841 .0247029
1066.421 .0246996
1067.001 .0246935
1067.581 .0246847
1068.161 .0246732
1068.741 .0246601
1069.321 .0246475
1069.901 .0246370
1070.482 .0246302
1071.062 .0246270
1071.642 .0246272
1072.222 .0246329
1072.803 .0246387
1073.383 .0246446
1073.963 .0246508
1074.544 .0246585
1075.124 .0246657
1075.705 .0246711
1076.286 .0246762
1076.866 .0246827
1077.447 .0246896
1078.028 .0246952
1078.609 .0246998
1079.190 .0247056
1079.771 .0247084
1080.352 .0247095
1080.934 .0247085
1081.515 .0247064
1082.097 .0247028
1082.679 .0246997
1083.260 .0246964
1083.842 .0246941
1084.424 .0246928
1085.007 .0246918
1085.589 .0246943
1086.172 .0247016
1086.754 .0247115
1087.337 .0247243
1087.920 .0247435
1088.503 .0247646
1089.087 .0247834
1089.670 .0248013
1090.254 .0248168
1090.838 .0248282
1091.422 .0248352
1092.006 .0248366
1092.590 .0248353
1093.175 .0248341
1093.760 .0248352
1094.345 .0248363
1094.930 .0248412
1095.516 .0248476
1096.102 .0248495
1096.688 .0248480
1097.274 .0248438
1097.860 .0248350
1098.447 .0248246
1099.034 .0248140
1099.622 .0248063
1100.209 .0247999
1100.797 .0247981
1101.385 .0247987
1101.973 .0248017
1102.562 .0248062
1103.151 .0248094
1103.740 .0248082
1104.330 .0248030
1104.920 .0247933
1105.510 .0247791
1106.101 .0247610
1106.691 .0247403
1107.283 .0247152
1107.874 .0246886
1108.466 .0246625
1109.058 .0246365
1109.651 .0246117
1110.244 .0245915
1110.837 .0245755
1111.431 .0245670
1112.025 .0245646
1112.620 .0245702
1113.215 .0245819
1113.810 .0246040
1114.406 .0246340
1115.002 .0246694
1115.599 .0247095
1116.196 .0247517
1116.793 .0247936
1117.391 .0248343
1117.989 .0248667
1118.588 .0248941
1119.187 .0249156
1119.787 .0249317
1120.387 .0249451
1120.988 .0249570
1121.589 .0249701
1122.190 .0249897
1122.793 .0250134
1123.395 .0250417
1123.998 .0250720
1124.602 .0251072
1125.206 .0251427
1125.811 .0251757
1126.416 .0252134
1127.022 .0252503
1127.628 .0252919
1128.235 .0253428
1128.843 .0253920
1129.451 .0254461
1130.059 .0255000
1130.669 .0255443
1131.278 .0255813
1131.889 .0256056
1132.500 .0256178
1133.112 .0256129
1133.724 .0255945
1134.337 .0255648
1134.950 .0255246
1135.564 .0254902
1136.179 .0254627
1136.795 .0254491
1137.411 .0254576
1138.028 .0254828
1138.645 .0255337
1139.263 .0256042
1139.882 .0256943
1140.502 .0257996
1141.122 .0259380
1141.743 .0261083
1142.365 .0263025
1142.987 .0263251
1143.611 .0264773
1144.235 .0271976
1144.859 .0276055
1145.485 .0276508
