Measurement Sequence started on: 10-20-44-796
Integration time: 35
Scans to Average: 2 
>>>>>Begin Spectral Data<<<<<
432.953 .0285581
433.882 .0298643
434.810 .0303994
435.737 .0296752
436.662 .0291273
437.586 .0306112
438.509 .0309218
439.431 .0311859
440.351 .0314166
441.269 .0316318
442.187 .0318166
443.103 .0319390
444.018 .0320303
444.932 .0321196
445.844 .0321912
446.756 .0322426
447.666 .0322731
448.575 .0322753
449.482 .0322584
450.388 .0322296
451.294 .0321914
452.198 .0321577
453.100 .0321268
454.002 .0321019
454.902 .0320846
455.801 .0320609
456.699 .0320387
457.596 .0320049
458.492 .0319562
459.387 .0318999
460.280 .0318440
461.172 .0317887
462.064 .0317360
462.954 .0316915
463.843 .0316605
464.730 .0316383
465.617 .0316225
466.503 .0316134
467.387 .0316039
468.271 .0315955
469.153 .0315844
470.035 .0315721
470.915 .0315660
471.794 .0315592
472.673 .0315541
473.550 .0315533
474.426 .0315565
475.301 .0315595
476.175 .0315565
477.048 .0315494
477.920 .0315359
478.791 .0315119
479.661 .0314800
480.530 .0314393
481.398 .0313938
482.266 .0313461
483.132 .0312974
483.997 .0312509
484.861 .0312093
485.724 .0311746
486.587 .0311476
487.448 .0311295
488.308 .0311199
489.168 .0311172
490.026 .0311219
490.884 .0311334
491.741 .0311485
492.597 .0311632
493.452 .0311784
494.306 .0311948
495.159 .0312114
496.011 .0312265
496.862 .0312400
497.713 .0312488
498.562 .0312508
499.411 .0312410
500.259 .0312159
501.106 .0311748
501.952 .0311194
502.798 .0310480
503.642 .0309631
504.486 .0308693
505.329 .0307714
506.171 .0306705
507.012 .0305688
507.852 .0304656
508.692 .0303570
509.531 .0302393
510.369 .0301092
511.206 .0299653
512.043 .0298100
512.878 .0296424
513.713 .0294676
514.547 .0292898
515.381 .0291155
516.213 .0289451
517.045 .0287776
517.876 .0286118
518.706 .0284447
519.536 .0282721
520.365 .0280925
521.193 .0279070
522.020 .0277143
522.847 .0275157
523.673 .0273167
524.498 .0271248
525.323 .0269391
526.146 .0267637
526.969 .0266022
527.792 .0264513
528.614 .0263102
529.435 .0261716
530.255 .0260362
531.075 .0259032
531.894 .0257812
532.712 .0256617
533.530 .0255465
534.347 .0254430
535.163 .0253527
535.979 .0252840
536.794 .0252346
537.608 .0252101
538.422 .0252148
539.235 .0252469
540.048 .0253035
540.860 .0253749
541.671 .0254621
542.481 .0255528
543.292 .0256408
544.101 .0257173
544.910 .0257798
545.718 .0258257
546.526 .0258599
547.333 .0258860
548.139 .0259072
548.945 .0259246
549.750 .0259362
550.555 .0259487
551.359 .0259593
552.162 .0259645
552.965 .0259696
553.768 .0259724
554.569 .0259794
555.371 .0259899
556.171 .0260067
556.972 .0260336
557.771 .0260728
558.570 .0261246
559.369 .0261872
560.167 .0262606
560.964 .0263430
561.761 .0264287
562.558 .0265211
563.354 .0266189
564.149 .0267142
564.944 .0268112
565.738 .0269082
566.532 .0270048
567.325 .0270994
568.118 .0271914
568.910 .0272805
569.702 .0273677
570.494 .0274544
571.285 .0275390
572.075 .0276221
572.865 .0277027
573.654 .0277801
574.443 .0278521
575.232 .0279210
576.020 .0279869
576.807 .0280495
577.594 .0281131
578.381 .0281791
579.167 .0282446
579.952 .0283109
580.738 .0283803
581.522 .0284507
582.307 .0285180
583.091 .0285834
583.874 .0286439
584.657 .0286982
585.440 .0287496
586.222 .0287955
587.004 .0288339
587.785 .0288704
588.566 .0289032
589.346 .0289313
590.126 .0289562
590.906 .0289783
591.685 .0289964
592.464 .0290122
593.242 .0290247
594.020 .0290320
594.797 .0290369
595.575 .0290400
596.351 .0290401
597.128 .0290388
597.904 .0290364
598.679 .0290326
599.454 .0290287
600.229 .0290258
601.004 .0290222
601.778 .0290193
602.551 .0290163
603.325 .0290129
604.097 .0290088
604.870 .0290032
605.642 .0289959
606.414 .0289873
607.185 .0289772
607.956 .0289656
608.727 .0289529
609.497 .0289399
610.267 .0289263
611.037 .0289120
611.806 .0288959
612.575 .0288780
613.344 .0288587
614.112 .0288380
614.880 .0288163
615.647 .0287948
616.414 .0287734
617.181 .0287526
617.948 .0287325
618.714 .0287136
619.480 .0286952
620.245 .0286778
621.011 .0286613
621.775 .0286451
622.540 .0286291
623.304 .0286141
624.068 .0286004
624.832 .0285879
625.595 .0285764
626.358 .0285650
627.120 .0285531
627.883 .0285403
628.645 .0285258
629.406 .0285099
630.168 .0284931
630.929 .0284757
631.689 .0284578
632.450 .0284396
633.210 .0284217
633.970 .0284040
634.729 .0283870
635.489 .0283697
636.248 .0283518
637.006 .0283325
637.765 .0283124
638.523 .0282915
639.280 .0282704
640.038 .0282493
640.795 .0282294
641.552 .0282109
642.309 .0281940
643.065 .0281790
643.821 .0281662
644.577 .0281545
645.332 .0281443
646.088 .0281341
646.843 .0281235
647.597 .0281123
648.352 .0281007
649.106 .0280891
649.860 .0280782
650.613 .0280678
651.367 .0280585
652.120 .0280506
652.872 .0280441
653.625 .0280381
654.377 .0280323
655.129 .0280266
655.881 .0280202
656.632 .0280133
657.384 .0280056
658.135 .0279971
658.885 .0279886
659.636 .0279795
660.386 .0279691
661.136 .0279583
661.885 .0279468
662.635 .0279347
663.384 .0279226
664.133 .0279105
664.881 .0278983
665.630 .0278865
666.378 .0278751
667.126 .0278634
667.874 .0278509
668.621 .0278380
669.368 .0278237
670.115 .0278085
670.862 .0277929
671.608 .0277774
672.354 .0277626
673.100 .0277494
673.846 .0277374
674.591 .0277268
675.337 .0277175
676.082 .0277093
676.826 .0277015
677.571 .0276935
678.315 .0276848
679.059 .0276758
679.803 .0276662
680.547 .0276567
681.290 .0276467
682.033 .0276368
682.776 .0276268
683.518 .0276166
684.261 .0276057
685.003 .0275945
685.745 .0275827
686.487 .0275703
687.228 .0275571
687.969 .0275432
688.710 .0275279
689.451 .0275118
690.192 .0274950
690.932 .0274772
691.672 .0274583
692.412 .0274392
693.152 .0274195
693.891 .0274002
694.630 .0273811
695.369 .0273627
696.108 .0273447
696.846 .0273269
697.585 .0273087
698.323 .0272894
699.061 .0272694
699.798 .0272483
700.536 .0272261
701.273 .0272035
702.010 .0271811
702.746 .0271591
703.483 .0271381
704.219 .0271180
704.955 .0270991
705.691 .0270811
706.427 .0270632
707.162 .0270454
707.897 .0270277
708.632 .0270097
709.367 .0269918
710.101 .0269741
710.835 .0269571
711.569 .0269402
712.303 .0269236
713.037 .0269073
713.770 .0268911
714.503 .0268748
715.236 .0268575
715.969 .0268399
716.702 .0268222
717.434 .0268036
718.166 .0267847
718.898 .0267654
719.629 .0267463
720.361 .0267273
721.092 .0267085
721.823 .0266899
722.554 .0266717
723.284 .0266538
724.014 .0266355
724.744 .0266169
725.474 .0265983
726.204 .0265795
726.933 .0265603
727.662 .0265412
728.391 .0265215
729.120 .0265016
729.849 .0264823
730.577 .0264629
731.305 .0264436
732.033 .0264243
732.760 .0264042
733.488 .0263836
734.215 .0263621
734.942 .0263403
735.669 .0263178
736.395 .0262959
737.122 .0262744
737.848 .0262534
738.573 .0262332
739.299 .0262140
740.024 .0261959
740.750 .0261791
741.474 .0261631
742.199 .0261476
742.924 .0261328
743.648 .0261191
744.372 .0261061
745.096 .0260944
745.819 .0260841
746.543 .0260754
747.266 .0260678
747.989 .0260616
748.711 .0260567
749.434 .0260528
750.156 .0260498
750.878 .0260471
751.599 .0260449
752.321 .0260428
753.042 .0260409
753.763 .0260395
754.484 .0260383
755.205 .0260377
755.925 .0260369
756.645 .0260358
757.365 .0260339
758.085 .0260306
758.804 .0260255
759.523 .0260182
760.242 .0260086
760.961 .0259970
761.679 .0259834
762.397 .0259689
763.115 .0259538
763.833 .0259384
764.551 .0259228
765.268 .0259069
765.985 .0258902
766.702 .0258724
767.418 .0258535
768.134 .0258334
768.850 .0258121
769.566 .0257909
770.282 .0257695
770.997 .0257492
771.712 .0257303
772.427 .0257130
773.142 .0256972
773.856 .0256824
774.570 .0256679
775.284 .0256535
775.998 .0256391
776.711 .0256245
777.424 .0256095
778.137 .0255947
778.849 .0255800
779.562 .0255656
780.274 .0255517
780.986 .0255386
781.697 .0255257
782.409 .0255138
783.120 .0255020
783.831 .0254909
784.541 .0254804
785.252 .0254705
785.962 .0254619
786.671 .0254541
787.381 .0254465
788.090 .0254390
788.799 .0254313
789.508 .0254231
790.217 .0254140
790.925 .0254044
791.633 .0253945
792.341 .0253843
793.048 .0253742
793.755 .0253641
794.462 .0253541
795.169 .0253444
795.875 .0253345
796.581 .0253241
797.287 .0253137
797.993 .0253030
798.698 .0252923
799.403 .0252816
800.108 .0252713
800.812 .0252609
801.517 .0252503
802.221 .0252394
802.924 .0252277
803.628 .0252149
804.331 .0252022
805.034 .0251887
805.736 .0251751
806.439 .0251616
807.141 .0251485
807.843 .0251357
808.544 .0251231
809.245 .0251099
809.946 .0250956
810.647 .0250801
811.347 .0250630
812.047 .0250446
812.747 .0250257
813.447 .0250070
814.146 .0249890
814.845 .0249726
815.543 .0249581
816.242 .0249447
816.940 .0249328
817.638 .0249211
818.335 .0249091
819.032 .0248961
819.729 .0248817
820.426 .0248667
821.122 .0248511
821.818 .0248351
822.514 .0248190
823.209 .0248035
823.905 .0247883
824.599 .0247731
825.294 .0247585
825.988 .0247436
826.682 .0247284
827.376 .0247128
828.069 .0246967
828.762 .0246807
829.455 .0246644
830.147 .0246480
830.840 .0246315
831.531 .0246151
832.223 .0245986
832.914 .0245819
833.605 .0245659
834.296 .0245506
834.986 .0245360
835.676 .0245224
836.366 .0245099
837.055 .0244978
837.744 .0244863
838.433 .0244743
839.121 .0244619
839.809 .0244488
840.497 .0244347
841.185 .0244206
841.872 .0244070
842.559 .0243947
843.245 .0243837
843.932 .0243741
844.617 .0243659
845.303 .0243581
845.988 .0243502
846.673 .0243417
847.358 .0243324
848.042 .0243222
848.726 .0243112
849.410 .0242997
850.093 .0242889
850.776 .0242788
851.459 .0242694
852.141 .0242604
852.823 .0242515
853.505 .0242421
854.186 .0242316
854.867 .0242202
855.548 .0242077
856.228 .0241947
856.908 .0241819
857.588 .0241693
858.267 .0241577
858.946 .0241472
859.625 .0241376
860.303 .0241285
860.981 .0241195
861.659 .0241100
862.336 .0240991
863.013 .0240873
863.690 .0240747
864.366 .0240612
865.042 .0240474
865.718 .0240333
866.393 .0240195
867.068 .0240061
867.743 .0239928
868.417 .0239797
869.091 .0239669
869.765 .0239544
870.438 .0239418
871.111 .0239297
871.783 .0239183
872.456 .0239076
873.127 .0238980
873.799 .0238894
874.470 .0238817
875.141 .0238747
875.811 .0238681
876.481 .0238617
877.151 .0238554
877.820 .0238494
878.489 .0238434
879.158 .0238377
879.826 .0238321
880.494 .0238263
881.162 .0238202
881.829 .0238135
882.496 .0238059
883.163 .0237975
883.829 .0237884
884.495 .0237789
885.160 .0237699
885.825 .0237617
886.490 .0237552
887.154 .0237504
887.818 .0237471
888.482 .0237450
889.145 .0237432
889.808 .0237417
890.471 .0237394
891.133 .0237364
891.795 .0237326
892.456 .0237282
893.117 .0237235
893.778 .0237186
894.439 .0237136
895.099 .0237085
895.758 .0237032
896.417 .0236972
897.076 .0236901
897.735 .0236818
898.393 .0236725
899.051 .0236624
899.708 .0236515
900.365 .0236405
901.022 .0236296
901.678 .0236194
902.334 .0236099
902.990 .0236011
903.645 .0235932
904.300 .0235859
904.954 .0235795
905.608 .0235735
906.262 .0235679
906.915 .0235629
907.568 .0235578
908.221 .0235531
908.873 .0235482
909.525 .0235431
910.176 .0235376
910.828 .0235320
911.478 .0235262
912.129 .0235198
912.778 .0235130
913.428 .0235059
914.077 .0234985
914.726 .0234909
915.375 .0234831
916.023 .0234757
916.670 .0234691
917.318 .0234637
917.964 .0234587
918.611 .0234550
919.257 .0234518
919.903 .0234489
920.548 .0234460
921.193 .0234432
921.838 .0234403
922.482 .0234377
923.126 .0234356
923.770 .0234341
924.413 .0234334
925.056 .0234338
925.698 .0234343
926.340 .0234349
926.982 .0234348
927.623 .0234339
928.264 .0234314
928.904 .0234278
929.544 .0234227
930.184 .0234169
930.823 .0234107
931.462 .0234039
932.101 .0233964
932.739 .0233885
933.377 .0233796
934.014 .0233694
934.651 .0233579
935.288 .0233453
935.924 .0233313
936.560 .0233165
937.196 .0233014
937.831 .0232860
938.466 .0232706
939.100 .0232552
939.734 .0232397
940.368 .0232238
941.001 .0232074
941.634 .0231905
942.266 .0231739
942.899 .0231577
943.530 .0231415
944.162 .0231255
944.793 .0231102
945.423 .0230953
946.053 .0230807
946.683 .0230665
947.313 .0230527
947.942 .0230396
948.571 .0230268
949.199 .0230140
949.827 .0230013
950.455 .0229889
951.082 .0229769
951.709 .0229647
952.335 .0229526
952.961 .0229402
953.587 .0229277
954.212 .0229151
954.837 .0229023
955.462 .0228894
956.086 .0228761
956.710 .0228626
957.334 .0228486
957.957 .0228337
958.579 .0228180
959.202 .0228018
959.824 .0227853
960.445 .0227684
961.067 .0227517
961.688 .0227355
962.308 .0227202
962.928 .0227062
963.548 .0226929
964.168 .0226803
964.787 .0226684
965.406 .0226571
966.024 .0226457
966.642 .0226347
967.260 .0226242
967.877 .0226147
968.494 .0226059
969.110 .0225977
969.727 .0225898
970.342 .0225817
970.958 .0225735
971.573 .0225647
972.188 .0225550
972.802 .0225444
973.416 .0225327
974.030 .0225203
974.643 .0225071
975.256 .0224937
975.869 .0224800
976.481 .0224668
977.093 .0224541
977.705 .0224412
978.316 .0224285
978.927 .0224163
979.538 .0224044
980.148 .0223932
980.758 .0223826
981.367 .0223732
981.977 .0223653
982.586 .0223591
983.194 .0223548
983.802 .0223522
984.410 .0223510
985.018 .0223510
985.625 .0223519
986.232 .0223536
986.838 .0223559
987.445 .0223587
988.050 .0223620
988.656 .0223658
989.261 .0223695
989.866 .0223727
990.471 .0223753
991.075 .0223775
991.679 .0223780
992.282 .0223769
992.886 .0223748
993.489 .0223715
994.091 .0223678
994.694 .0223638
995.296 .0223597
995.897 .0223551
996.499 .0223499
997.100 .0223435
997.701 .0223358
998.301 .0223272
998.901 .0223173
999.501 .0223067
1000.101 .0222960
1000.700 .0222856
1001.299 .0222759
1001.898 .0222680
1002.496 .0222620
1003.094 .0222571
1003.692 .0222536
1004.289 .0222503
1004.887 .0222474
1005.484 .0222443
1006.080 .0222408
1006.677 .0222368
1007.273 .0222319
1007.868 .0222271
1008.464 .0222222
1009.059 .0222179
1009.654 .0222151
1010.249 .0222136
1010.843 .0222134
1011.437 .0222140
1012.031 .0222144
1012.625 .0222138
1013.218 .0222121
1013.811 .0222090
1014.404 .0222046
1014.997 .0221995
1015.589 .0221938
1016.181 .0221890
1016.773 .0221854
1017.365 .0221837
1017.956 .0221836
1018.547 .0221851
1019.138 .0221875
1019.728 .0221900
1020.319 .0221923
1020.909 .0221939
1021.499 .0221950
1022.088 .0221958
1022.678 .0221957
1023.267 .0221954
1023.856 .0221949
1024.445 .0221940
1025.033 .0221929
1025.621 .0221919
1026.209 .0221904
1026.797 .0221880
1027.385 .0221847
1027.972 .0221807
1028.560 .0221755
1029.147 .0221688
1029.734 .0221615
1030.320 .0221537
1030.907 .0221456
1031.493 .0221377
1032.079 .0221306
1032.665 .0221256
1033.250 .0221230
1033.836 .0221222
1034.421 .0221230
1035.006 .0221251
1035.591 .0221274
1036.176 .0221293
1036.761 .0221305
1037.345 .0221311
1037.929 .0221305
1038.514 .0221295
1039.097 .0221283
1039.681 .0221274
1040.265 .0221275
1040.848 .0221285
1041.432 .0221294
1042.015 .0221301
1042.598 .0221296
1043.181 .0221279
1043.764 .0221244
1044.346 .0221199
1044.929 .0221141
1045.511 .0221078
1046.094 .0221013
1046.676 .0220952
1047.258 .0220895
1047.840 .0220850
1048.422 .0220815
1049.003 .0220785
1049.585 .0220757
1050.166 .0220725
1050.748 .0220690
1051.329 .0220652
1051.910 .0220611
1052.491 .0220562
1053.072 .0220504
1053.653 .0220444
1054.234 .0220385
1054.815 .0220330
1055.396 .0220294
1055.976 .0220274
1056.557 .0220277
1057.138 .0220301
1057.718 .0220340
1058.298 .0220392
1058.879 .0220457
1059.459 .0220529
1060.039 .0220605
1060.620 .0220667
1061.200 .0220714
1061.780 .0220740
1062.360 .0220743
1062.940 .0220710
1063.520 .0220649
1064.101 .0220562
1064.681 .0220463
1065.261 .0220357
1065.841 .0220246
1066.421 .0220149
1067.001 .0220059
1067.581 .0219972
1068.161 .0219875
1068.741 .0219766
1069.321 .0219631
1069.901 .0219476
1070.482 .0219307
1071.062 .0219130
1071.642 .0218962
1072.222 .0218824
1072.803 .0218727
1073.383 .0218676
1073.963 .0218665
1074.544 .0218686
1075.124 .0218722
1075.705 .0218771
1076.286 .0218808
1076.866 .0218840
1077.447 .0218848
1078.028 .0218851
1078.609 .0218849
1079.190 .0218854
1079.771 .0218876
1080.352 .0218929
1080.934 .0219005
1081.515 .0219104
1082.097 .0219223
1082.679 .0219354
1083.260 .0219498
1083.842 .0219655
1084.424 .0219805
1085.007 .0219949
1085.589 .0220084
1086.172 .0220217
1086.754 .0220326
1087.337 .0220455
1087.920 .0220582
1088.503 .0220710
1089.087 .0220838
1089.670 .0220962
1090.254 .0221060
1090.838 .0221138
1091.422 .0221191
1092.006 .0221197
1092.590 .0221165
1093.175 .0221095
1093.760 .0220977
1094.345 .0220828
1094.930 .0220661
1095.516 .0220475
1096.102 .0220275
1096.688 .0220094
1097.274 .0219892
1097.860 .0219687
1098.447 .0219484
1099.034 .0219282
1099.622 .0219080
1100.209 .0218887
1100.797 .0218714
1101.385 .0218533
1101.973 .0218392
1102.562 .0218261
1103.151 .0218129
1103.740 .0218021
1104.330 .0217924
1104.920 .0217814
1105.510 .0217710
1106.101 .0217623
1106.691 .0217533
1107.283 .0217474
1107.874 .0217452
1108.466 .0217431
1109.058 .0217424
1109.651 .0217421
1110.244 .0217421
1110.837 .0217425
1111.431 .0217454
1112.025 .0217477
1112.620 .0217516
1113.215 .0217588
1113.810 .0217674
1114.406 .0217775
1115.002 .0217901
1115.599 .0218043
1116.196 .0218173
1116.793 .0218302
1117.391 .0218437
1117.989 .0218583
1118.588 .0218775
1119.187 .0218998
1119.787 .0219243
1120.387 .0219509
1120.988 .0219779
1121.589 .0220033
1122.190 .0220251
1122.793 .0220451
1123.395 .0220609
1123.998 .0220725
1124.602 .0220835
1125.206 .0220936
1125.811 .0221045
1126.416 .0221161
1127.022 .0221285
1127.628 .0221407
1128.235 .0221526
1128.843 .0221635
1129.451 .0221733
1130.059 .0221849
1130.669 .0221979
1131.278 .0222127
1131.889 .0222298
1132.500 .0222520
1133.112 .0222784
1133.724 .0223087
1134.337 .0223450
1134.950 .0223846
1135.564 .0224313
1136.179 .0224814
1136.795 .0225366
1137.411 .0225954
1138.028 .0226552
1138.645 .0227176
1139.263 .0227804
1139.882 .0228412
1140.502 .0229038
1141.122 .0229675
1141.743 .0230398
1142.365 .0231118
1142.987 .0230905
1143.611 .0232678
1144.235 .0233580
1144.859 .0235766
1145.485 .0234940
