Measurement Sequence started on: 10-20-44-796
Integration time: 35
Scans to Average: 2 
>>>>>Begin Spectral Data<<<<<
432.953 .0372660
433.882 .0421628
434.810 .0401518
435.737 .0399355
436.662 .0371655
437.586 .0382241
438.509 .0380470
439.431 .0378572
440.351 .0378350
441.269 .0378840
442.187 .0380275
443.103 .0381624
444.018 .0382794
444.932 .0383824
445.844 .0384722
446.756 .0385473
447.666 .0386301
448.575 .0387035
449.482 .0387571
450.388 .0388040
451.294 .0388410
452.198 .0388506
453.100 .0388338
454.002 .0387893
454.902 .0387231
455.801 .0386423
456.699 .0385557
457.596 .0384646
458.492 .0383689
459.387 .0382800
460.280 .0382041
461.172 .0381310
462.064 .0380702
462.954 .0380117
463.843 .0379572
464.730 .0379045
465.617 .0378436
466.503 .0377761
467.387 .0377078
468.271 .0376468
469.153 .0375942
470.035 .0375432
470.915 .0375041
471.794 .0374736
472.673 .0374497
473.550 .0374282
474.426 .0374050
475.301 .0373721
476.175 .0373377
477.048 .0372974
477.920 .0372549
478.791 .0372122
479.661 .0371790
480.530 .0371553
481.398 .0371373
482.266 .0371301
483.132 .0371250
483.997 .0371191
484.861 .0371169
485.724 .0371082
486.587 .0370937
487.448 .0370708
488.308 .0370442
489.168 .0370142
490.026 .0369858
490.884 .0369575
491.741 .0369266
492.597 .0368958
493.452 .0368625
494.306 .0368212
495.159 .0367682
496.011 .0367074
496.862 .0366341
497.713 .0365487
498.562 .0364517
499.411 .0363446
500.259 .0362312
501.106 .0361110
501.952 .0359883
502.798 .0358636
503.642 .0357357
504.486 .0356063
505.329 .0354693
506.171 .0353332
507.012 .0351942
507.852 .0350542
508.692 .0349141
509.531 .0347816
510.369 .0346577
511.206 .0345418
512.043 .0344380
512.878 .0343459
513.713 .0342659
514.547 .0341949
515.381 .0341283
516.213 .0340626
517.045 .0339942
517.876 .0339187
518.706 .0338318
519.536 .0337387
520.365 .0336294
521.193 .0335032
522.020 .0333635
522.847 .0332060
523.673 .0330294
524.498 .0328291
525.323 .0326046
526.146 .0323607
526.969 .0321017
527.792 .0318255
528.614 .0315417
529.435 .0312686
530.255 .0310130
531.075 .0307702
531.894 .0305536
532.712 .0303641
533.530 .0302046
534.347 .0300746
535.163 .0299684
535.979 .0298869
536.794 .0298354
537.608 .0298036
538.422 .0297860
539.235 .0297866
540.048 .0298058
540.860 .0298267
541.671 .0298539
542.481 .0298817
543.292 .0299045
544.101 .0299193
544.910 .0299333
545.718 .0299410
546.526 .0299461
547.333 .0299524
548.139 .0299582
548.945 .0299697
549.750 .0299923
550.555 .0300193
551.359 .0300517
552.162 .0300931
552.965 .0301394
553.768 .0301831
554.569 .0302364
555.371 .0302948
556.171 .0303603
556.972 .0304317
557.771 .0305081
558.570 .0305851
559.369 .0306641
560.167 .0307433
560.964 .0308183
561.761 .0308892
562.558 .0309601
563.354 .0310229
564.149 .0310836
564.944 .0311413
565.738 .0311971
566.532 .0312505
567.325 .0313013
568.118 .0313448
568.910 .0313833
569.702 .0314169
570.494 .0314492
571.285 .0314791
572.075 .0315115
572.865 .0315433
573.654 .0315777
574.443 .0316114
575.232 .0316458
576.020 .0316809
576.807 .0317182
577.594 .0317553
578.381 .0317957
579.167 .0318390
579.952 .0318867
580.738 .0319388
581.522 .0319969
582.307 .0320537
583.091 .0321118
583.874 .0321672
584.657 .0322181
585.440 .0322653
586.222 .0323090
587.004 .0323467
587.785 .0323795
588.566 .0324074
589.346 .0324291
590.126 .0324436
590.906 .0324527
591.685 .0324568
592.464 .0324564
593.242 .0324525
594.020 .0324467
594.797 .0324401
595.575 .0324342
596.351 .0324287
597.128 .0324234
597.904 .0324181
598.679 .0324116
599.454 .0324036
600.229 .0323930
601.004 .0323808
601.778 .0323658
602.551 .0323474
603.325 .0323271
604.097 .0323047
604.870 .0322797
605.642 .0322526
606.414 .0322239
607.185 .0321923
607.956 .0321579
608.727 .0321220
609.497 .0320845
610.267 .0320459
611.037 .0320076
611.806 .0319699
612.575 .0319338
613.344 .0318995
614.112 .0318663
614.880 .0318340
615.647 .0318028
616.414 .0317716
617.181 .0317406
617.948 .0317100
618.714 .0316804
619.480 .0316519
620.245 .0316253
621.011 .0316011
621.775 .0315782
622.540 .0315573
623.304 .0315379
624.068 .0315189
624.832 .0315004
625.595 .0314812
626.358 .0314628
627.120 .0314453
627.883 .0314287
628.645 .0314139
629.406 .0314006
630.168 .0313893
630.929 .0313792
631.689 .0313699
632.450 .0313607
633.210 .0313513
633.970 .0313411
634.729 .0313297
635.489 .0313155
636.248 .0312987
637.006 .0312802
637.765 .0312595
638.523 .0312380
639.280 .0312152
640.038 .0311931
640.795 .0311726
641.552 .0311542
642.309 .0311387
643.065 .0311253
643.821 .0311146
644.577 .0311050
645.332 .0310954
646.088 .0310859
646.843 .0310750
647.597 .0310633
648.352 .0310506
649.106 .0310377
649.860 .0310239
650.613 .0310099
651.367 .0309962
652.120 .0309832
652.872 .0309694
653.625 .0309553
654.377 .0309399
655.129 .0309235
655.881 .0309056
656.632 .0308862
657.384 .0308660
658.135 .0308454
658.885 .0308243
659.636 .0308029
660.386 .0307813
661.136 .0307608
661.885 .0307407
662.635 .0307219
663.384 .0307039
664.133 .0306859
664.881 .0306675
665.630 .0306477
666.378 .0306259
667.126 .0306024
667.874 .0305766
668.621 .0305489
669.368 .0305197
670.115 .0304903
670.862 .0304612
671.608 .0304337
672.354 .0304084
673.100 .0303851
673.846 .0303634
674.591 .0303428
675.337 .0303225
676.082 .0303024
676.826 .0302816
677.571 .0302602
678.315 .0302383
679.059 .0302165
679.803 .0301944
680.547 .0301726
681.290 .0301514
682.033 .0301301
682.776 .0301082
683.518 .0300850
684.261 .0300597
685.003 .0300321
685.745 .0300026
686.487 .0299712
687.228 .0299387
687.969 .0299052
688.710 .0298717
689.451 .0298381
690.192 .0298050
690.932 .0297721
691.672 .0297394
692.412 .0297074
693.152 .0296759
693.891 .0296449
694.630 .0296151
695.369 .0295861
696.108 .0295584
696.846 .0295318
697.585 .0295058
698.323 .0294806
699.061 .0294557
699.798 .0294307
700.536 .0294065
701.273 .0293830
702.010 .0293607
702.746 .0293403
703.483 .0293222
704.219 .0293061
704.955 .0292916
705.691 .0292781
706.427 .0292647
707.162 .0292509
707.897 .0292364
708.632 .0292205
709.367 .0292035
710.101 .0291864
710.835 .0291683
711.569 .0291504
712.303 .0291329
713.037 .0291155
713.770 .0290978
714.503 .0290801
715.236 .0290622
715.969 .0290441
716.702 .0290263
717.434 .0290091
718.166 .0289922
718.898 .0289767
719.629 .0289621
720.361 .0289484
721.092 .0289364
721.823 .0289253
722.554 .0289152
723.284 .0289069
724.014 .0289001
724.744 .0288946
725.474 .0288902
726.204 .0288866
726.933 .0288832
727.662 .0288793
728.391 .0288746
729.120 .0288684
729.849 .0288618
730.577 .0288548
731.305 .0288471
732.033 .0288397
732.760 .0288326
733.488 .0288253
734.215 .0288176
734.942 .0288090
735.669 .0287991
736.395 .0287883
737.122 .0287772
737.848 .0287657
738.573 .0287542
739.299 .0287439
740.024 .0287341
740.750 .0287249
741.474 .0287163
742.199 .0287071
742.924 .0286972
743.648 .0286870
744.372 .0286760
745.096 .0286649
745.819 .0286547
746.543 .0286459
747.266 .0286378
747.989 .0286311
748.711 .0286247
749.434 .0286176
750.156 .0286105
750.878 .0286030
751.599 .0285949
752.321 .0285869
753.042 .0285794
753.763 .0285730
754.484 .0285675
755.205 .0285630
755.925 .0285591
756.645 .0285549
757.365 .0285499
758.085 .0285436
758.804 .0285356
759.523 .0285263
760.242 .0285155
760.961 .0285027
761.679 .0284880
762.397 .0284710
763.115 .0284515
763.833 .0284292
764.551 .0284050
765.268 .0283785
765.985 .0283501
766.702 .0283205
767.418 .0282903
768.134 .0282591
768.850 .0282285
769.566 .0281982
770.282 .0281683
770.997 .0281391
771.712 .0281112
772.427 .0280840
773.142 .0280586
773.856 .0280350
774.570 .0280128
775.284 .0279915
775.998 .0279713
776.711 .0279510
777.424 .0279308
778.137 .0279109
778.849 .0278908
779.562 .0278704
780.274 .0278505
780.986 .0278305
781.697 .0278108
782.409 .0277917
783.120 .0277733
783.831 .0277551
784.541 .0277374
785.252 .0277197
785.962 .0277021
786.671 .0276846
787.381 .0276675
788.090 .0276509
788.799 .0276348
789.508 .0276191
790.217 .0276039
790.925 .0275890
791.633 .0275745
792.341 .0275593
793.048 .0275438
793.755 .0275275
794.462 .0275097
795.169 .0274902
795.875 .0274695
796.581 .0274475
797.287 .0274250
797.993 .0274024
798.698 .0273806
799.403 .0273596
800.108 .0273395
800.812 .0273205
801.517 .0273026
802.221 .0272855
802.924 .0272691
803.628 .0272532
804.331 .0272391
805.034 .0272261
805.736 .0272143
806.439 .0272040
807.141 .0271956
807.843 .0271881
808.544 .0271810
809.245 .0271734
809.946 .0271651
810.647 .0271560
811.347 .0271460
812.047 .0271354
812.747 .0271248
813.447 .0271142
814.146 .0271033
814.845 .0270924
815.543 .0270818
816.242 .0270705
816.940 .0270593
817.638 .0270478
818.335 .0270362
819.032 .0270247
819.729 .0270139
820.426 .0270042
821.122 .0269959
821.818 .0269887
822.514 .0269818
823.209 .0269750
823.905 .0269678
824.599 .0269595
825.294 .0269503
825.988 .0269404
826.682 .0269306
827.376 .0269207
828.069 .0269114
828.762 .0269025
829.455 .0268939
830.147 .0268856
830.840 .0268769
831.531 .0268678
832.223 .0268588
832.914 .0268496
833.605 .0268407
834.296 .0268325
834.986 .0268258
835.676 .0268203
836.366 .0268163
837.055 .0268135
837.744 .0268113
838.433 .0268091
839.121 .0268072
839.809 .0268045
840.497 .0268017
841.185 .0267987
841.872 .0267953
842.559 .0267922
843.245 .0267892
843.932 .0267862
844.617 .0267830
845.303 .0267800
845.988 .0267768
846.673 .0267729
847.358 .0267689
848.042 .0267648
848.726 .0267605
849.410 .0267563
850.093 .0267520
850.776 .0267475
851.459 .0267428
852.141 .0267375
852.823 .0267317
853.505 .0267259
854.186 .0267198
854.867 .0267146
855.548 .0267095
856.228 .0267056
856.908 .0267027
857.588 .0267002
858.267 .0266985
858.946 .0266973
859.625 .0266961
860.303 .0266944
860.981 .0266921
861.659 .0266889
862.336 .0266843
863.013 .0266789
863.690 .0266723
864.366 .0266646
865.042 .0266568
865.718 .0266487
866.393 .0266400
867.068 .0266311
867.743 .0266217
868.417 .0266116
869.091 .0266010
869.765 .0265892
870.438 .0265763
871.111 .0265626
871.783 .0265488
872.456 .0265346
873.127 .0265209
873.799 .0265087
874.470 .0264976
875.141 .0264882
875.811 .0264801
876.481 .0264727
877.151 .0264662
877.820 .0264599
878.489 .0264534
879.158 .0264466
879.826 .0264396
880.494 .0264322
881.162 .0264245
881.829 .0264164
882.496 .0264076
883.163 .0263982
883.829 .0263886
884.495 .0263782
885.160 .0263676
885.825 .0263569
886.490 .0263463
887.154 .0263359
887.818 .0263255
888.482 .0263146
889.145 .0263033
889.808 .0262915
890.471 .0262788
891.133 .0262656
891.795 .0262529
892.456 .0262409
893.117 .0262305
893.778 .0262213
894.439 .0262131
895.099 .0262055
895.758 .0261982
896.417 .0261904
897.076 .0261818
897.735 .0261724
898.393 .0261624
899.051 .0261519
899.708 .0261416
900.365 .0261311
901.022 .0261209
901.678 .0261110
902.334 .0261005
902.990 .0260887
903.645 .0260755
904.300 .0260604
904.954 .0260442
905.608 .0260270
906.262 .0260096
906.915 .0259923
907.568 .0259754
908.221 .0259596
908.873 .0259441
909.525 .0259291
910.176 .0259144
910.828 .0258991
911.478 .0258840
912.129 .0258683
912.778 .0258526
913.428 .0258373
914.077 .0258223
914.726 .0258079
915.375 .0257936
916.023 .0257796
916.670 .0257657
917.318 .0257513
917.964 .0257365
918.611 .0257206
919.257 .0257037
919.903 .0256861
920.548 .0256675
921.193 .0256481
921.838 .0256284
922.482 .0256081
923.126 .0255880
923.770 .0255676
924.413 .0255476
925.056 .0255279
925.698 .0255087
926.340 .0254900
926.982 .0254717
927.623 .0254542
928.264 .0254374
928.904 .0254212
929.544 .0254056
930.184 .0253902
930.823 .0253751
931.462 .0253600
932.101 .0253448
932.739 .0253293
933.377 .0253132
934.014 .0252964
934.651 .0252789
935.288 .0252603
935.924 .0252413
936.560 .0252219
937.196 .0252021
937.831 .0251817
938.466 .0251606
939.100 .0251385
939.734 .0251155
940.368 .0250914
941.001 .0250664
941.634 .0250409
942.266 .0250156
942.899 .0249906
943.530 .0249661
944.162 .0249426
944.793 .0249198
945.423 .0248974
946.053 .0248750
946.683 .0248526
947.313 .0248301
947.942 .0248074
948.571 .0247843
949.199 .0247612
949.827 .0247384
950.455 .0247161
951.082 .0246947
951.709 .0246738
952.335 .0246529
952.961 .0246325
953.587 .0246122
954.212 .0245920
954.837 .0245725
955.462 .0245537
956.086 .0245361
956.710 .0245201
957.334 .0245053
957.957 .0244914
958.579 .0244788
959.202 .0244669
959.824 .0244547
960.445 .0244420
961.067 .0244289
961.688 .0244153
962.308 .0244017
962.928 .0243881
963.548 .0243736
964.168 .0243588
964.787 .0243432
965.406 .0243268
966.024 .0243097
966.642 .0242922
967.260 .0242746
967.877 .0242573
968.494 .0242402
969.110 .0242236
969.727 .0242074
970.342 .0241929
970.958 .0241799
971.573 .0241683
972.188 .0241580
972.802 .0241499
973.416 .0241436
974.030 .0241391
974.643 .0241358
975.256 .0241339
975.869 .0241327
976.481 .0241320
977.093 .0241309
977.705 .0241297
978.316 .0241285
978.927 .0241268
979.538 .0241245
980.148 .0241216
980.758 .0241180
981.367 .0241135
981.977 .0241081
982.586 .0241023
983.194 .0240963
983.802 .0240908
984.410 .0240857
985.018 .0240820
985.625 .0240801
986.232 .0240798
986.838 .0240816
987.445 .0240849
988.050 .0240889
988.656 .0240934
989.261 .0240980
989.866 .0241018
990.471 .0241050
991.075 .0241075
991.679 .0241092
992.282 .0241108
992.886 .0241121
993.489 .0241131
994.091 .0241141
994.694 .0241151
995.296 .0241155
995.897 .0241152
996.499 .0241148
997.100 .0241132
997.701 .0241113
998.301 .0241099
998.901 .0241092
999.501 .0241101
1000.101 .0241134
1000.700 .0241192
1001.299 .0241276
1001.898 .0241379
1002.496 .0241494
1003.094 .0241620
1003.692 .0241745
1004.289 .0241867
1004.887 .0241978
1005.484 .0242088
1006.080 .0242190
1006.677 .0242278
1007.273 .0242359
1007.868 .0242431
1008.464 .0242499
1009.059 .0242557
1009.654 .0242607
1010.249 .0242660
1010.843 .0242708
1011.437 .0242758
1012.031 .0242807
1012.625 .0242867
1013.218 .0242931
1013.811 .0242996
1014.404 .0243069
1014.997 .0243153
1015.589 .0243242
1016.181 .0243343
1016.773 .0243455
1017.365 .0243577
1017.956 .0243698
1018.547 .0243808
1019.138 .0243903
1019.728 .0243986
1020.319 .0244048
1020.909 .0244094
1021.499 .0244124
1022.088 .0244156
1022.678 .0244178
1023.267 .0244194
1023.856 .0244206
1024.445 .0244215
1025.033 .0244213
1025.621 .0244198
1026.209 .0244163
1026.797 .0244120
1027.385 .0244061
1027.972 .0244009
1028.560 .0243967
1029.147 .0243951
1029.734 .0243961
1030.320 .0243998
1030.907 .0244057
1031.493 .0244138
1032.079 .0244225
1032.665 .0244316
1033.250 .0244402
1033.836 .0244487
1034.421 .0244559
1035.006 .0244633
1035.591 .0244711
1036.176 .0244791
1036.761 .0244872
1037.345 .0244957
1037.929 .0245023
1038.514 .0245075
1039.097 .0245110
1039.681 .0245128
1040.265 .0245134
1040.848 .0245134
1041.432 .0245131
1042.015 .0245124
1042.598 .0245121
1043.181 .0245116
1043.764 .0245107
1044.346 .0245095
1044.929 .0245070
1045.511 .0245034
1046.094 .0244997
1046.676 .0244959
1047.258 .0244925
1047.840 .0244912
1048.422 .0244916
1049.003 .0244933
1049.585 .0244955
1050.166 .0244977
1050.748 .0245000
1051.329 .0245018
1051.910 .0245028
1052.491 .0245041
1053.072 .0245059
1053.653 .0245084
1054.234 .0245113
1054.815 .0245158
1055.396 .0245207
1055.976 .0245264
1056.557 .0245319
1057.138 .0245378
1057.718 .0245435
1058.298 .0245496
1058.879 .0245552
1059.459 .0245602
1060.039 .0245641
1060.620 .0245652
1061.200 .0245635
1061.780 .0245603
1062.360 .0245535
1062.940 .0245463
1063.520 .0245391
1064.101 .0245333
1064.681 .0245281
1065.261 .0245241
1065.841 .0245206
1066.421 .0245167
1067.001 .0245117
1067.581 .0245050
1068.161 .0244952
1068.741 .0244845
1069.321 .0244728
1069.901 .0244605
1070.482 .0244493
1071.062 .0244395
1071.642 .0244300
1072.222 .0244225
1072.803 .0244146
1073.383 .0244062
1073.963 .0243968
1074.544 .0243869
1075.124 .0243771
1075.705 .0243664
1076.286 .0243563
1076.866 .0243467
1077.447 .0243373
1078.028 .0243296
1078.609 .0243224
1079.190 .0243169
1079.771 .0243142
1080.352 .0243129
1080.934 .0243133
1081.515 .0243152
1082.097 .0243177
1082.679 .0243199
1083.260 .0243212
1083.842 .0243216
1084.424 .0243199
1085.007 .0243160
1085.589 .0243114
1086.172 .0243058
1086.754 .0242998
1087.337 .0242943
1087.920 .0242884
1088.503 .0242815
1089.087 .0242738
1089.670 .0242630
1090.254 .0242513
1090.838 .0242374
1091.422 .0242225
1092.006 .0242059
1092.590 .0241897
1093.175 .0241756
1093.760 .0241621
1094.345 .0241514
1094.930 .0241453
1095.516 .0241425
1096.102 .0241434
1096.688 .0241465
1097.274 .0241511
1097.860 .0241551
1098.447 .0241586
1099.034 .0241589
1099.622 .0241566
1100.209 .0241517
1100.797 .0241459
1101.385 .0241388
1101.973 .0241320
1102.562 .0241262
1103.151 .0241191
1103.740 .0241125
1104.330 .0241030
1104.920 .0240892
1105.510 .0240703
1106.101 .0240482
1106.691 .0240232
1107.283 .0239978
1107.874 .0239762
1108.466 .0239613
1109.058 .0239547
1109.651 .0239596
1110.244 .0239739
1110.837 .0239958
1111.431 .0240228
1112.025 .0240512
1112.620 .0240775
1113.215 .0241027
1113.810 .0241248
1114.406 .0241465
1115.002 .0241681
1115.599 .0241919
1116.196 .0242149
1116.793 .0242374
1117.391 .0242580
1117.989 .0242731
1118.588 .0242818
1119.187 .0242843
1119.787 .0242799
1120.387 .0242688
1120.988 .0242514
1121.589 .0242308
1122.190 .0242083
1122.793 .0241859
1123.395 .0241627
1123.998 .0241421
1124.602 .0241263
1125.206 .0241155
1125.811 .0241088
1126.416 .0241067
1127.022 .0241121
1127.628 .0241219
1128.235 .0241331
1128.843 .0241447
1129.451 .0241563
1130.059 .0241700
1130.669 .0241865
1131.278 .0242063
1131.889 .0242306
1132.500 .0242575
1133.112 .0242855
1133.724 .0243105
1134.337 .0243302
1134.950 .0243408
1135.564 .0243408
1136.179 .0243334
1136.795 .0243223
1137.411 .0243111
1138.028 .0243050
1138.645 .0243089
1139.263 .0243167
1139.882 .0243227
1140.502 .0243322
1141.122 .0243496
1141.743 .0243800
1142.365 .0244359
1142.987 .0241535
1143.611 .0243956
1144.235 .0246839
1144.859 .0249219
1145.485 .0253190
