Measurement Sequence started on: 10-20-44-796
Integration time: 35
Scans to Average: 2 
>>>>>Begin Spectral Data<<<<<
432.953 .0554381
433.882 .0463698
434.810 .0458345
435.737 .0451786
436.662 .0440434
437.586 .0437840
438.509 .0428860
439.431 .0423623
440.351 .0419224
441.269 .0415664
442.187 .0412911
443.103 .0410927
444.018 .0409073
444.932 .0407621
445.844 .0406401
446.756 .0405313
447.666 .0404323
448.575 .0403327
449.482 .0402571
450.388 .0401959
451.294 .0401560
452.198 .0401301
453.100 .0401183
454.002 .0401196
454.902 .0401287
455.801 .0401410
456.699 .0401580
457.596 .0401842
458.492 .0402057
459.387 .0402263
460.280 .0402477
461.172 .0402618
462.064 .0402729
462.954 .0402728
463.843 .0402592
464.730 .0402359
465.617 .0402041
466.503 .0401634
467.387 .0401191
468.271 .0400743
469.153 .0400306
470.035 .0399854
470.915 .0399424
471.794 .0398960
472.673 .0398445
473.550 .0397955
474.426 .0397436
475.301 .0396905
476.175 .0396449
477.048 .0395980
477.920 .0395542
478.791 .0395154
479.661 .0394753
480.530 .0394317
481.398 .0393869
482.266 .0393390
483.132 .0392872
483.997 .0392341
484.861 .0391812
485.724 .0391260
486.587 .0390743
487.448 .0390240
488.308 .0389685
489.168 .0389123
490.026 .0388516
490.884 .0387815
491.741 .0387067
492.597 .0386299
493.452 .0385504
494.306 .0384741
495.159 .0384038
496.011 .0383396
496.862 .0382796
497.713 .0382230
498.562 .0381653
499.411 .0381052
500.259 .0380407
501.106 .0379678
501.952 .0378869
502.798 .0378047
503.642 .0377211
504.486 .0376396
505.329 .0375625
506.171 .0374873
507.012 .0374112
507.852 .0373301
508.692 .0372403
509.531 .0371409
510.369 .0370284
511.206 .0369056
512.043 .0367711
512.878 .0366288
513.713 .0364767
514.547 .0363177
515.381 .0361543
516.213 .0359902
517.045 .0358253
517.876 .0356568
518.706 .0354889
519.536 .0353275
520.365 .0351747
521.193 .0350305
522.020 .0348949
522.847 .0347670
523.673 .0346421
524.498 .0345169
525.323 .0343873
526.146 .0342601
526.969 .0341325
527.792 .0340105
528.614 .0338963
529.435 .0337938
530.255 .0336959
531.075 .0335921
531.894 .0334824
532.712 .0333599
533.530 .0332122
534.347 .0330423
535.163 .0328537
535.979 .0326617
536.794 .0324729
537.608 .0322923
538.422 .0321316
539.235 .0319962
540.048 .0318749
540.860 .0317620
541.671 .0316527
542.481 .0315548
543.292 .0314607
544.101 .0313760
544.910 .0313126
545.718 .0312740
546.526 .0312651
547.333 .0312846
548.139 .0313310
548.945 .0314036
549.750 .0314863
550.555 .0315757
551.359 .0316654
552.162 .0317521
552.965 .0318340
553.768 .0319115
554.569 .0319876
555.371 .0320652
556.171 .0321395
556.972 .0322113
557.771 .0322760
558.570 .0323311
559.369 .0323752
560.167 .0324077
560.964 .0324338
561.761 .0324536
562.558 .0324682
563.354 .0324893
564.149 .0325173
564.944 .0325530
565.738 .0325994
566.532 .0326541
567.325 .0327151
568.118 .0327795
568.910 .0328488
569.702 .0329199
570.494 .0329965
571.285 .0330789
572.075 .0331674
572.865 .0332625
573.654 .0333626
574.443 .0334618
575.232 .0335594
576.020 .0336530
576.807 .0337363
577.594 .0338070
578.381 .0338698
579.167 .0339225
579.952 .0339685
580.738 .0340087
581.522 .0340461
582.307 .0340787
583.091 .0341079
583.874 .0341335
584.657 .0341534
585.440 .0341692
586.222 .0341790
587.004 .0341823
587.785 .0341826
588.566 .0341792
589.346 .0341706
590.126 .0341587
590.906 .0341434
591.685 .0341232
592.464 .0340983
593.242 .0340700
594.020 .0340396
594.797 .0340081
595.575 .0339753
596.351 .0339406
597.128 .0339048
597.904 .0338692
598.679 .0338325
599.454 .0337949
600.229 .0337572
601.004 .0337195
601.778 .0336822
602.551 .0336463
603.325 .0336120
604.097 .0335791
604.870 .0335477
605.642 .0335177
606.414 .0334889
607.185 .0334605
607.956 .0334329
608.727 .0334069
609.497 .0333825
610.267 .0333586
611.037 .0333351
611.806 .0333119
612.575 .0332888
613.344 .0332656
614.112 .0332416
614.880 .0332171
615.647 .0331925
616.414 .0331683
617.181 .0331452
617.948 .0331239
618.714 .0331045
619.480 .0330865
620.245 .0330698
621.011 .0330537
621.775 .0330367
622.540 .0330190
623.304 .0330013
624.068 .0329828
624.832 .0329638
625.595 .0329454
626.358 .0329280
627.120 .0329123
627.883 .0328972
628.645 .0328826
629.406 .0328680
630.168 .0328529
630.929 .0328360
631.689 .0328173
632.450 .0327978
633.210 .0327769
633.970 .0327545
634.729 .0327312
635.489 .0327079
636.248 .0326840
637.006 .0326603
637.765 .0326366
638.523 .0326129
639.280 .0325899
640.038 .0325669
640.795 .0325442
641.552 .0325217
642.309 .0324994
643.065 .0324770
643.821 .0324548
644.577 .0324328
645.332 .0324103
646.088 .0323885
646.843 .0323670
647.597 .0323465
648.352 .0323263
649.106 .0323064
649.860 .0322863
650.613 .0322658
651.367 .0322443
652.120 .0322210
652.872 .0321965
653.625 .0321712
654.377 .0321455
655.129 .0321201
655.881 .0320948
656.632 .0320700
657.384 .0320460
658.135 .0320218
658.885 .0319966
659.636 .0319707
660.386 .0319439
661.136 .0319157
661.885 .0318870
662.635 .0318586
663.384 .0318306
664.133 .0318039
664.881 .0317781
665.630 .0317526
666.378 .0317275
667.126 .0317016
667.874 .0316741
668.621 .0316452
669.368 .0316153
670.115 .0315836
670.862 .0315514
671.608 .0315201
672.354 .0314899
673.100 .0314613
673.846 .0314345
674.591 .0314089
675.337 .0313846
676.082 .0313606
676.826 .0313362
677.571 .0313110
678.315 .0312855
679.059 .0312595
679.803 .0312335
680.547 .0312081
681.290 .0311836
682.033 .0311591
682.776 .0311351
683.518 .0311106
684.261 .0310849
685.003 .0310577
685.745 .0310287
686.487 .0309984
687.228 .0309673
687.969 .0309354
688.710 .0309035
689.451 .0308716
690.192 .0308405
690.932 .0308099
691.672 .0307797
692.412 .0307498
693.152 .0307204
693.891 .0306912
694.630 .0306626
695.369 .0306349
696.108 .0306086
696.846 .0305835
697.585 .0305602
698.323 .0305387
699.061 .0305186
699.798 .0305000
700.536 .0304829
701.273 .0304666
702.010 .0304513
702.746 .0304364
703.483 .0304216
704.219 .0304072
704.955 .0303932
705.691 .0303793
706.427 .0303658
707.162 .0303528
707.897 .0303405
708.632 .0303290
709.367 .0303177
710.101 .0303068
710.835 .0302964
711.569 .0302869
712.303 .0302778
713.037 .0302690
713.770 .0302611
714.503 .0302537
715.236 .0302470
715.969 .0302406
716.702 .0302338
717.434 .0302276
718.166 .0302207
718.898 .0302128
719.629 .0302038
720.361 .0301947
721.092 .0301845
721.823 .0301737
722.554 .0301621
723.284 .0301494
724.014 .0301349
724.744 .0301189
725.474 .0301006
726.204 .0300807
726.933 .0300601
727.662 .0300388
728.391 .0300176
729.120 .0299979
729.849 .0299791
730.577 .0299622
731.305 .0299469
732.033 .0299332
732.760 .0299191
733.488 .0299046
734.215 .0298896
734.942 .0298737
735.669 .0298571
736.395 .0298403
737.122 .0298235
737.848 .0298073
738.573 .0297914
739.299 .0297751
740.024 .0297587
740.750 .0297424
741.474 .0297253
742.199 .0297068
742.924 .0296872
743.648 .0296666
744.372 .0296456
745.096 .0296254
745.819 .0296061
746.543 .0295877
747.266 .0295707
747.989 .0295551
748.711 .0295405
749.434 .0295266
750.156 .0295138
750.878 .0295015
751.599 .0294904
752.321 .0294797
753.042 .0294689
753.763 .0294587
754.484 .0294491
755.205 .0294393
755.925 .0294290
756.645 .0294177
757.365 .0294051
758.085 .0293909
758.804 .0293755
759.523 .0293586
760.242 .0293402
760.961 .0293204
761.679 .0292993
762.397 .0292764
763.115 .0292520
763.833 .0292258
764.551 .0291985
765.268 .0291701
765.985 .0291400
766.702 .0291091
767.418 .0290777
768.134 .0290469
768.850 .0290167
769.566 .0289869
770.282 .0289582
770.997 .0289301
771.712 .0289025
772.427 .0288751
773.142 .0288480
773.856 .0288212
774.570 .0287946
775.284 .0287685
775.998 .0287427
776.711 .0287176
777.424 .0286933
778.137 .0286696
778.849 .0286461
779.562 .0286229
780.274 .0285997
780.986 .0285766
781.697 .0285545
782.409 .0285334
783.120 .0285140
783.831 .0284967
784.541 .0284815
785.252 .0284686
785.962 .0284571
786.671 .0284468
787.381 .0284367
788.090 .0284268
788.799 .0284164
789.508 .0284052
790.217 .0283936
790.925 .0283821
791.633 .0283703
792.341 .0283583
793.048 .0283463
793.755 .0283335
794.462 .0283197
795.169 .0283047
795.875 .0282886
796.581 .0282717
797.287 .0282543
797.993 .0282371
798.698 .0282206
799.403 .0282055
800.108 .0281915
800.812 .0281791
801.517 .0281686
802.221 .0281594
802.924 .0281513
803.628 .0281445
804.331 .0281390
805.034 .0281345
805.736 .0281304
806.439 .0281271
807.141 .0281235
807.843 .0281196
808.544 .0281145
809.245 .0281078
809.946 .0280996
810.647 .0280902
811.347 .0280798
812.047 .0280690
812.747 .0280587
813.447 .0280489
814.146 .0280401
814.845 .0280330
815.543 .0280270
816.242 .0280217
816.940 .0280171
817.638 .0280130
818.335 .0280089
819.032 .0280052
819.729 .0280017
820.426 .0279987
821.122 .0279968
821.818 .0279949
822.514 .0279930
823.209 .0279908
823.905 .0279883
824.599 .0279845
825.294 .0279796
825.988 .0279734
826.682 .0279658
827.376 .0279577
828.069 .0279495
828.762 .0279410
829.455 .0279327
830.147 .0279250
830.840 .0279179
831.531 .0279111
832.223 .0279054
832.914 .0279001
833.605 .0278959
834.296 .0278926
834.986 .0278901
835.676 .0278881
836.366 .0278866
837.055 .0278856
837.744 .0278845
838.433 .0278830
839.121 .0278810
839.809 .0278776
840.497 .0278738
841.185 .0278693
841.872 .0278637
842.559 .0278574
843.245 .0278509
843.932 .0278440
844.617 .0278368
845.303 .0278299
845.988 .0278234
846.673 .0278174
847.358 .0278123
848.042 .0278081
848.726 .0278041
849.410 .0278007
850.093 .0277976
850.776 .0277945
851.459 .0277917
852.141 .0277884
852.823 .0277851
853.505 .0277818
854.186 .0277786
854.867 .0277747
855.548 .0277700
856.228 .0277651
856.908 .0277593
857.588 .0277524
858.267 .0277447
858.946 .0277360
859.625 .0277266
860.303 .0277168
860.981 .0277066
861.659 .0276956
862.336 .0276839
863.013 .0276715
863.690 .0276581
864.366 .0276435
865.042 .0276281
865.718 .0276119
866.393 .0275955
867.068 .0275790
867.743 .0275620
868.417 .0275454
869.091 .0275291
869.765 .0275129
870.438 .0274964
871.111 .0274795
871.783 .0274623
872.456 .0274448
873.127 .0274276
873.799 .0274105
874.470 .0273939
875.141 .0273780
875.811 .0273629
876.481 .0273484
877.151 .0273349
877.820 .0273218
878.489 .0273097
879.158 .0272981
879.826 .0272863
880.494 .0272742
881.162 .0272620
881.829 .0272491
882.496 .0272353
883.163 .0272207
883.829 .0272060
884.495 .0271906
885.160 .0271755
885.825 .0271605
886.490 .0271467
887.154 .0271338
887.818 .0271218
888.482 .0271105
889.145 .0270999
889.808 .0270898
890.471 .0270797
891.133 .0270693
891.795 .0270591
892.456 .0270484
893.117 .0270381
893.778 .0270280
894.439 .0270187
895.099 .0270096
895.758 .0270013
896.417 .0269931
897.076 .0269848
897.735 .0269756
898.393 .0269660
899.051 .0269556
899.708 .0269446
900.365 .0269326
901.022 .0269196
901.678 .0269061
902.334 .0268925
902.990 .0268777
903.645 .0268620
904.300 .0268457
904.954 .0268287
905.608 .0268102
906.262 .0267907
906.915 .0267704
907.568 .0267489
908.221 .0267267
908.873 .0267038
909.525 .0266797
910.176 .0266551
910.828 .0266303
911.478 .0266056
912.129 .0265810
912.778 .0265570
913.428 .0265333
914.077 .0265104
914.726 .0264885
915.375 .0264668
916.023 .0264453
916.670 .0264244
917.318 .0264034
917.964 .0263820
918.611 .0263609
919.257 .0263403
919.903 .0263200
920.548 .0263005
921.193 .0262814
921.838 .0262627
922.482 .0262444
923.126 .0262263
923.770 .0262085
924.413 .0261910
925.056 .0261736
925.698 .0261564
926.340 .0261399
926.982 .0261241
927.623 .0261083
928.264 .0260926
928.904 .0260774
929.544 .0260622
930.184 .0260469
930.823 .0260315
931.462 .0260163
932.101 .0260011
932.739 .0259856
933.377 .0259694
934.014 .0259526
934.651 .0259356
935.288 .0259180
935.924 .0258997
936.560 .0258812
937.196 .0258627
937.831 .0258438
938.466 .0258253
939.100 .0258072
939.734 .0257888
940.368 .0257704
941.001 .0257519
941.634 .0257334
942.266 .0257150
942.899 .0256968
943.530 .0256786
944.162 .0256608
944.793 .0256427
945.423 .0256234
946.053 .0256033
946.683 .0255828
947.313 .0255610
947.942 .0255381
948.571 .0255145
949.199 .0254910
949.827 .0254676
950.455 .0254455
951.082 .0254243
951.709 .0254050
952.335 .0253872
952.961 .0253708
953.587 .0253556
954.212 .0253415
954.837 .0253281
955.462 .0253158
956.086 .0253042
956.710 .0252940
957.334 .0252850
957.957 .0252777
958.579 .0252720
959.202 .0252671
959.824 .0252626
960.445 .0252580
961.067 .0252527
961.688 .0252463
962.308 .0252381
962.928 .0252285
963.548 .0252170
964.168 .0252041
964.787 .0251903
965.406 .0251758
966.024 .0251615
966.642 .0251474
967.260 .0251337
967.877 .0251206
968.494 .0251081
969.110 .0250963
969.727 .0250855
970.342 .0250750
970.958 .0250655
971.573 .0250570
972.188 .0250495
972.802 .0250438
973.416 .0250397
974.030 .0250372
974.643 .0250361
975.256 .0250361
975.869 .0250367
976.481 .0250380
977.093 .0250399
977.705 .0250421
978.316 .0250447
978.927 .0250480
979.538 .0250516
980.148 .0250556
980.758 .0250606
981.367 .0250661
981.977 .0250716
982.586 .0250779
983.194 .0250843
983.802 .0250909
984.410 .0250972
985.018 .0251032
985.625 .0251091
986.232 .0251148
986.838 .0251199
987.445 .0251244
988.050 .0251287
988.656 .0251322
989.261 .0251343
989.866 .0251348
990.471 .0251346
991.075 .0251332
991.679 .0251308
992.282 .0251278
992.886 .0251244
993.489 .0251217
994.091 .0251188
994.694 .0251166
995.296 .0251150
995.897 .0251138
996.499 .0251126
997.100 .0251109
997.701 .0251101
998.301 .0251101
998.901 .0251110
999.501 .0251134
1000.101 .0251179
1000.700 .0251242
1001.299 .0251317
1001.898 .0251407
1002.496 .0251504
1003.094 .0251601
1003.692 .0251687
1004.289 .0251763
1004.887 .0251834
1005.484 .0251905
1006.080 .0251978
1006.677 .0252057
1007.273 .0252152
1007.868 .0252251
1008.464 .0252352
1009.059 .0252449
1009.654 .0252538
1010.249 .0252618
1010.843 .0252678
1011.437 .0252724
1012.031 .0252757
1012.625 .0252782
1013.218 .0252805
1013.811 .0252832
1014.404 .0252866
1014.997 .0252908
1015.589 .0252962
1016.181 .0253023
1016.773 .0253094
1017.365 .0253166
1017.956 .0253230
1018.547 .0253286
1019.138 .0253335
1019.728 .0253377
1020.319 .0253413
1020.909 .0253461
1021.499 .0253522
1022.088 .0253598
1022.678 .0253691
1023.267 .0253792
1023.856 .0253897
1024.445 .0253992
1025.033 .0254066
1025.621 .0254110
1026.209 .0254129
1026.797 .0254126
1027.385 .0254111
1027.972 .0254103
1028.560 .0254107
1029.147 .0254130
1029.734 .0254178
1030.320 .0254240
1030.907 .0254305
1031.493 .0254359
1032.079 .0254402
1032.665 .0254425
1033.250 .0254430
1033.836 .0254424
1034.421 .0254422
1035.006 .0254437
1035.591 .0254472
1036.176 .0254527
1036.761 .0254607
1037.345 .0254705
1037.929 .0254800
1038.514 .0254886
1039.097 .0254958
1039.681 .0255008
1040.265 .0255032
1040.848 .0255036
1041.432 .0255032
1042.015 .0255027
1042.598 .0255023
1043.181 .0255027
1043.764 .0255039
1044.346 .0255056
1044.929 .0255068
1045.511 .0255064
1046.094 .0255045
1046.676 .0254999
1047.258 .0254922
1047.840 .0254827
1048.422 .0254726
1049.003 .0254628
1049.585 .0254542
1050.166 .0254482
1050.748 .0254447
1051.329 .0254421
1051.910 .0254394
1052.491 .0254360
1053.072 .0254316
1053.653 .0254256
1054.234 .0254176
1054.815 .0254075
1055.396 .0253983
1055.976 .0253894
1056.557 .0253814
1057.138 .0253752
1057.718 .0253704
1058.298 .0253654
1058.879 .0253592
1059.459 .0253512
1060.039 .0253402
1060.620 .0253269
1061.200 .0253126
1061.780 .0252954
1062.360 .0252776
1062.940 .0252592
1063.520 .0252412
1064.101 .0252243
1064.681 .0252099
1065.261 .0251962
1065.841 .0251834
1066.421 .0251728
1067.001 .0251632
1067.581 .0251549
1068.161 .0251481
1068.741 .0251420
1069.321 .0251372
1069.901 .0251332
1070.482 .0251291
1071.062 .0251263
1071.642 .0251256
1072.222 .0251257
1072.803 .0251263
1073.383 .0251272
1073.963 .0251286
1074.544 .0251295
1075.124 .0251294
1075.705 .0251282
1076.286 .0251250
1076.866 .0251205
1077.447 .0251130
1078.028 .0251043
1078.609 .0250945
1079.190 .0250824
1079.771 .0250691
1080.352 .0250545
1080.934 .0250392
1081.515 .0250256
1082.097 .0250138
1082.679 .0250065
1083.260 .0250012
1083.842 .0249995
1084.424 .0249976
1085.007 .0249956
1085.589 .0249912
1086.172 .0249830
1086.754 .0249702
1087.337 .0249547
1087.920 .0249363
1088.503 .0249176
1089.087 .0249002
1089.670 .0248862
1090.254 .0248737
1090.838 .0248634
1091.422 .0248522
1092.006 .0248393
1092.590 .0248221
1093.175 .0248030
1093.760 .0247786
1094.345 .0247546
1094.930 .0247311
1095.516 .0247123
1096.102 .0246983
1096.688 .0246925
1097.274 .0246941
1097.860 .0247013
1098.447 .0247106
1099.034 .0247203
1099.622 .0247269
1100.209 .0247292
1100.797 .0247242
1101.385 .0247146
1101.973 .0247004
1102.562 .0246853
1103.151 .0246694
1103.740 .0246551
1104.330 .0246440
1104.920 .0246337
1105.510 .0246234
1106.101 .0246136
1106.691 .0246026
1107.283 .0245897
1107.874 .0245771
1108.466 .0245666
1109.058 .0245606
1109.651 .0245594
1110.244 .0245656
1110.837 .0245776
1111.431 .0245934
1112.025 .0246131
1112.620 .0246308
1113.215 .0246473
1113.810 .0246626
1114.406 .0246754
1115.002 .0246889
1115.599 .0246998
1116.196 .0247088
1116.793 .0247123
1117.391 .0247103
1117.989 .0247021
1118.588 .0246845
1119.187 .0246613
1119.787 .0246330
1120.387 .0246036
1120.988 .0245749
1121.589 .0245498
1122.190 .0245282
1122.793 .0245132
1123.395 .0245022
1123.998 .0244940
1124.602 .0244879
1125.206 .0244833
1125.811 .0244853
1126.416 .0244919
1127.022 .0245049
1127.628 .0245263
1128.235 .0245562
1128.843 .0245947
1129.451 .0246369
1130.059 .0246849
1130.669 .0247354
1131.278 .0247893
1131.889 .0248435
1132.500 .0248978
1133.112 .0249526
1133.724 .0250055
1134.337 .0250566
1134.950 .0251018
1135.564 .0251446
1136.179 .0251809
1136.795 .0252148
1137.411 .0252510
1138.028 .0252898
1138.645 .0253389
1139.263 .0253931
1139.882 .0254513
1140.502 .0255115
1141.122 .0255774
1141.743 .0256551
1142.365 .0257465
1142.987 .0256500
1143.611 .0257352
1144.235 .0259809
1144.859 .0263431
1145.485 .0266125
