Measurement Sequence started on: 10-20-44-796
Integration time: 35
Scans to Average: 2 
>>>>>Begin Spectral Data<<<<<
432.953 .0526364
433.882 .0395703
434.810 .0340501
435.737 .0343003
436.662 .0341996
437.586 .0361732
438.509 .0356281
439.431 .0356684
440.351 .0358866
441.269 .0360862
442.187 .0362742
443.103 .0364189
444.018 .0365583
444.932 .0366615
445.844 .0367255
446.756 .0367456
447.666 .0367201
448.575 .0366614
449.482 .0365882
450.388 .0365307
451.294 .0364908
452.198 .0364742
453.100 .0364658
454.002 .0364730
454.902 .0364812
455.801 .0364843
456.699 .0364846
457.596 .0364874
458.492 .0364888
459.387 .0364981
460.280 .0365139
461.172 .0365343
462.064 .0365574
462.954 .0365793
463.843 .0365950
464.730 .0366104
465.617 .0366210
466.503 .0366280
467.387 .0366228
468.271 .0366123
469.153 .0365920
470.035 .0365621
470.915 .0365275
471.794 .0364790
472.673 .0364198
473.550 .0363522
474.426 .0362808
475.301 .0362125
476.175 .0361502
477.048 .0361024
477.920 .0360626
478.791 .0360315
479.661 .0360063
480.530 .0359816
481.398 .0359573
482.266 .0359367
483.132 .0359166
483.997 .0359005
484.861 .0358904
485.724 .0358877
486.587 .0358942
487.448 .0359090
488.308 .0359275
489.168 .0359467
490.026 .0359644
490.884 .0359774
491.741 .0359766
492.597 .0359704
493.452 .0359541
494.306 .0359276
495.159 .0358935
496.011 .0358536
496.862 .0358080
497.713 .0357596
498.562 .0357037
499.411 .0356413
500.259 .0355753
501.106 .0355039
501.952 .0354257
502.798 .0353451
503.642 .0352594
504.486 .0351668
505.329 .0350706
506.171 .0349724
507.012 .0348713
507.852 .0347705
508.692 .0346700
509.531 .0345711
510.369 .0344768
511.206 .0343862
512.043 .0342964
512.878 .0342080
513.713 .0341170
514.547 .0340164
515.381 .0339128
516.213 .0338000
517.045 .0336832
517.876 .0335633
518.706 .0334434
519.536 .0333214
520.365 .0332007
521.193 .0330732
522.020 .0329397
522.847 .0327978
523.673 .0326440
524.498 .0324697
525.323 .0322817
526.146 .0320819
526.969 .0318773
527.792 .0316713
528.614 .0314667
529.435 .0312677
530.255 .0310874
531.075 .0309088
531.894 .0307423
532.712 .0305840
533.530 .0304399
534.347 .0303029
535.163 .0301744
535.979 .0300594
536.794 .0299608
537.608 .0298848
538.422 .0298256
539.235 .0297797
540.048 .0297530
540.860 .0297318
541.671 .0297209
542.481 .0297137
543.292 .0297125
544.101 .0297122
544.910 .0297177
545.718 .0297289
546.526 .0297451
547.333 .0297715
548.139 .0298106
548.945 .0298617
549.750 .0299204
550.555 .0299843
551.359 .0300504
552.162 .0301172
552.965 .0301794
553.768 .0302338
554.569 .0302830
555.371 .0303253
556.171 .0303596
556.972 .0303870
557.771 .0304104
558.570 .0304352
559.369 .0304605
560.167 .0304861
560.964 .0305098
561.761 .0305393
562.558 .0305735
563.354 .0306177
564.149 .0306713
564.944 .0307337
565.738 .0308042
566.532 .0308805
567.325 .0309560
568.118 .0310336
568.910 .0311118
569.702 .0311917
570.494 .0312697
571.285 .0313467
572.075 .0314228
572.865 .0315013
573.654 .0315792
574.443 .0316533
575.232 .0317239
576.020 .0317918
576.807 .0318540
577.594 .0319139
578.381 .0319711
579.167 .0320272
579.952 .0320866
580.738 .0321488
581.522 .0322113
582.307 .0322744
583.091 .0323390
583.874 .0324019
584.657 .0324623
585.440 .0325183
586.222 .0325675
587.004 .0326119
587.785 .0326526
588.566 .0326868
589.346 .0327169
590.126 .0327421
590.906 .0327630
591.685 .0327794
592.464 .0327917
593.242 .0327995
594.020 .0328043
594.797 .0328071
595.575 .0328068
596.351 .0328030
597.128 .0327965
597.904 .0327876
598.679 .0327773
599.454 .0327655
600.229 .0327524
601.004 .0327389
601.778 .0327250
602.551 .0327105
603.325 .0326950
604.097 .0326785
604.870 .0326610
605.642 .0326421
606.414 .0326215
607.185 .0325995
607.956 .0325763
608.727 .0325526
609.497 .0325284
610.267 .0325045
611.037 .0324804
611.806 .0324566
612.575 .0324329
613.344 .0324094
614.112 .0323859
614.880 .0323626
615.647 .0323392
616.414 .0323166
617.181 .0322943
617.948 .0322723
618.714 .0322512
619.480 .0322310
620.245 .0322114
621.011 .0321924
621.775 .0321743
622.540 .0321569
623.304 .0321407
624.068 .0321258
624.832 .0321116
625.595 .0320986
626.358 .0320867
627.120 .0320749
627.883 .0320620
628.645 .0320489
629.406 .0320345
630.168 .0320185
630.929 .0320015
631.689 .0319827
632.450 .0319626
633.210 .0319417
633.970 .0319194
634.729 .0318962
635.489 .0318726
636.248 .0318493
637.006 .0318254
637.765 .0318020
638.523 .0317787
639.280 .0317554
640.038 .0317324
640.795 .0317106
641.552 .0316885
642.309 .0316673
643.065 .0316475
643.821 .0316293
644.577 .0316123
645.332 .0315968
646.088 .0315814
646.843 .0315662
647.597 .0315496
648.352 .0315314
649.106 .0315114
649.860 .0314904
650.613 .0314678
651.367 .0314451
652.120 .0314229
652.872 .0314015
653.625 .0313811
654.377 .0313622
655.129 .0313435
655.881 .0313250
656.632 .0313055
657.384 .0312855
658.135 .0312653
658.885 .0312450
659.636 .0312250
660.386 .0312065
661.136 .0311890
661.885 .0311722
662.635 .0311558
663.384 .0311399
664.133 .0311233
664.881 .0311058
665.630 .0310874
666.378 .0310685
667.126 .0310499
667.874 .0310315
668.621 .0310135
669.368 .0309963
670.115 .0309799
670.862 .0309633
671.608 .0309475
672.354 .0309321
673.100 .0309170
673.846 .0309029
674.591 .0308895
675.337 .0308771
676.082 .0308657
676.826 .0308546
677.571 .0308440
678.315 .0308332
679.059 .0308218
679.803 .0308090
680.547 .0307961
681.290 .0307824
682.033 .0307672
682.776 .0307510
683.518 .0307340
684.261 .0307157
685.003 .0306973
685.745 .0306782
686.487 .0306590
687.228 .0306398
687.969 .0306204
688.710 .0306001
689.451 .0305801
690.192 .0305593
690.932 .0305374
691.672 .0305149
692.412 .0304920
693.152 .0304679
693.891 .0304432
694.630 .0304184
695.369 .0303939
696.108 .0303694
696.846 .0303448
697.585 .0303198
698.323 .0302949
699.061 .0302703
699.798 .0302453
700.536 .0302203
701.273 .0301959
702.010 .0301718
702.746 .0301479
703.483 .0301246
704.219 .0301018
704.955 .0300789
705.691 .0300565
706.427 .0300348
707.162 .0300134
707.897 .0299925
708.632 .0299724
709.367 .0299529
710.101 .0299338
710.835 .0299149
711.569 .0298953
712.303 .0298754
713.037 .0298553
713.770 .0298343
714.503 .0298125
715.236 .0297904
715.969 .0297680
716.702 .0297454
717.434 .0297233
718.166 .0297010
718.898 .0296788
719.629 .0296572
720.361 .0296361
721.092 .0296150
721.823 .0295943
722.554 .0295739
723.284 .0295538
724.014 .0295336
724.744 .0295131
725.474 .0294918
726.204 .0294707
726.933 .0294494
727.662 .0294279
728.391 .0294067
729.120 .0293860
729.849 .0293656
730.577 .0293463
731.305 .0293277
732.033 .0293100
732.760 .0292924
733.488 .0292751
734.215 .0292576
734.942 .0292396
735.669 .0292210
736.395 .0292019
737.122 .0291825
737.848 .0291630
738.573 .0291434
739.299 .0291241
740.024 .0291052
740.750 .0290871
741.474 .0290693
742.199 .0290522
742.924 .0290354
743.648 .0290186
744.372 .0290015
745.096 .0289846
745.819 .0289678
746.543 .0289510
747.266 .0289352
747.989 .0289207
748.711 .0289078
749.434 .0288963
750.156 .0288864
750.878 .0288778
751.599 .0288708
752.321 .0288650
753.042 .0288600
753.763 .0288562
754.484 .0288530
755.205 .0288500
755.925 .0288474
756.645 .0288442
757.365 .0288407
758.085 .0288359
758.804 .0288301
759.523 .0288222
760.242 .0288124
760.961 .0288007
761.679 .0287875
762.397 .0287729
763.115 .0287570
763.833 .0287397
764.551 .0287211
765.268 .0287009
765.985 .0286793
766.702 .0286561
767.418 .0286319
768.134 .0286072
768.850 .0285829
769.566 .0285590
770.282 .0285368
770.997 .0285166
771.712 .0284983
772.427 .0284815
773.142 .0284661
773.856 .0284514
774.570 .0284368
775.284 .0284221
775.998 .0284073
776.711 .0283925
777.424 .0283787
778.137 .0283653
778.849 .0283525
779.562 .0283406
780.274 .0283290
780.986 .0283175
781.697 .0283063
782.409 .0282950
783.120 .0282837
783.831 .0282725
784.541 .0282615
785.252 .0282506
785.962 .0282401
786.671 .0282300
787.381 .0282200
788.090 .0282095
788.799 .0281984
789.508 .0281862
790.217 .0281735
790.925 .0281602
791.633 .0281461
792.341 .0281313
793.048 .0281158
793.755 .0280992
794.462 .0280817
795.169 .0280631
795.875 .0280444
796.581 .0280251
797.287 .0280068
797.993 .0279892
798.698 .0279733
799.403 .0279592
800.108 .0279468
800.812 .0279356
801.517 .0279256
802.221 .0279152
802.924 .0279047
803.628 .0278938
804.331 .0278827
805.034 .0278712
805.736 .0278601
806.439 .0278490
807.141 .0278384
807.843 .0278277
808.544 .0278166
809.245 .0278037
809.946 .0277892
810.647 .0277726
811.347 .0277539
812.047 .0277342
812.747 .0277140
813.447 .0276941
814.146 .0276756
814.845 .0276588
815.543 .0276437
816.242 .0276297
816.940 .0276173
817.638 .0276050
818.335 .0275935
819.032 .0275814
819.729 .0275688
820.426 .0275559
821.122 .0275426
821.818 .0275282
822.514 .0275125
823.209 .0274959
823.905 .0274785
824.599 .0274598
825.294 .0274407
825.988 .0274208
826.682 .0274004
827.376 .0273792
828.069 .0273573
828.762 .0273341
829.455 .0273100
830.147 .0272849
830.840 .0272594
831.531 .0272343
832.223 .0272101
832.914 .0271874
833.605 .0271672
834.296 .0271496
834.986 .0271342
835.676 .0271199
836.366 .0271066
837.055 .0270932
837.744 .0270791
838.433 .0270640
839.121 .0270483
839.809 .0270325
840.497 .0270171
841.185 .0270023
841.872 .0269887
842.559 .0269762
843.245 .0269648
843.932 .0269537
844.617 .0269429
845.303 .0269315
845.988 .0269195
846.673 .0269070
847.358 .0268946
848.042 .0268822
848.726 .0268699
849.410 .0268579
850.093 .0268462
850.776 .0268347
851.459 .0268232
852.141 .0268112
852.823 .0267992
853.505 .0267865
854.186 .0267727
854.867 .0267584
855.548 .0267436
856.228 .0267284
856.908 .0267131
857.588 .0266981
858.267 .0266834
858.946 .0266689
859.625 .0266551
860.303 .0266416
860.981 .0266288
861.659 .0266166
862.336 .0266045
863.013 .0265930
863.690 .0265822
864.366 .0265710
865.042 .0265596
865.718 .0265485
866.393 .0265370
867.068 .0265251
867.743 .0265130
868.417 .0265009
869.091 .0264882
869.765 .0264758
870.438 .0264634
871.111 .0264514
871.783 .0264397
872.456 .0264276
873.127 .0264144
873.799 .0264011
874.470 .0263870
875.141 .0263720
875.811 .0263570
876.481 .0263426
877.151 .0263288
877.820 .0263162
878.489 .0263053
879.158 .0262961
879.826 .0262889
880.494 .0262833
881.162 .0262778
881.829 .0262726
882.496 .0262668
883.163 .0262600
883.829 .0262530
884.495 .0262460
885.160 .0262398
885.825 .0262342
886.490 .0262301
887.154 .0262272
887.818 .0262250
888.482 .0262231
889.145 .0262207
889.808 .0262179
890.471 .0262144
891.133 .0262101
891.795 .0262055
892.456 .0262013
893.117 .0261980
893.778 .0261954
894.439 .0261935
895.099 .0261916
895.758 .0261895
896.417 .0261867
897.076 .0261827
897.735 .0261776
898.393 .0261717
899.051 .0261653
899.708 .0261585
900.365 .0261513
901.022 .0261440
901.678 .0261360
902.334 .0261272
902.990 .0261175
903.645 .0261066
904.300 .0260948
904.954 .0260829
905.608 .0260711
906.262 .0260603
906.915 .0260512
907.568 .0260431
908.221 .0260364
908.873 .0260304
909.525 .0260246
910.176 .0260182
910.828 .0260115
911.478 .0260045
912.129 .0259966
912.778 .0259885
913.428 .0259806
914.077 .0259723
914.726 .0259643
915.375 .0259555
916.023 .0259461
916.670 .0259362
917.318 .0259255
917.964 .0259140
918.611 .0259021
919.257 .0258902
919.903 .0258785
920.548 .0258672
921.193 .0258571
921.838 .0258480
922.482 .0258401
923.126 .0258337
923.770 .0258282
924.413 .0258230
925.056 .0258180
925.698 .0258132
926.340 .0258085
926.982 .0258035
927.623 .0257981
928.264 .0257929
928.904 .0257871
929.544 .0257811
930.184 .0257747
930.823 .0257678
931.462 .0257607
932.101 .0257523
932.739 .0257425
933.377 .0257308
934.014 .0257172
934.651 .0257019
935.288 .0256855
935.924 .0256684
936.560 .0256508
937.196 .0256335
937.831 .0256170
938.466 .0256013
939.100 .0255864
939.734 .0255722
940.368 .0255580
941.001 .0255438
941.634 .0255294
942.266 .0255147
942.899 .0255002
943.530 .0254859
944.162 .0254719
944.793 .0254580
945.423 .0254440
946.053 .0254294
946.683 .0254145
947.313 .0253989
947.942 .0253821
948.571 .0253643
949.199 .0253457
949.827 .0253261
950.455 .0253064
951.082 .0252869
951.709 .0252681
952.335 .0252499
952.961 .0252329
953.587 .0252170
954.212 .0252024
954.837 .0251891
955.462 .0251767
956.086 .0251654
956.710 .0251555
957.334 .0251462
957.957 .0251378
958.579 .0251301
959.202 .0251226
959.824 .0251148
960.445 .0251063
961.067 .0250971
961.688 .0250872
962.308 .0250764
962.928 .0250655
963.548 .0250539
964.168 .0250418
964.787 .0250291
965.406 .0250157
966.024 .0250017
966.642 .0249866
967.260 .0249708
967.877 .0249540
968.494 .0249366
969.110 .0249189
969.727 .0249012
970.342 .0248841
970.958 .0248681
971.573 .0248530
972.188 .0248387
972.802 .0248253
973.416 .0248118
974.030 .0247976
974.643 .0247829
975.256 .0247678
975.869 .0247521
976.481 .0247361
977.093 .0247213
977.705 .0247084
978.316 .0246978
978.927 .0246898
979.538 .0246838
980.148 .0246791
980.758 .0246753
981.367 .0246712
981.977 .0246663
982.586 .0246612
983.194 .0246554
983.802 .0246500
984.410 .0246454
985.018 .0246422
985.625 .0246404
986.232 .0246399
986.838 .0246406
987.445 .0246412
988.050 .0246409
988.656 .0246394
989.261 .0246362
989.866 .0246312
990.471 .0246248
991.075 .0246172
991.679 .0246094
992.282 .0246022
992.886 .0245959
993.489 .0245905
994.091 .0245862
994.694 .0245831
995.296 .0245803
995.897 .0245778
996.499 .0245756
997.100 .0245727
997.701 .0245701
998.301 .0245671
998.901 .0245639
999.501 .0245605
1000.101 .0245579
1000.700 .0245552
1001.299 .0245527
1001.898 .0245504
1002.496 .0245475
1003.094 .0245436
1003.692 .0245397
1004.289 .0245346
1004.887 .0245293
1005.484 .0245236
1006.080 .0245180
1006.677 .0245117
1007.273 .0245058
1007.868 .0244996
1008.464 .0244932
1009.059 .0244869
1009.654 .0244812
1010.249 .0244755
1010.843 .0244712
1011.437 .0244675
1012.031 .0244651
1012.625 .0244637
1013.218 .0244628
1013.811 .0244613
1014.404 .0244598
1014.997 .0244574
1015.589 .0244546
1016.181 .0244508
1016.773 .0244469
1017.365 .0244426
1017.956 .0244382
1018.547 .0244339
1019.138 .0244298
1019.728 .0244267
1020.319 .0244245
1020.909 .0244226
1021.499 .0244221
1022.088 .0244218
1022.678 .0244219
1023.267 .0244221
1023.856 .0244223
1024.445 .0244218
1025.033 .0244202
1025.621 .0244176
1026.209 .0244143
1026.797 .0244098
1027.385 .0244049
1027.972 .0243999
1028.560 .0243956
1029.147 .0243920
1029.734 .0243887
1030.320 .0243858
1030.907 .0243833
1031.493 .0243801
1032.079 .0243757
1032.665 .0243697
1033.250 .0243625
1033.836 .0243539
1034.421 .0243456
1035.006 .0243376
1035.591 .0243301
1036.176 .0243241
1036.761 .0243202
1037.345 .0243175
1037.929 .0243158
1038.514 .0243140
1039.097 .0243114
1039.681 .0243071
1040.265 .0243012
1040.848 .0242935
1041.432 .0242854
1042.015 .0242778
1042.598 .0242712
1043.181 .0242663
1043.764 .0242638
1044.346 .0242628
1044.929 .0242641
1045.511 .0242669
1046.094 .0242702
1046.676 .0242731
1047.258 .0242768
1047.840 .0242812
1048.422 .0242862
1049.003 .0242917
1049.585 .0242975
1050.166 .0243037
1050.748 .0243091
1051.329 .0243132
1051.910 .0243158
1052.491 .0243175
1053.072 .0243177
1053.653 .0243159
1054.234 .0243131
1054.815 .0243084
1055.396 .0243016
1055.976 .0242930
1056.557 .0242832
1057.138 .0242718
1057.718 .0242578
1058.298 .0242420
1058.879 .0242253
1059.459 .0242088
1060.039 .0241925
1060.620 .0241779
1061.200 .0241651
1061.780 .0241549
1062.360 .0241470
1062.940 .0241409
1063.520 .0241375
1064.101 .0241359
1064.681 .0241341
1065.261 .0241327
1065.841 .0241298
1066.421 .0241263
1067.001 .0241211
1067.581 .0241156
1068.161 .0241090
1068.741 .0241030
1069.321 .0240974
1069.901 .0240918
1070.482 .0240869
1071.062 .0240829
1071.642 .0240776
1072.222 .0240711
1072.803 .0240631
1073.383 .0240546
1073.963 .0240455
1074.544 .0240373
1075.124 .0240298
1075.705 .0240243
1076.286 .0240206
1076.866 .0240178
1077.447 .0240156
1078.028 .0240139
1078.609 .0240117
1079.190 .0240084
1079.771 .0240030
1080.352 .0239958
1080.934 .0239872
1081.515 .0239778
1082.097 .0239696
1082.679 .0239626
1083.260 .0239567
1083.842 .0239513
1084.424 .0239488
1085.007 .0239488
1085.589 .0239514
1086.172 .0239561
1086.754 .0239632
1087.337 .0239721
1087.920 .0239822
1088.503 .0239934
1089.087 .0240045
1089.670 .0240166
1090.254 .0240274
1090.838 .0240351
1091.422 .0240396
1092.006 .0240383
1092.590 .0240320
1093.175 .0240200
1093.760 .0240029
1094.345 .0239807
1094.930 .0239532
1095.516 .0239240
1096.102 .0238929
1096.688 .0238618
1097.274 .0238309
1097.860 .0238016
1098.447 .0237740
1099.034 .0237490
1099.622 .0237262
1100.209 .0237066
1100.797 .0236908
1101.385 .0236800
1101.973 .0236733
1102.562 .0236692
1103.151 .0236680
1103.740 .0236675
1104.330 .0236688
1104.920 .0236725
1105.510 .0236766
1106.101 .0236821
1106.691 .0236893
1107.283 .0236988
1107.874 .0237071
1108.466 .0237149
1109.058 .0237238
1109.651 .0237326
1110.244 .0237426
1110.837 .0237511
1111.431 .0237598
1112.025 .0237707
1112.620 .0237854
1113.215 .0238023
1113.810 .0238256
1114.406 .0238532
1115.002 .0238858
1115.599 .0239215
1116.196 .0239582
1116.793 .0239930
1117.391 .0240255
1117.989 .0240547
1118.588 .0240788
1119.187 .0240965
1119.787 .0241101
1120.387 .0241177
1120.988 .0241257
1121.589 .0241313
1122.190 .0241349
1122.793 .0241392
1123.395 .0241453
1123.998 .0241498
1124.602 .0241552
1125.206 .0241607
1125.811 .0241676
1126.416 .0241767
1127.022 .0241902
1127.628 .0242085
1128.235 .0242323
1128.843 .0242626
1129.451 .0242985
1130.059 .0243390
1130.669 .0243846
1131.278 .0244326
1131.889 .0244828
1132.500 .0245349
1133.112 .0245850
1133.724 .0246310
1134.337 .0246746
1134.950 .0247150
1135.564 .0247529
1136.179 .0247846
1136.795 .0248170
1137.411 .0248521
1138.028 .0248878
1138.645 .0249329
1139.263 .0249833
1139.882 .0250365
1140.502 .0250979
1141.122 .0251744
1141.743 .0252670
1142.365 .0253896
1142.987 .0252591
1143.611 .0254928
1144.235 .0259063
1144.859 .0260967
1145.485 .0265724
