Measurement Sequence started on: 10-20-44-796
Integration time: 35
Scans to Average: 2 
>>>>>Begin Spectral Data<<<<<
432.953 .0387459
433.882 .0355385
434.810 .0352340
435.737 .0321663
436.662 .0311034
437.586 .0339152
438.509 .0339131
439.431 .0341152
440.351 .0343534
441.269 .0346498
442.187 .0349082
443.103 .0350889
444.018 .0352230
444.932 .0353540
445.844 .0354893
446.756 .0356179
447.666 .0357146
448.575 .0357610
449.482 .0357473
450.388 .0356979
451.294 .0356083
452.198 .0355150
453.100 .0354366
454.002 .0353934
454.902 .0353774
455.801 .0353844
456.699 .0354090
457.596 .0354458
458.492 .0354708
459.387 .0354735
460.280 .0354441
461.172 .0353952
462.064 .0353280
462.954 .0352493
463.843 .0351660
464.730 .0350880
465.617 .0350150
466.503 .0349449
467.387 .0348732
468.271 .0347988
469.153 .0347194
470.035 .0346396
470.915 .0345580
471.794 .0344700
472.673 .0343770
473.550 .0342874
474.426 .0342017
475.301 .0341251
476.175 .0340589
477.048 .0340041
477.920 .0339599
478.791 .0339285
479.661 .0339030
480.530 .0338801
481.398 .0338615
482.266 .0338451
483.132 .0338320
483.997 .0338166
484.861 .0338003
485.724 .0337883
486.587 .0337805
487.448 .0337773
488.308 .0337750
489.168 .0337745
490.026 .0337688
490.884 .0337537
491.741 .0337227
492.597 .0336776
493.452 .0336216
494.306 .0335558
495.159 .0334881
496.011 .0334218
496.862 .0333628
497.713 .0333083
498.562 .0332632
499.411 .0332267
500.259 .0331919
501.106 .0331603
501.952 .0331272
502.798 .0330951
503.642 .0330631
504.486 .0330307
505.329 .0330014
506.171 .0329812
507.012 .0329662
507.852 .0329495
508.692 .0329378
509.531 .0329226
510.369 .0329021
511.206 .0328691
512.043 .0328189
512.878 .0327520
513.713 .0326638
514.547 .0325572
515.381 .0324321
516.213 .0322986
517.045 .0321560
517.876 .0320050
518.706 .0318577
519.536 .0317101
520.365 .0315595
521.193 .0314109
522.020 .0312654
522.847 .0311177
523.673 .0309667
524.498 .0308052
525.323 .0306367
526.146 .0304654
526.969 .0302902
527.792 .0301096
528.614 .0299241
529.435 .0297436
530.255 .0295679
531.075 .0293939
531.894 .0292295
532.712 .0290646
533.530 .0289009
534.347 .0287406
535.163 .0285697
535.979 .0283954
536.794 .0282241
537.608 .0280616
538.422 .0279111
539.235 .0277708
540.048 .0276525
540.860 .0275457
541.671 .0274548
542.481 .0273759
543.292 .0273034
544.101 .0272382
544.910 .0271846
545.718 .0271409
546.526 .0271217
547.333 .0271301
548.139 .0271604
548.945 .0272181
549.750 .0273044
550.555 .0274075
551.359 .0275176
552.162 .0276286
552.965 .0277465
553.768 .0278613
554.569 .0279785
555.371 .0280891
556.171 .0281945
556.972 .0283022
557.771 .0284036
558.570 .0284947
559.369 .0285812
560.167 .0286641
560.964 .0287408
561.761 .0288166
562.558 .0288898
563.354 .0289639
564.149 .0290382
564.944 .0291162
565.738 .0291960
566.532 .0292694
567.325 .0293427
568.118 .0294143
568.910 .0294864
569.702 .0295632
570.494 .0296379
571.285 .0297116
572.075 .0297841
572.865 .0298521
573.654 .0299105
574.443 .0299609
575.232 .0300089
576.020 .0300512
576.807 .0300878
577.594 .0301244
578.381 .0301609
579.167 .0301999
579.952 .0302436
580.738 .0302892
581.522 .0303371
582.307 .0303877
583.091 .0304383
583.874 .0304869
584.657 .0305378
585.440 .0305878
586.222 .0306363
587.004 .0306846
587.785 .0307326
588.566 .0307767
589.346 .0308189
590.126 .0308580
590.906 .0308911
591.685 .0309178
592.464 .0309372
593.242 .0309493
594.020 .0309557
594.797 .0309574
595.575 .0309537
596.351 .0309453
597.128 .0309344
597.904 .0309193
598.679 .0309031
599.454 .0308844
600.229 .0308650
601.004 .0308442
601.778 .0308233
602.551 .0308033
603.325 .0307839
604.097 .0307658
604.870 .0307500
605.642 .0307363
606.414 .0307235
607.185 .0307102
607.956 .0306981
608.727 .0306859
609.497 .0306747
610.267 .0306630
611.037 .0306512
611.806 .0306389
612.575 .0306267
613.344 .0306119
614.112 .0305955
614.880 .0305773
615.647 .0305564
616.414 .0305334
617.181 .0305098
617.948 .0304854
618.714 .0304608
619.480 .0304370
620.245 .0304147
621.011 .0303918
621.775 .0303702
622.540 .0303487
623.304 .0303292
624.068 .0303118
624.832 .0302956
625.595 .0302803
626.358 .0302668
627.120 .0302541
627.883 .0302414
628.645 .0302279
629.406 .0302129
630.168 .0301953
630.929 .0301756
631.689 .0301538
632.450 .0301295
633.210 .0301032
633.970 .0300756
634.729 .0300460
635.489 .0300146
636.248 .0299806
637.006 .0299453
637.765 .0299090
638.523 .0298721
639.280 .0298348
640.038 .0297975
640.795 .0297619
641.552 .0297288
642.309 .0296992
643.065 .0296736
643.821 .0296513
644.577 .0296330
645.332 .0296183
646.088 .0296063
646.843 .0295958
647.597 .0295855
648.352 .0295752
649.106 .0295640
649.860 .0295516
650.613 .0295379
651.367 .0295243
652.120 .0295125
652.872 .0295010
653.625 .0294895
654.377 .0294784
655.129 .0294662
655.881 .0294515
656.632 .0294333
657.384 .0294109
658.135 .0293854
658.885 .0293576
659.636 .0293298
660.386 .0293032
661.136 .0292801
661.885 .0292606
662.635 .0292436
663.384 .0292295
664.133 .0292174
664.881 .0292048
665.630 .0291925
666.378 .0291789
667.126 .0291647
667.874 .0291500
668.621 .0291362
669.368 .0291234
670.115 .0291119
670.862 .0291015
671.608 .0290922
672.354 .0290826
673.100 .0290736
673.846 .0290634
674.591 .0290521
675.337 .0290401
676.082 .0290272
676.826 .0290129
677.571 .0289987
678.315 .0289847
679.059 .0289714
679.803 .0289582
680.547 .0289464
681.290 .0289348
682.033 .0289232
682.776 .0289120
683.518 .0289003
684.261 .0288878
685.003 .0288750
685.745 .0288610
686.487 .0288463
687.228 .0288316
687.969 .0288160
688.710 .0287994
689.451 .0287827
690.192 .0287656
690.932 .0287480
691.672 .0287304
692.412 .0287124
693.152 .0286939
693.891 .0286748
694.630 .0286549
695.369 .0286341
696.108 .0286125
696.846 .0285905
697.585 .0285679
698.323 .0285451
699.061 .0285226
699.798 .0285005
700.536 .0284800
701.273 .0284607
702.010 .0284425
702.746 .0284247
703.483 .0284067
704.219 .0283886
704.955 .0283702
705.691 .0283510
706.427 .0283320
707.162 .0283136
707.897 .0282961
708.632 .0282798
709.367 .0282650
710.101 .0282519
710.835 .0282404
711.569 .0282295
712.303 .0282182
713.037 .0282059
713.770 .0281924
714.503 .0281778
715.236 .0281621
715.969 .0281462
716.702 .0281298
717.434 .0281138
718.166 .0280979
718.898 .0280816
719.629 .0280648
720.361 .0280467
721.092 .0280272
721.823 .0280064
722.554 .0279838
723.284 .0279599
724.014 .0279351
724.744 .0279100
725.474 .0278845
726.204 .0278594
726.933 .0278349
727.662 .0278109
728.391 .0277880
729.120 .0277660
729.849 .0277446
730.577 .0277244
731.305 .0277059
732.033 .0276886
732.760 .0276729
733.488 .0276585
734.215 .0276447
734.942 .0276315
735.669 .0276188
736.395 .0276066
737.122 .0275944
737.848 .0275820
738.573 .0275689
739.299 .0275549
740.024 .0275408
740.750 .0275260
741.474 .0275112
742.199 .0274969
742.924 .0274829
743.648 .0274686
744.372 .0274545
745.096 .0274409
745.819 .0274278
746.543 .0274149
747.266 .0274023
747.989 .0273899
748.711 .0273785
749.434 .0273682
750.156 .0273602
750.878 .0273544
751.599 .0273510
752.321 .0273484
753.042 .0273468
753.763 .0273451
754.484 .0273431
755.205 .0273402
755.925 .0273366
756.645 .0273323
757.365 .0273272
758.085 .0273210
758.804 .0273134
759.523 .0273041
760.242 .0272928
760.961 .0272781
761.679 .0272604
762.397 .0272398
763.115 .0272171
763.833 .0271933
764.551 .0271689
765.268 .0271446
765.985 .0271204
766.702 .0270964
767.418 .0270724
768.134 .0270483
768.850 .0270238
769.566 .0269994
770.282 .0269749
770.997 .0269517
771.712 .0269297
772.427 .0269099
773.142 .0268922
773.856 .0268768
774.570 .0268623
775.284 .0268487
775.998 .0268348
776.711 .0268215
777.424 .0268076
778.137 .0267944
778.849 .0267811
779.562 .0267678
780.274 .0267546
780.986 .0267417
781.697 .0267290
782.409 .0267170
783.120 .0267054
783.831 .0266952
784.541 .0266860
785.252 .0266784
785.962 .0266716
786.671 .0266661
787.381 .0266615
788.090 .0266573
788.799 .0266526
789.508 .0266478
790.217 .0266423
790.925 .0266366
791.633 .0266304
792.341 .0266238
793.048 .0266166
793.755 .0266083
794.462 .0265984
795.169 .0265870
795.875 .0265739
796.581 .0265592
797.287 .0265435
797.993 .0265273
798.698 .0265106
799.403 .0264942
800.108 .0264781
800.812 .0264625
801.517 .0264478
802.221 .0264338
802.924 .0264201
803.628 .0264078
804.331 .0263972
805.034 .0263873
805.736 .0263791
806.439 .0263725
807.141 .0263669
807.843 .0263622
808.544 .0263579
809.245 .0263531
809.946 .0263477
810.647 .0263416
811.347 .0263341
812.047 .0263251
812.747 .0263155
813.447 .0263045
814.146 .0262921
814.845 .0262790
815.543 .0262650
816.242 .0262508
816.940 .0262370
817.638 .0262239
818.335 .0262112
819.032 .0261986
819.729 .0261861
820.426 .0261736
821.122 .0261609
821.818 .0261475
822.514 .0261339
823.209 .0261207
823.905 .0261077
824.599 .0260952
825.294 .0260829
825.988 .0260712
826.682 .0260598
827.376 .0260478
828.069 .0260343
828.762 .0260196
829.455 .0260036
830.147 .0259857
830.840 .0259673
831.531 .0259484
832.223 .0259298
832.914 .0259117
833.605 .0258946
834.296 .0258787
834.986 .0258633
835.676 .0258491
836.366 .0258357
837.055 .0258233
837.744 .0258118
838.433 .0258006
839.121 .0257902
839.809 .0257800
840.497 .0257707
841.185 .0257613
841.872 .0257520
842.559 .0257427
843.245 .0257330
843.932 .0257225
844.617 .0257125
845.303 .0257031
845.988 .0256934
846.673 .0256844
847.358 .0256759
848.042 .0256674
848.726 .0256592
849.410 .0256507
850.093 .0256423
850.776 .0256340
851.459 .0256261
852.141 .0256174
852.823 .0256088
853.505 .0256011
854.186 .0255938
854.867 .0255867
855.548 .0255804
856.228 .0255743
856.908 .0255683
857.588 .0255624
858.267 .0255560
858.946 .0255485
859.625 .0255404
860.303 .0255315
860.981 .0255224
861.659 .0255128
862.336 .0255039
863.013 .0254953
863.690 .0254878
864.366 .0254813
865.042 .0254752
865.718 .0254691
866.393 .0254632
867.068 .0254562
867.743 .0254481
868.417 .0254387
869.091 .0254287
869.765 .0254183
870.438 .0254081
871.111 .0253980
871.783 .0253877
872.456 .0253775
873.127 .0253674
873.799 .0253565
874.470 .0253455
875.141 .0253337
875.811 .0253213
876.481 .0253088
877.151 .0252969
877.820 .0252853
878.489 .0252751
879.158 .0252655
879.826 .0252568
880.494 .0252481
881.162 .0252395
881.829 .0252305
882.496 .0252210
883.163 .0252116
883.829 .0252019
884.495 .0251918
885.160 .0251835
885.825 .0251759
886.490 .0251707
887.154 .0251675
887.818 .0251666
888.482 .0251671
889.145 .0251688
889.808 .0251710
890.471 .0251734
891.133 .0251761
891.795 .0251786
892.456 .0251807
893.117 .0251830
893.778 .0251851
894.439 .0251873
895.099 .0251890
895.758 .0251906
896.417 .0251913
897.076 .0251908
897.735 .0251885
898.393 .0251847
899.051 .0251793
899.708 .0251722
900.365 .0251640
901.022 .0251549
901.678 .0251453
902.334 .0251352
902.990 .0251256
903.645 .0251174
904.300 .0251104
904.954 .0251046
905.608 .0250995
906.262 .0250961
906.915 .0250932
907.568 .0250904
908.221 .0250878
908.873 .0250854
909.525 .0250833
910.176 .0250811
910.828 .0250790
911.478 .0250780
912.129 .0250770
912.778 .0250762
913.428 .0250747
914.077 .0250723
914.726 .0250685
915.375 .0250640
916.023 .0250592
916.670 .0250542
917.318 .0250488
917.964 .0250437
918.611 .0250383
919.257 .0250330
919.903 .0250262
920.548 .0250179
921.193 .0250079
921.838 .0249968
922.482 .0249841
923.126 .0249712
923.770 .0249592
924.413 .0249488
925.056 .0249401
925.698 .0249327
926.340 .0249258
926.982 .0249185
927.623 .0249104
928.264 .0249010
928.904 .0248900
929.544 .0248777
930.184 .0248651
930.823 .0248529
931.462 .0248415
932.101 .0248312
932.739 .0248220
933.377 .0248127
934.014 .0248033
934.651 .0247922
935.288 .0247792
935.924 .0247645
936.560 .0247490
937.196 .0247331
937.831 .0247175
938.466 .0247033
939.100 .0246902
939.734 .0246781
940.368 .0246669
941.001 .0246555
941.634 .0246438
942.266 .0246309
942.899 .0246174
943.530 .0246028
944.162 .0245878
944.793 .0245728
945.423 .0245577
946.053 .0245431
946.683 .0245285
947.313 .0245129
947.942 .0244963
948.571 .0244790
949.199 .0244604
949.827 .0244408
950.455 .0244213
951.082 .0244021
951.709 .0243835
952.335 .0243661
952.961 .0243499
953.587 .0243339
954.212 .0243190
954.837 .0243043
955.462 .0242895
956.086 .0242752
956.710 .0242609
957.334 .0242467
957.957 .0242329
958.579 .0242191
959.202 .0242048
959.824 .0241903
960.445 .0241754
961.067 .0241603
961.688 .0241457
962.308 .0241321
962.928 .0241201
963.548 .0241101
964.168 .0241025
964.787 .0240956
965.406 .0240899
966.024 .0240845
966.642 .0240786
967.260 .0240721
967.877 .0240646
968.494 .0240562
969.110 .0240483
969.727 .0240402
970.342 .0240316
970.958 .0240232
971.573 .0240151
972.188 .0240057
972.802 .0239961
973.416 .0239856
974.030 .0239742
974.643 .0239620
975.256 .0239501
975.869 .0239376
976.481 .0239252
977.093 .0239133
977.705 .0239018
978.316 .0238909
978.927 .0238811
979.538 .0238712
980.148 .0238618
980.758 .0238536
981.367 .0238460
981.977 .0238387
982.586 .0238323
983.194 .0238255
983.802 .0238186
984.410 .0238105
985.018 .0238013
985.625 .0237911
986.232 .0237818
986.838 .0237735
987.445 .0237665
988.050 .0237613
988.656 .0237584
989.261 .0237565
989.866 .0237545
990.471 .0237514
991.075 .0237464
991.679 .0237387
992.282 .0237288
992.886 .0237174
993.489 .0237062
994.091 .0236964
994.694 .0236894
995.296 .0236849
995.897 .0236822
996.499 .0236802
997.100 .0236780
997.701 .0236752
998.301 .0236712
998.901 .0236655
999.501 .0236594
1000.101 .0236541
1000.700 .0236500
1001.299 .0236476
1001.898 .0236482
1002.496 .0236508
1003.094 .0236546
1003.692 .0236583
1004.289 .0236610
1004.887 .0236620
1005.484 .0236613
1006.080 .0236580
1006.677 .0236521
1007.273 .0236443
1007.868 .0236349
1008.464 .0236244
1009.059 .0236150
1009.654 .0236065
1010.249 .0235998
1010.843 .0235953
1011.437 .0235935
1012.031 .0235931
1012.625 .0235945
1013.218 .0235961
1013.811 .0235973
1014.404 .0235975
1014.997 .0235964
1015.589 .0235942
1016.181 .0235922
1016.773 .0235913
1017.365 .0235915
1017.956 .0235929
1018.547 .0235954
1019.138 .0235972
1019.728 .0235987
1020.319 .0235985
1020.909 .0235967
1021.499 .0235932
1022.088 .0235883
1022.678 .0235807
1023.267 .0235720
1023.856 .0235625
1024.445 .0235517
1025.033 .0235408
1025.621 .0235304
1026.209 .0235207
1026.797 .0235122
1027.385 .0235053
1027.972 .0235006
1028.560 .0234974
1029.147 .0234966
1029.734 .0234956
1030.320 .0234951
1030.907 .0234944
1031.493 .0234918
1032.079 .0234878
1032.665 .0234829
1033.250 .0234767
1033.836 .0234694
1034.421 .0234621
1035.006 .0234546
1035.591 .0234474
1036.176 .0234405
1036.761 .0234334
1037.345 .0234256
1037.929 .0234167
1038.514 .0234067
1039.097 .0233946
1039.681 .0233832
1040.265 .0233721
1040.848 .0233619
1041.432 .0233536
1042.015 .0233466
1042.598 .0233414
1043.181 .0233382
1043.764 .0233359
1044.346 .0233348
1044.929 .0233355
1045.511 .0233377
1046.094 .0233407
1046.676 .0233446
1047.258 .0233488
1047.840 .0233525
1048.422 .0233538
1049.003 .0233528
1049.585 .0233480
1050.166 .0233414
1050.748 .0233322
1051.329 .0233213
1051.910 .0233098
1052.491 .0232989
1053.072 .0232896
1053.653 .0232822
1054.234 .0232758
1054.815 .0232702
1055.396 .0232660
1055.976 .0232635
1056.557 .0232619
1057.138 .0232619
1057.718 .0232631
1058.298 .0232676
1058.879 .0232750
1059.459 .0232839
1060.039 .0232930
1060.620 .0233017
1061.200 .0233086
1061.780 .0233123
1062.360 .0233120
1062.940 .0233083
1063.520 .0233018
1064.101 .0232929
1064.681 .0232814
1065.261 .0232668
1065.841 .0232499
1066.421 .0232317
1067.001 .0232116
1067.581 .0231889
1068.161 .0231635
1068.741 .0231360
1069.321 .0231080
1069.901 .0230805
1070.482 .0230559
1071.062 .0230347
1071.642 .0230191
1072.222 .0230088
1072.803 .0230021
1073.383 .0230008
1073.963 .0230038
1074.544 .0230098
1075.124 .0230164
1075.705 .0230215
1076.286 .0230229
1076.866 .0230216
1077.447 .0230198
1078.028 .0230171
1078.609 .0230159
1079.190 .0230171
1079.771 .0230195
1080.352 .0230258
1080.934 .0230334
1081.515 .0230418
1082.097 .0230500
1082.679 .0230583
1083.260 .0230625
1083.842 .0230655
1084.424 .0230675
1085.007 .0230716
1085.589 .0230782
1086.172 .0230882
1086.754 .0230984
1087.337 .0231098
1087.920 .0231205
1088.503 .0231274
1089.087 .0231288
1089.670 .0231267
1090.254 .0231165
1090.838 .0231059
1091.422 .0230938
1092.006 .0230840
1092.590 .0230775
1093.175 .0230768
1093.760 .0230784
1094.345 .0230818
1094.930 .0230828
1095.516 .0230812
1096.102 .0230780
1096.688 .0230761
1097.274 .0230742
1097.860 .0230770
1098.447 .0230855
1099.034 .0231011
1099.622 .0231208
1100.209 .0231439
1100.797 .0231643
1101.385 .0231810
1101.973 .0231894
1102.562 .0231896
1103.151 .0231804
1103.740 .0231630
1104.330 .0231378
1104.920 .0231114
1105.510 .0230810
1106.101 .0230504
1106.691 .0230207
1107.283 .0229915
1107.874 .0229597
1108.466 .0229283
1109.058 .0228969
1109.651 .0228664
1110.244 .0228412
1110.837 .0228236
1111.431 .0228146
1112.025 .0228198
1112.620 .0228346
1113.215 .0228584
1113.810 .0228903
1114.406 .0229277
1115.002 .0229605
1115.599 .0229928
1116.196 .0230220
1116.793 .0230474
1117.391 .0230721
1117.989 .0230988
1118.588 .0231276
1119.187 .0231572
1119.787 .0231891
1120.387 .0232186
1120.988 .0232426
1121.589 .0232595
1122.190 .0232618
1122.793 .0232565
1123.395 .0232420
1123.998 .0232226
1124.602 .0232022
1125.206 .0231885
1125.811 .0231852
1126.416 .0231887
1127.022 .0231995
1127.628 .0232148
1128.235 .0232319
1128.843 .0232433
1129.451 .0232491
1130.059 .0232494
1130.669 .0232503
1131.278 .0232555
1131.889 .0232629
1132.500 .0232800
1133.112 .0233044
1133.724 .0233396
1134.337 .0233844
1134.950 .0234323
1135.564 .0234847
1136.179 .0235374
1136.795 .0235957
1137.411 .0236539
1138.028 .0237148
1138.645 .0237908
1139.263 .0238717
1139.882 .0239534
1140.502 .0240461
1141.122 .0241411
1141.743 .0242444
1142.365 .0243485
1142.987 .0242480
1143.611 .0246498
1144.235 .0246591
1144.859 .0248211
1145.485 .0248364
