Measurement Sequence started on: 10-20-44-796
Integration time: 35
Scans to Average: 2 
>>>>>Begin Spectral Data<<<<<
432.953 .0247943
433.882 .0320938
434.810 .0309817
435.737 .0317067
436.662 .0322346
437.586 .0324214
438.509 .0328699
439.431 .0330259
440.351 .0331522
441.269 .0332055
442.187 .0332027
443.103 .0331421
444.018 .0331011
444.932 .0330426
445.844 .0329650
446.756 .0328947
447.666 .0328351
448.575 .0327737
449.482 .0327165
450.388 .0326650
451.294 .0326188
452.198 .0325850
453.100 .0325633
454.002 .0325538
454.902 .0325576
455.801 .0325736
456.699 .0325896
457.596 .0326118
458.492 .0326394
459.387 .0326498
460.280 .0326589
461.172 .0326586
462.064 .0326474
462.954 .0326271
463.843 .0325992
464.730 .0325678
465.617 .0325281
466.503 .0324804
467.387 .0324210
468.271 .0323513
469.153 .0322784
470.035 .0321962
470.915 .0321140
471.794 .0320368
472.673 .0319651
473.550 .0319023
474.426 .0318538
475.301 .0318140
476.175 .0317821
477.048 .0317566
477.920 .0317334
478.791 .0317116
479.661 .0316919
480.530 .0316743
481.398 .0316596
482.266 .0316499
483.132 .0316449
483.997 .0316373
484.861 .0316335
485.724 .0316303
486.587 .0316247
487.448 .0316173
488.308 .0316090
489.168 .0315990
490.026 .0315871
490.884 .0315743
491.741 .0315564
492.597 .0315332
493.452 .0315049
494.306 .0314682
495.159 .0314278
496.011 .0313870
496.862 .0313476
497.713 .0313107
498.562 .0312783
499.411 .0312479
500.259 .0312181
501.106 .0311871
501.952 .0311482
502.798 .0311020
503.642 .0310465
504.486 .0309808
505.329 .0309068
506.171 .0308284
507.012 .0307469
507.852 .0306634
508.692 .0305771
509.531 .0304847
510.369 .0303861
511.206 .0302825
512.043 .0301675
512.878 .0300464
513.713 .0299197
514.547 .0297833
515.381 .0296405
516.213 .0294953
517.045 .0293379
517.876 .0291703
518.706 .0289948
519.536 .0288118
520.365 .0286240
521.193 .0284341
522.020 .0282476
522.847 .0280713
523.673 .0279029
524.498 .0277380
525.323 .0275746
526.146 .0274187
526.969 .0272642
527.792 .0271033
528.614 .0269394
529.435 .0267759
530.255 .0266168
531.075 .0264629
531.894 .0263226
532.712 .0262028
533.530 .0260959
534.347 .0260029
535.163 .0259248
535.979 .0258546
536.794 .0257885
537.608 .0257214
538.422 .0256568
539.235 .0255916
540.048 .0255261
540.860 .0254646
541.671 .0254173
542.481 .0253902
543.292 .0253755
544.101 .0253764
544.910 .0253941
545.718 .0254227
546.526 .0254573
547.333 .0254991
548.139 .0255518
548.945 .0256129
549.750 .0256830
550.555 .0257628
551.359 .0258543
552.162 .0259524
552.965 .0260527
553.768 .0261515
554.569 .0262437
555.371 .0263201
556.171 .0263765
556.972 .0264252
557.771 .0264665
558.570 .0265077
559.369 .0265545
560.167 .0266102
560.964 .0266772
561.761 .0267501
562.558 .0268302
563.354 .0269156
564.149 .0270012
564.944 .0270819
565.738 .0271543
566.532 .0272209
567.325 .0272829
568.118 .0273410
568.910 .0273997
569.702 .0274642
570.494 .0275316
571.285 .0276052
572.075 .0276832
572.865 .0277657
573.654 .0278520
574.443 .0279375
575.232 .0280226
576.020 .0281006
576.807 .0281731
577.594 .0282405
578.381 .0283036
579.167 .0283660
579.952 .0284275
580.738 .0284920
581.522 .0285589
582.307 .0286285
583.091 .0287010
583.874 .0287732
584.657 .0288424
585.440 .0289073
586.222 .0289639
587.004 .0290112
587.785 .0290506
588.566 .0290832
589.346 .0291116
590.126 .0291364
590.906 .0291574
591.685 .0291760
592.464 .0291926
593.242 .0292064
594.020 .0292169
594.797 .0292257
595.575 .0292317
596.351 .0292347
597.128 .0292357
597.904 .0292354
598.679 .0292354
599.454 .0292351
600.229 .0292352
601.004 .0292361
601.778 .0292374
602.551 .0292384
603.325 .0292392
604.097 .0292407
604.870 .0292415
605.642 .0292412
606.414 .0292401
607.185 .0292370
607.956 .0292329
608.727 .0292272
609.497 .0292205
610.267 .0292134
611.037 .0292051
611.806 .0291953
612.575 .0291842
613.344 .0291724
614.112 .0291589
614.880 .0291436
615.647 .0291269
616.414 .0291086
617.181 .0290889
617.948 .0290690
618.714 .0290493
619.480 .0290309
620.245 .0290137
621.011 .0289968
621.775 .0289804
622.540 .0289650
623.304 .0289496
624.068 .0289346
624.832 .0289196
625.595 .0289053
626.358 .0288911
627.120 .0288769
627.883 .0288627
628.645 .0288490
629.406 .0288355
630.168 .0288211
630.929 .0288062
631.689 .0287912
632.450 .0287758
633.210 .0287604
633.970 .0287449
634.729 .0287297
635.489 .0287139
636.248 .0286973
637.006 .0286793
637.765 .0286608
638.523 .0286421
639.280 .0286229
640.038 .0286045
640.795 .0285877
641.552 .0285723
642.309 .0285582
643.065 .0285457
643.821 .0285338
644.577 .0285217
645.332 .0285087
646.088 .0284940
646.843 .0284776
647.597 .0284592
648.352 .0284395
649.106 .0284184
649.860 .0283972
650.613 .0283758
651.367 .0283541
652.120 .0283332
652.872 .0283122
653.625 .0282917
654.377 .0282719
655.129 .0282526
655.881 .0282341
656.632 .0282165
657.384 .0282000
658.135 .0281843
658.885 .0281700
659.636 .0281566
660.386 .0281438
661.136 .0281313
661.885 .0281190
662.635 .0281067
663.384 .0280949
664.133 .0280827
664.881 .0280695
665.630 .0280558
666.378 .0280410
667.126 .0280251
667.874 .0280088
668.621 .0279922
669.368 .0279765
670.115 .0279616
670.862 .0279474
671.608 .0279343
672.354 .0279225
673.100 .0279119
673.846 .0279018
674.591 .0278925
675.337 .0278834
676.082 .0278745
676.826 .0278658
677.571 .0278573
678.315 .0278488
679.059 .0278401
679.803 .0278309
680.547 .0278211
681.290 .0278104
682.033 .0277983
682.776 .0277850
683.518 .0277710
684.261 .0277559
685.003 .0277399
685.745 .0277234
686.487 .0277069
687.228 .0276906
687.969 .0276740
688.710 .0276570
689.451 .0276402
690.192 .0276237
690.932 .0276069
691.672 .0275900
692.412 .0275731
693.152 .0275563
693.891 .0275389
694.630 .0275214
695.369 .0275035
696.108 .0274860
696.846 .0274685
697.585 .0274510
698.323 .0274345
699.061 .0274185
699.798 .0274034
700.536 .0273890
701.273 .0273753
702.010 .0273620
702.746 .0273486
703.483 .0273355
704.219 .0273223
704.955 .0273091
705.691 .0272959
706.427 .0272828
707.162 .0272701
707.897 .0272575
708.632 .0272454
709.367 .0272335
710.101 .0272224
710.835 .0272113
711.569 .0272003
712.303 .0271889
713.037 .0271775
713.770 .0271655
714.503 .0271528
715.236 .0271400
715.969 .0271268
716.702 .0271138
717.434 .0271013
718.166 .0270888
718.898 .0270767
719.629 .0270649
720.361 .0270533
721.092 .0270408
721.823 .0270278
722.554 .0270138
723.284 .0269981
724.014 .0269809
724.744 .0269620
725.474 .0269419
726.204 .0269214
726.933 .0269007
727.662 .0268798
728.391 .0268593
729.120 .0268390
729.849 .0268186
730.577 .0267981
731.305 .0267774
732.033 .0267565
732.760 .0267350
733.488 .0267136
734.215 .0266925
734.942 .0266724
735.669 .0266537
736.395 .0266369
737.122 .0266217
737.848 .0266072
738.573 .0265931
739.299 .0265791
740.024 .0265647
740.750 .0265499
741.474 .0265350
742.199 .0265202
742.924 .0265058
743.648 .0264927
744.372 .0264803
745.096 .0264691
745.819 .0264587
746.543 .0264484
747.266 .0264377
747.989 .0264271
748.711 .0264163
749.434 .0264061
750.156 .0263973
750.878 .0263899
751.599 .0263843
752.321 .0263808
753.042 .0263786
753.763 .0263772
754.484 .0263763
755.205 .0263750
755.925 .0263731
756.645 .0263708
757.365 .0263674
758.085 .0263632
758.804 .0263580
759.523 .0263512
760.242 .0263425
760.961 .0263319
761.679 .0263187
762.397 .0263028
763.115 .0262848
763.833 .0262644
764.551 .0262421
765.268 .0262185
765.985 .0261938
766.702 .0261683
767.418 .0261427
768.134 .0261169
768.850 .0260911
769.566 .0260657
770.282 .0260411
770.997 .0260174
771.712 .0259952
772.427 .0259741
773.142 .0259542
773.856 .0259353
774.570 .0259176
775.284 .0259004
775.998 .0258836
776.711 .0258673
777.424 .0258514
778.137 .0258354
778.849 .0258192
779.562 .0258029
780.274 .0257865
780.986 .0257699
781.697 .0257535
782.409 .0257369
783.120 .0257211
783.831 .0257061
784.541 .0256920
785.252 .0256787
785.962 .0256666
786.671 .0256549
787.381 .0256435
788.090 .0256326
788.799 .0256215
789.508 .0256100
790.217 .0255985
790.925 .0255867
791.633 .0255750
792.341 .0255635
793.048 .0255519
793.755 .0255398
794.462 .0255275
795.169 .0255140
795.875 .0254998
796.581 .0254849
797.287 .0254696
797.993 .0254538
798.698 .0254384
799.403 .0254233
800.108 .0254087
800.812 .0253951
801.517 .0253828
802.221 .0253713
802.924 .0253609
803.628 .0253505
804.331 .0253404
805.034 .0253310
805.736 .0253218
806.439 .0253129
807.141 .0253045
807.843 .0252962
808.544 .0252881
809.245 .0252802
809.946 .0252720
810.647 .0252635
811.347 .0252549
812.047 .0252459
812.747 .0252364
813.447 .0252268
814.146 .0252167
814.845 .0252068
815.543 .0251971
816.242 .0251871
816.940 .0251767
817.638 .0251663
818.335 .0251554
819.032 .0251444
819.729 .0251334
820.426 .0251227
821.122 .0251121
821.818 .0251020
822.514 .0250922
823.209 .0250830
823.905 .0250737
824.599 .0250643
825.294 .0250542
825.988 .0250438
826.682 .0250323
827.376 .0250206
828.069 .0250086
828.762 .0249967
829.455 .0249849
830.147 .0249733
830.840 .0249618
831.531 .0249506
832.223 .0249394
832.914 .0249282
833.605 .0249166
834.296 .0249052
834.986 .0248934
835.676 .0248821
836.366 .0248710
837.055 .0248605
837.744 .0248501
838.433 .0248400
839.121 .0248300
839.809 .0248201
840.497 .0248101
841.185 .0248000
841.872 .0247902
842.559 .0247808
843.245 .0247718
843.932 .0247632
844.617 .0247553
845.303 .0247484
845.988 .0247421
846.673 .0247365
847.358 .0247316
848.042 .0247278
848.726 .0247249
849.410 .0247235
850.093 .0247235
850.776 .0247245
851.459 .0247264
852.141 .0247281
852.823 .0247297
853.505 .0247307
854.186 .0247307
854.867 .0247298
855.548 .0247283
856.228 .0247267
856.908 .0247249
857.588 .0247229
858.267 .0247208
858.946 .0247177
859.625 .0247136
860.303 .0247078
860.981 .0247001
861.659 .0246906
862.336 .0246798
863.013 .0246679
863.690 .0246558
864.366 .0246436
865.042 .0246320
865.718 .0246210
866.393 .0246105
867.068 .0246004
867.743 .0245906
868.417 .0245807
869.091 .0245707
869.765 .0245603
870.438 .0245499
871.111 .0245396
871.783 .0245300
872.456 .0245211
873.127 .0245132
873.799 .0245062
874.470 .0245002
875.141 .0244947
875.811 .0244899
876.481 .0244848
877.151 .0244797
877.820 .0244741
878.489 .0244678
879.158 .0244603
879.826 .0244517
880.494 .0244424
881.162 .0244325
881.829 .0244220
882.496 .0244109
883.163 .0243994
883.829 .0243881
884.495 .0243765
885.160 .0243654
885.825 .0243551
886.490 .0243455
887.154 .0243372
887.818 .0243299
888.482 .0243238
889.145 .0243186
889.808 .0243142
890.471 .0243103
891.133 .0243068
891.795 .0243034
892.456 .0243000
893.117 .0242970
893.778 .0242952
894.439 .0242935
895.099 .0242923
895.758 .0242914
896.417 .0242903
897.076 .0242886
897.735 .0242858
898.393 .0242813
899.051 .0242758
899.708 .0242687
900.365 .0242605
901.022 .0242516
901.678 .0242429
902.334 .0242343
902.990 .0242261
903.645 .0242187
904.300 .0242120
904.954 .0242050
905.608 .0241980
906.262 .0241905
906.915 .0241825
907.568 .0241737
908.221 .0241641
908.873 .0241540
909.525 .0241441
910.176 .0241339
910.828 .0241237
911.478 .0241137
912.129 .0241038
912.778 .0240941
913.428 .0240841
914.077 .0240738
914.726 .0240635
915.375 .0240528
916.023 .0240420
916.670 .0240314
917.318 .0240208
917.964 .0240101
918.611 .0239994
919.257 .0239887
919.903 .0239779
920.548 .0239673
921.193 .0239576
921.838 .0239487
922.482 .0239406
923.126 .0239339
923.770 .0239278
924.413 .0239224
925.056 .0239174
925.698 .0239117
926.340 .0239050
926.982 .0238969
927.623 .0238871
928.264 .0238757
928.904 .0238631
929.544 .0238496
930.184 .0238355
930.823 .0238213
931.462 .0238071
932.101 .0237923
932.739 .0237770
933.377 .0237609
934.014 .0237433
934.651 .0237242
935.288 .0237037
935.924 .0236821
936.560 .0236601
937.196 .0236382
937.831 .0236169
938.466 .0235968
939.100 .0235776
939.734 .0235595
940.368 .0235420
941.001 .0235248
941.634 .0235073
942.266 .0234893
942.899 .0234705
943.530 .0234510
944.162 .0234308
944.793 .0234100
945.423 .0233887
946.053 .0233679
946.683 .0233474
947.313 .0233274
947.942 .0233079
948.571 .0232885
949.199 .0232689
949.827 .0232487
950.455 .0232278
951.082 .0232063
951.709 .0231845
952.335 .0231625
952.961 .0231402
953.587 .0231184
954.212 .0230974
954.837 .0230771
955.462 .0230573
956.086 .0230383
956.710 .0230192
957.334 .0230001
957.957 .0229807
958.579 .0229611
959.202 .0229416
959.824 .0229226
960.445 .0229047
961.067 .0228880
961.688 .0228727
962.308 .0228587
962.928 .0228461
963.548 .0228345
964.168 .0228230
964.787 .0228112
965.406 .0227991
966.024 .0227867
966.642 .0227740
967.260 .0227614
967.877 .0227493
968.494 .0227379
969.110 .0227271
969.727 .0227168
970.342 .0227073
970.958 .0226983
971.573 .0226898
972.188 .0226821
972.802 .0226752
973.416 .0226692
974.030 .0226638
974.643 .0226590
975.256 .0226548
975.869 .0226501
976.481 .0226449
977.093 .0226391
977.705 .0226325
978.316 .0226256
978.927 .0226185
979.538 .0226112
980.148 .0226039
980.758 .0225963
981.367 .0225886
981.977 .0225803
982.586 .0225710
983.194 .0225610
983.802 .0225506
984.410 .0225398
985.018 .0225294
985.625 .0225191
986.232 .0225103
986.838 .0225030
987.445 .0224968
988.050 .0224913
988.656 .0224861
989.261 .0224809
989.866 .0224744
990.471 .0224670
991.075 .0224590
991.679 .0224494
992.282 .0224398
992.886 .0224299
993.489 .0224206
994.091 .0224118
994.694 .0224043
995.296 .0223976
995.897 .0223922
996.499 .0223878
997.100 .0223836
997.701 .0223802
998.301 .0223781
998.901 .0223766
999.501 .0223756
1000.101 .0223759
1000.700 .0223772
1001.299 .0223790
1001.898 .0223820
1002.496 .0223852
1003.094 .0223887
1003.692 .0223919
1004.289 .0223942
1004.887 .0223954
1005.484 .0223953
1006.080 .0223938
1006.677 .0223912
1007.273 .0223876
1007.868 .0223840
1008.464 .0223805
1009.059 .0223780
1009.654 .0223769
1010.249 .0223776
1010.843 .0223795
1011.437 .0223823
1012.031 .0223852
1012.625 .0223885
1013.218 .0223909
1013.811 .0223930
1014.404 .0223950
1014.997 .0223971
1015.589 .0223996
1016.181 .0224036
1016.773 .0224084
1017.365 .0224144
1017.956 .0224206
1018.547 .0224267
1019.138 .0224321
1019.728 .0224372
1020.319 .0224411
1020.909 .0224448
1021.499 .0224487
1022.088 .0224531
1022.678 .0224571
1023.267 .0224622
1023.856 .0224676
1024.445 .0224733
1025.033 .0224792
1025.621 .0224850
1026.209 .0224904
1026.797 .0224951
1027.385 .0224989
1027.972 .0225019
1028.560 .0225046
1029.147 .0225068
1029.734 .0225079
1030.320 .0225099
1030.907 .0225120
1031.493 .0225147
1032.079 .0225185
1032.665 .0225241
1033.250 .0225308
1033.836 .0225383
1034.421 .0225462
1035.006 .0225546
1035.591 .0225633
1036.176 .0225717
1036.761 .0225788
1037.345 .0225858
1037.929 .0225919
1038.514 .0225968
1039.097 .0226004
1039.681 .0226036
1040.265 .0226053
1040.848 .0226065
1041.432 .0226061
1042.015 .0226044
1042.598 .0226015
1043.181 .0225981
1043.764 .0225939
1044.346 .0225897
1044.929 .0225855
1045.511 .0225823
1046.094 .0225796
1046.676 .0225787
1047.258 .0225787
1047.840 .0225810
1048.422 .0225854
1049.003 .0225925
1049.585 .0226021
1050.166 .0226140
1050.748 .0226274
1051.329 .0226424
1051.910 .0226572
1052.491 .0226712
1053.072 .0226830
1053.653 .0226925
1054.234 .0226998
1054.815 .0227045
1055.396 .0227074
1055.976 .0227092
1056.557 .0227109
1057.138 .0227129
1057.718 .0227135
1058.298 .0227127
1058.879 .0227094
1059.459 .0227033
1060.039 .0226941
1060.620 .0226806
1061.200 .0226654
1061.780 .0226499
1062.360 .0226349
1062.940 .0226225
1063.520 .0226131
1064.101 .0226068
1064.681 .0226029
1065.261 .0225996
1065.841 .0225961
1066.421 .0225919
1067.001 .0225870
1067.581 .0225817
1068.161 .0225763
1068.741 .0225733
1069.321 .0225720
1069.901 .0225737
1070.482 .0225790
1071.062 .0225851
1071.642 .0225925
1072.222 .0226003
1072.803 .0226068
1073.383 .0226127
1073.963 .0226175
1074.544 .0226214
1075.124 .0226243
1075.705 .0226265
1076.286 .0226281
1076.866 .0226289
1077.447 .0226296
1078.028 .0226288
1078.609 .0226272
1079.190 .0226255
1079.771 .0226226
1080.352 .0226193
1080.934 .0226179
1081.515 .0226176
1082.097 .0226194
1082.679 .0226245
1083.260 .0226319
1083.842 .0226427
1084.424 .0226571
1085.007 .0226736
1085.589 .0226925
1086.172 .0227123
1086.754 .0227313
1087.337 .0227486
1087.920 .0227663
1088.503 .0227813
1089.087 .0227938
1089.670 .0228048
1090.254 .0228139
1090.838 .0228195
1091.422 .0228226
1092.006 .0228236
1092.590 .0228208
1093.175 .0228155
1093.760 .0228073
1094.345 .0227943
1094.930 .0227796
1095.516 .0227642
1096.102 .0227493
1096.688 .0227359
1097.274 .0227250
1097.860 .0227158
1098.447 .0227085
1099.034 .0227047
1099.622 .0227011
1100.209 .0226997
1100.797 .0227005
1101.385 .0227031
1101.973 .0227051
1102.562 .0227082
1103.151 .0227118
1103.740 .0227150
1104.330 .0227180
1104.920 .0227201
1105.510 .0227196
1106.101 .0227187
1106.691 .0227180
1107.283 .0227190
1107.874 .0227228
1108.466 .0227318
1109.058 .0227443
1109.651 .0227603
1110.244 .0227777
1110.837 .0227954
1111.431 .0228116
1112.025 .0228253
1112.620 .0228364
1113.215 .0228448
1113.810 .0228522
1114.406 .0228615
1115.002 .0228734
1115.599 .0228889
1116.196 .0229062
1116.793 .0229249
1117.391 .0229425
1117.989 .0229550
1118.588 .0229643
1119.187 .0229676
1119.787 .0229673
1120.387 .0229632
1120.988 .0229575
1121.589 .0229527
1122.190 .0229510
1122.793 .0229540
1123.395 .0229599
1123.998 .0229703
1124.602 .0229838
1125.206 .0229960
1125.811 .0230076
1126.416 .0230146
1127.022 .0230178
1127.628 .0230165
1128.235 .0230129
1128.843 .0230089
1129.451 .0230061
1130.059 .0230054
1130.669 .0230086
1131.278 .0230162
1131.889 .0230243
1132.500 .0230331
1133.112 .0230445
1133.724 .0230578
1134.337 .0230712
1134.950 .0230855
1135.564 .0231054
1136.179 .0231308
1136.795 .0231649
1137.411 .0232040
1138.028 .0232505
1138.645 .0233032
1139.263 .0233627
1139.882 .0234244
1140.502 .0234914
1141.122 .0235573
1141.743 .0236317
1142.365 .0236902
1142.987 .0237653
1143.611 .0239050
1144.235 .0238123
1144.859 .0241135
1145.485 .0236938
