Measurement Sequence started on: 10-20-44-796
Integration time: 35
Scans to Average: 2 
>>>>>Begin Spectral Data<<<<<
432.953 .0399371
433.882 .0467413
434.810 .0394378
435.737 .0368069
436.662 .0365438
437.586 .0373929
438.509 .0367268
439.431 .0360152
440.351 .0356187
441.269 .0353444
442.187 .0351333
443.103 .0349759
444.018 .0349091
444.932 .0349200
445.844 .0349539
446.756 .0349748
447.666 .0349975
448.575 .0349923
449.482 .0349528
450.388 .0348923
451.294 .0348280
452.198 .0347646
453.100 .0347143
454.002 .0346885
454.902 .0346602
455.801 .0346319
456.699 .0346006
457.596 .0345465
458.492 .0344657
459.387 .0343659
460.280 .0342397
461.172 .0340933
462.064 .0339531
462.954 .0338128
463.843 .0336892
464.730 .0335908
465.617 .0335132
466.503 .0334503
467.387 .0333918
468.271 .0333289
469.153 .0332540
470.035 .0331747
470.915 .0330927
471.794 .0330072
472.673 .0329362
473.550 .0328808
474.426 .0328456
475.301 .0328308
476.175 .0328367
477.048 .0328492
477.920 .0328694
478.791 .0328907
479.661 .0329111
480.530 .0329315
481.398 .0329517
482.266 .0329753
483.132 .0330074
483.997 .0330441
484.861 .0330846
485.724 .0331268
486.587 .0331688
487.448 .0331989
488.308 .0332175
489.168 .0332252
490.026 .0332220
490.884 .0332121
491.741 .0332009
492.597 .0331863
493.452 .0331698
494.306 .0331518
495.159 .0331279
496.011 .0330970
496.862 .0330595
497.713 .0330048
498.562 .0329325
499.411 .0328482
500.259 .0327493
501.106 .0326381
501.952 .0325268
502.798 .0324175
503.642 .0323062
504.486 .0321997
505.329 .0320899
506.171 .0319748
507.012 .0318565
507.852 .0317317
508.692 .0315985
509.531 .0314583
510.369 .0313189
511.206 .0311763
512.043 .0310428
512.878 .0309249
513.713 .0308133
514.547 .0307150
515.381 .0306275
516.213 .0305418
517.045 .0304526
517.876 .0303595
518.706 .0302600
519.536 .0301492
520.365 .0300262
521.193 .0298907
522.020 .0297460
522.847 .0295992
523.673 .0294571
524.498 .0293148
525.323 .0291841
526.146 .0290607
526.969 .0289373
527.792 .0288175
528.614 .0286963
529.435 .0285749
530.255 .0284483
531.075 .0283225
531.894 .0281992
532.712 .0280678
533.530 .0279447
534.347 .0278243
535.163 .0277006
535.979 .0275780
536.794 .0274531
537.608 .0273240
538.422 .0272000
539.235 .0270908
540.048 .0269976
540.860 .0269324
541.671 .0268937
542.481 .0268705
543.292 .0268647
544.101 .0268744
544.910 .0268884
545.718 .0269095
546.526 .0269427
547.333 .0269855
548.139 .0270442
548.945 .0271285
549.750 .0272272
550.555 .0273439
551.359 .0274663
552.162 .0275787
552.965 .0276785
553.768 .0277543
554.569 .0278032
555.371 .0278376
556.171 .0278572
556.972 .0278676
557.771 .0278735
558.570 .0278814
559.369 .0278900
560.167 .0278997
560.964 .0279149
561.761 .0279311
562.558 .0279531
563.354 .0279839
564.149 .0280162
564.944 .0280629
565.738 .0281179
566.532 .0281768
567.325 .0282467
568.118 .0283202
568.910 .0283950
569.702 .0284723
570.494 .0285575
571.285 .0286507
572.075 .0287514
572.865 .0288581
573.654 .0289697
574.443 .0290835
575.232 .0291979
576.020 .0293063
576.807 .0294117
577.594 .0295147
578.381 .0296119
579.167 .0297039
579.952 .0297935
580.738 .0298786
581.522 .0299619
582.307 .0300370
583.091 .0301064
583.874 .0301694
584.657 .0302208
585.440 .0302623
586.222 .0302941
587.004 .0303181
587.785 .0303359
588.566 .0303488
589.346 .0303575
590.126 .0303626
590.906 .0303664
591.685 .0303680
592.464 .0303695
593.242 .0303720
594.020 .0303731
594.797 .0303740
595.575 .0303747
596.351 .0303725
597.128 .0303668
597.904 .0303600
598.679 .0303509
599.454 .0303385
600.229 .0303249
601.004 .0303102
601.778 .0302950
602.551 .0302810
603.325 .0302668
604.097 .0302526
604.870 .0302391
605.642 .0302239
606.414 .0302069
607.185 .0301892
607.956 .0301711
608.727 .0301520
609.497 .0301339
610.267 .0301167
611.037 .0301000
611.806 .0300839
612.575 .0300689
613.344 .0300529
614.112 .0300359
614.880 .0300171
615.647 .0299964
616.414 .0299750
617.181 .0299536
617.948 .0299317
618.714 .0299124
619.480 .0298953
620.245 .0298799
621.011 .0298652
621.775 .0298522
622.540 .0298396
623.304 .0298270
624.068 .0298153
624.832 .0298051
625.595 .0297964
626.358 .0297903
627.120 .0297856
627.883 .0297810
628.645 .0297764
629.406 .0297703
630.168 .0297615
630.929 .0297500
631.689 .0297353
632.450 .0297175
633.210 .0296987
633.970 .0296805
634.729 .0296632
635.489 .0296466
636.248 .0296315
637.006 .0296164
637.765 .0295995
638.523 .0295803
639.280 .0295585
640.038 .0295342
640.795 .0295095
641.552 .0294841
642.309 .0294604
643.065 .0294392
643.821 .0294219
644.577 .0294074
645.332 .0293946
646.088 .0293822
646.843 .0293684
647.597 .0293521
648.352 .0293351
649.106 .0293175
649.860 .0293005
650.613 .0292852
651.367 .0292736
652.120 .0292655
652.872 .0292610
653.625 .0292588
654.377 .0292579
655.129 .0292562
655.881 .0292532
656.632 .0292463
657.384 .0292361
658.135 .0292243
658.885 .0292109
659.636 .0291965
660.386 .0291825
661.136 .0291688
661.885 .0291551
662.635 .0291414
663.384 .0291275
664.133 .0291119
664.881 .0290956
665.630 .0290787
666.378 .0290617
667.126 .0290454
667.874 .0290301
668.621 .0290154
669.368 .0290019
670.115 .0289889
670.862 .0289752
671.608 .0289608
672.354 .0289458
673.100 .0289296
673.846 .0289130
674.591 .0288967
675.337 .0288812
676.082 .0288664
676.826 .0288523
677.571 .0288372
678.315 .0288214
679.059 .0288043
679.803 .0287859
680.547 .0287667
681.290 .0287468
682.033 .0287269
682.776 .0287076
683.518 .0286895
684.261 .0286725
685.003 .0286565
685.745 .0286412
686.487 .0286253
687.228 .0286086
687.969 .0285905
688.710 .0285716
689.451 .0285520
690.192 .0285322
690.932 .0285113
691.672 .0284895
692.412 .0284670
693.152 .0284433
693.891 .0284193
694.630 .0283945
695.369 .0283696
696.108 .0283449
696.846 .0283203
697.585 .0282964
698.323 .0282736
699.061 .0282521
699.798 .0282315
700.536 .0282109
701.273 .0281906
702.010 .0281706
702.746 .0281511
703.483 .0281320
704.219 .0281134
704.955 .0280953
705.691 .0280778
706.427 .0280596
707.162 .0280422
707.897 .0280247
708.632 .0280071
709.367 .0279893
710.101 .0279713
710.835 .0279535
711.569 .0279362
712.303 .0279187
713.037 .0279017
713.770 .0278845
714.503 .0278675
715.236 .0278495
715.969 .0278318
716.702 .0278147
717.434 .0277984
718.166 .0277825
718.898 .0277682
719.629 .0277537
720.361 .0277400
721.092 .0277261
721.823 .0277114
722.554 .0276960
723.284 .0276796
724.014 .0276612
724.744 .0276416
725.474 .0276204
726.204 .0275987
726.933 .0275758
727.662 .0275529
728.391 .0275291
729.120 .0275049
729.849 .0274802
730.577 .0274557
731.305 .0274310
732.033 .0274070
732.760 .0273830
733.488 .0273596
734.215 .0273369
734.942 .0273149
735.669 .0272941
736.395 .0272749
737.122 .0272569
737.848 .0272410
738.573 .0272259
739.299 .0272122
740.024 .0272000
740.750 .0271891
741.474 .0271791
742.199 .0271696
742.924 .0271605
743.648 .0271512
744.372 .0271416
745.096 .0271320
745.819 .0271222
746.543 .0271124
747.266 .0271027
747.989 .0270927
748.711 .0270836
749.434 .0270757
750.156 .0270693
750.878 .0270654
751.599 .0270639
752.321 .0270645
753.042 .0270669
753.763 .0270707
754.484 .0270759
755.205 .0270811
755.925 .0270866
756.645 .0270916
757.365 .0270961
758.085 .0271001
758.804 .0271032
759.523 .0271051
760.242 .0271056
760.961 .0271032
761.679 .0270979
762.397 .0270890
763.115 .0270763
763.833 .0270600
764.551 .0270412
765.268 .0270206
765.985 .0269988
766.702 .0269761
767.418 .0269536
768.134 .0269313
768.850 .0269100
769.566 .0268889
770.282 .0268687
770.997 .0268494
771.712 .0268312
772.427 .0268142
773.142 .0267986
773.856 .0267846
774.570 .0267721
775.284 .0267609
775.998 .0267511
776.711 .0267421
777.424 .0267344
778.137 .0267276
778.849 .0267216
779.562 .0267156
780.274 .0267095
780.986 .0267031
781.697 .0266963
782.409 .0266891
783.120 .0266820
783.831 .0266749
784.541 .0266689
785.252 .0266640
785.962 .0266599
786.671 .0266566
787.381 .0266534
788.090 .0266501
788.799 .0266460
789.508 .0266404
790.217 .0266334
790.925 .0266253
791.633 .0266166
792.341 .0266072
793.048 .0265976
793.755 .0265884
794.462 .0265794
795.169 .0265713
795.875 .0265632
796.581 .0265548
797.287 .0265468
797.993 .0265391
798.698 .0265314
799.403 .0265240
800.108 .0265167
800.812 .0265091
801.517 .0265013
802.221 .0264931
802.924 .0264841
803.628 .0264751
804.331 .0264660
805.034 .0264568
805.736 .0264470
806.439 .0264371
807.141 .0264267
807.843 .0264162
808.544 .0264049
809.245 .0263918
809.946 .0263768
810.647 .0263605
811.347 .0263428
812.047 .0263238
812.747 .0263041
813.447 .0262846
814.146 .0262651
814.845 .0262463
815.543 .0262282
816.242 .0262120
816.940 .0261971
817.638 .0261839
818.335 .0261720
819.032 .0261612
819.729 .0261514
820.426 .0261422
821.122 .0261336
821.818 .0261253
822.514 .0261168
823.209 .0261084
823.905 .0261000
824.599 .0260918
825.294 .0260831
825.988 .0260736
826.682 .0260624
827.376 .0260493
828.069 .0260336
828.762 .0260149
829.455 .0259938
830.147 .0259709
830.840 .0259466
831.531 .0259220
832.223 .0258983
832.914 .0258754
833.605 .0258539
834.296 .0258335
834.986 .0258144
835.676 .0257962
836.366 .0257788
837.055 .0257627
837.744 .0257478
838.433 .0257350
839.121 .0257238
839.809 .0257144
840.497 .0257077
841.185 .0257024
841.872 .0256979
842.559 .0256938
843.245 .0256886
843.932 .0256827
844.617 .0256752
845.303 .0256666
845.988 .0256566
846.673 .0256459
847.358 .0256345
848.042 .0256226
848.726 .0256104
849.410 .0255976
850.093 .0255835
850.776 .0255686
851.459 .0255517
852.141 .0255331
852.823 .0255131
853.505 .0254926
854.186 .0254715
854.867 .0254509
855.548 .0254305
856.228 .0254116
856.908 .0253933
857.588 .0253754
858.267 .0253575
858.946 .0253394
859.625 .0253209
860.303 .0253020
860.981 .0252839
861.659 .0252669
862.336 .0252517
863.013 .0252388
863.690 .0252275
864.366 .0252176
865.042 .0252079
865.718 .0251983
866.393 .0251882
867.068 .0251778
867.743 .0251670
868.417 .0251563
869.091 .0251469
869.765 .0251378
870.438 .0251291
871.111 .0251208
871.783 .0251120
872.456 .0251021
873.127 .0250909
873.799 .0250781
874.470 .0250645
875.141 .0250502
875.811 .0250357
876.481 .0250215
877.151 .0250080
877.820 .0249950
878.489 .0249818
879.158 .0249687
879.826 .0249556
880.494 .0249422
881.162 .0249292
881.829 .0249168
882.496 .0249047
883.163 .0248931
883.829 .0248816
884.495 .0248703
885.160 .0248592
885.825 .0248483
886.490 .0248377
887.154 .0248279
887.818 .0248195
888.482 .0248119
889.145 .0248045
889.808 .0247978
890.471 .0247903
891.133 .0247815
891.795 .0247707
892.456 .0247581
893.117 .0247436
893.778 .0247284
894.439 .0247131
895.099 .0246981
895.758 .0246844
896.417 .0246715
897.076 .0246595
897.735 .0246482
898.393 .0246377
899.051 .0246277
899.708 .0246185
900.365 .0246104
901.022 .0246032
901.678 .0245979
902.334 .0245943
902.990 .0245928
903.645 .0245932
904.300 .0245952
904.954 .0245982
905.608 .0246018
906.262 .0246061
906.915 .0246102
907.568 .0246140
908.221 .0246170
908.873 .0246191
909.525 .0246201
910.176 .0246194
910.828 .0246173
911.478 .0246139
912.129 .0246094
912.778 .0246035
913.428 .0245968
914.077 .0245893
914.726 .0245811
915.375 .0245720
916.023 .0245622
916.670 .0245520
917.318 .0245409
917.964 .0245289
918.611 .0245161
919.257 .0245029
919.903 .0244887
920.548 .0244735
921.193 .0244579
921.838 .0244418
922.482 .0244257
923.126 .0244099
923.770 .0243950
924.413 .0243807
925.056 .0243674
925.698 .0243552
926.340 .0243441
926.982 .0243344
927.623 .0243255
928.264 .0243181
928.904 .0243117
929.544 .0243060
930.184 .0243009
930.823 .0242959
931.462 .0242913
932.101 .0242869
932.739 .0242825
933.377 .0242780
934.014 .0242736
934.651 .0242699
935.288 .0242663
935.924 .0242631
936.560 .0242603
937.196 .0242572
937.831 .0242537
938.466 .0242490
939.100 .0242432
939.734 .0242365
940.368 .0242297
941.001 .0242224
941.634 .0242157
942.266 .0242100
942.899 .0242045
943.530 .0241987
944.162 .0241927
944.793 .0241855
945.423 .0241756
946.053 .0241637
946.683 .0241497
947.313 .0241338
947.942 .0241174
948.571 .0241005
949.199 .0240846
949.827 .0240698
950.455 .0240558
951.082 .0240423
951.709 .0240294
952.335 .0240171
952.961 .0240036
953.587 .0239903
954.212 .0239769
954.837 .0239633
955.462 .0239504
956.086 .0239388
956.710 .0239280
957.334 .0239182
957.957 .0239089
958.579 .0238996
959.202 .0238905
959.824 .0238809
960.445 .0238705
961.067 .0238603
961.688 .0238501
962.308 .0238401
962.928 .0238304
963.548 .0238220
964.168 .0238136
964.787 .0238057
965.406 .0237978
966.024 .0237897
966.642 .0237817
967.260 .0237743
967.877 .0237670
968.494 .0237598
969.110 .0237527
969.727 .0237455
970.342 .0237385
970.958 .0237321
971.573 .0237260
972.188 .0237204
972.802 .0237160
973.416 .0237123
974.030 .0237087
974.643 .0237058
975.256 .0237031
975.869 .0236997
976.481 .0236958
977.093 .0236907
977.705 .0236851
978.316 .0236800
978.927 .0236758
979.538 .0236728
980.148 .0236712
980.758 .0236710
981.367 .0236716
981.977 .0236725
982.586 .0236738
983.194 .0236747
983.802 .0236752
984.410 .0236755
985.018 .0236758
985.625 .0236766
986.232 .0236780
986.838 .0236803
987.445 .0236836
988.050 .0236869
988.656 .0236900
989.261 .0236923
989.866 .0236932
990.471 .0236928
991.075 .0236908
991.679 .0236871
992.282 .0236824
992.886 .0236772
993.489 .0236720
994.091 .0236670
994.694 .0236633
995.296 .0236612
995.897 .0236604
996.499 .0236613
997.100 .0236633
997.701 .0236658
998.301 .0236693
998.901 .0236731
999.501 .0236779
1000.101 .0236836
1000.700 .0236904
1001.299 .0236975
1001.898 .0237055
1002.496 .0237140
1003.094 .0237222
1003.692 .0237296
1004.289 .0237363
1004.887 .0237416
1005.484 .0237460
1006.080 .0237488
1006.677 .0237506
1007.273 .0237518
1007.868 .0237525
1008.464 .0237518
1009.059 .0237502
1009.654 .0237490
1010.249 .0237484
1010.843 .0237482
1011.437 .0237492
1012.031 .0237514
1012.625 .0237554
1013.218 .0237606
1013.811 .0237656
1014.404 .0237710
1014.997 .0237752
1015.589 .0237771
1016.181 .0237766
1016.773 .0237743
1017.365 .0237697
1017.956 .0237633
1018.547 .0237560
1019.138 .0237484
1019.728 .0237403
1020.319 .0237318
1020.909 .0237229
1021.499 .0237147
1022.088 .0237067
1022.678 .0236969
1023.267 .0236860
1023.856 .0236761
1024.445 .0236659
1025.033 .0236564
1025.621 .0236478
1026.209 .0236406
1026.797 .0236348
1027.385 .0236303
1027.972 .0236275
1028.560 .0236266
1029.147 .0236286
1029.734 .0236315
1030.320 .0236347
1030.907 .0236389
1031.493 .0236418
1032.079 .0236436
1032.665 .0236452
1033.250 .0236461
1033.836 .0236453
1034.421 .0236448
1035.006 .0236450
1035.591 .0236474
1036.176 .0236527
1036.761 .0236602
1037.345 .0236695
1037.929 .0236804
1038.514 .0236906
1039.097 .0236984
1039.681 .0237044
1040.265 .0237091
1040.848 .0237118
1041.432 .0237142
1042.015 .0237153
1042.598 .0237156
1043.181 .0237163
1043.764 .0237162
1044.346 .0237143
1044.929 .0237102
1045.511 .0237036
1046.094 .0236948
1046.676 .0236848
1047.258 .0236738
1047.840 .0236628
1048.422 .0236539
1049.003 .0236455
1049.585 .0236374
1050.166 .0236296
1050.748 .0236228
1051.329 .0236165
1051.910 .0236110
1052.491 .0236080
1053.072 .0236051
1053.653 .0236047
1054.234 .0236060
1054.815 .0236078
1055.396 .0236100
1055.976 .0236107
1056.557 .0236103
1057.138 .0236087
1057.718 .0236055
1058.298 .0236004
1058.879 .0235937
1059.459 .0235878
1060.039 .0235788
1060.620 .0235664
1061.200 .0235511
1061.780 .0235328
1062.360 .0235104
1062.940 .0234868
1063.520 .0234619
1064.101 .0234370
1064.681 .0234137
1065.261 .0233909
1065.841 .0233693
1066.421 .0233485
1067.001 .0233279
1067.581 .0233073
1068.161 .0232878
1068.741 .0232716
1069.321 .0232582
1069.901 .0232514
1070.482 .0232509
1071.062 .0232543
1071.642 .0232616
1072.222 .0232694
1072.803 .0232756
1073.383 .0232791
1073.963 .0232793
1074.544 .0232769
1075.124 .0232734
1075.705 .0232700
1076.286 .0232676
1076.866 .0232677
1077.447 .0232688
1078.028 .0232687
1078.609 .0232673
1079.190 .0232625
1079.771 .0232529
1080.352 .0232389
1080.934 .0232231
1081.515 .0232074
1082.097 .0231943
1082.679 .0231865
1083.260 .0231834
1083.842 .0231851
1084.424 .0231898
1085.007 .0231948
1085.589 .0231994
1086.172 .0232002
1086.754 .0231985
1087.337 .0231950
1087.920 .0231912
1088.503 .0231891
1089.087 .0231891
1089.670 .0231944
1090.254 .0232051
1090.838 .0232189
1091.422 .0232353
1092.006 .0232534
1092.590 .0232717
1093.175 .0232878
1093.760 .0233005
1094.345 .0233100
1094.930 .0233168
1095.516 .0233194
1096.102 .0233215
1096.688 .0233223
1097.274 .0233236
1097.860 .0233258
1098.447 .0233251
1099.034 .0233230
1099.622 .0233156
1100.209 .0233029
1100.797 .0232846
1101.385 .0232600
1101.973 .0232316
1102.562 .0232007
1103.151 .0231728
1103.740 .0231486
1104.330 .0231279
1104.920 .0231124
1105.510 .0231014
1106.101 .0230935
1106.691 .0230855
1107.283 .0230808
1107.874 .0230782
1108.466 .0230798
1109.058 .0230837
1109.651 .0230927
1110.244 .0231051
1110.837 .0231206
1111.431 .0231386
1112.025 .0231565
1112.620 .0231728
1113.215 .0231878
1113.810 .0232012
1114.406 .0232158
1115.002 .0232278
1115.599 .0232375
1116.196 .0232425
1116.793 .0232441
1117.391 .0232365
1117.989 .0232192
1118.588 .0231978
1119.187 .0231753
1119.787 .0231499
1120.387 .0231270
1120.988 .0231103
1121.589 .0230997
1122.190 .0230927
1122.793 .0230889
1123.395 .0230828
1123.998 .0230749
1124.602 .0230648
1125.206 .0230545
1125.811 .0230451
1126.416 .0230421
1127.022 .0230451
1127.628 .0230583
1128.235 .0230812
1128.843 .0231086
1129.451 .0231394
1130.059 .0231778
1130.669 .0232166
1131.278 .0232521
1131.889 .0232853
1132.500 .0233200
1133.112 .0233518
1133.724 .0233807
1134.337 .0234022
1134.950 .0234189
1135.564 .0234288
1136.179 .0234314
1136.795 .0234274
1137.411 .0234293
1138.028 .0234343
1138.645 .0234491
1139.263 .0234651
1139.882 .0234877
1140.502 .0235153
1141.122 .0235475
1141.743 .0235996
1142.365 .0237147
1142.987 .0235499
1143.611 .0236918
1144.235 .0237639
1144.859 .0243281
1145.485 .0257184
