Measurement Sequence started on: 10-20-44-796
Integration time: 35
Scans to Average: 2 
>>>>>Begin Spectral Data<<<<<
432.953 .0379742
433.882 .0430570
434.810 .0425079
435.737 .0398166
436.662 .0388783
437.586 .0381684
438.509 .0375653
439.431 .0368872
440.351 .0363291
441.269 .0359071
442.187 .0355490
443.103 .0352591
444.018 .0349916
444.932 .0347646
445.844 .0345748
446.756 .0344256
447.666 .0343274
448.575 .0342588
449.482 .0342030
450.388 .0341509
451.294 .0340939
452.198 .0340274
453.100 .0339579
454.002 .0338960
454.902 .0338361
455.801 .0337891
456.699 .0337650
457.596 .0337611
458.492 .0337658
459.387 .0337829
460.280 .0338019
461.172 .0338184
462.064 .0338292
462.954 .0338338
463.843 .0338325
464.730 .0338333
465.617 .0338353
466.503 .0338375
467.387 .0338355
468.271 .0338339
469.153 .0338264
470.035 .0338157
470.915 .0338055
471.794 .0337922
472.673 .0337805
473.550 .0337753
474.426 .0337747
475.301 .0337795
476.175 .0337899
477.048 .0338006
477.920 .0338067
478.791 .0338044
479.661 .0337934
480.530 .0337716
481.398 .0337423
482.266 .0337083
483.132 .0336717
483.997 .0336355
484.861 .0336014
485.724 .0335672
486.587 .0335358
487.448 .0335035
488.308 .0334662
489.168 .0334215
490.026 .0333697
490.884 .0333110
491.741 .0332470
492.597 .0331805
493.452 .0331171
494.306 .0330561
495.159 .0330004
496.011 .0329495
496.862 .0329031
497.713 .0328580
498.562 .0328093
499.411 .0327557
500.259 .0326965
501.106 .0326291
501.952 .0325524
502.798 .0324722
503.642 .0323909
504.486 .0323105
505.329 .0322302
506.171 .0321534
507.012 .0320816
507.852 .0320125
508.692 .0319436
509.531 .0318734
510.369 .0318027
511.206 .0317301
512.043 .0316475
512.878 .0315597
513.713 .0314591
514.547 .0313464
515.381 .0312209
516.213 .0310886
517.045 .0309483
517.876 .0308020
518.706 .0306513
519.536 .0304990
520.365 .0303420
521.193 .0301803
522.020 .0300110
522.847 .0298358
523.673 .0296536
524.498 .0294588
525.323 .0292551
526.146 .0290580
526.969 .0288682
527.792 .0286951
528.614 .0285385
529.435 .0284038
530.255 .0282815
531.075 .0281633
531.894 .0280537
532.712 .0279410
533.530 .0278225
534.347 .0277034
535.163 .0275779
535.979 .0274590
536.794 .0273458
537.608 .0272461
538.422 .0271634
539.235 .0270995
540.048 .0270552
540.860 .0270217
541.671 .0270066
542.481 .0270101
543.292 .0270199
544.101 .0270430
544.910 .0270766
545.718 .0271075
546.526 .0271416
547.333 .0271823
548.139 .0272287
548.945 .0272754
549.750 .0273233
550.555 .0273742
551.359 .0274237
552.162 .0274727
552.965 .0275209
553.768 .0275645
554.569 .0276178
555.371 .0276685
556.171 .0277236
556.972 .0277921
557.771 .0278711
558.570 .0279590
559.369 .0280573
560.167 .0281653
560.964 .0282772
561.761 .0283921
562.558 .0285128
563.354 .0286341
564.149 .0287547
564.944 .0288707
565.738 .0289805
566.532 .0290869
567.325 .0291881
568.118 .0292748
568.910 .0293534
569.702 .0294224
570.494 .0294834
571.285 .0295381
572.075 .0295914
572.865 .0296462
573.654 .0297011
574.443 .0297579
575.232 .0298129
576.020 .0298641
576.807 .0299130
577.594 .0299571
578.381 .0299998
579.167 .0300424
579.952 .0300863
580.738 .0301331
581.522 .0301839
582.307 .0302362
583.091 .0302874
583.874 .0303359
584.657 .0303789
585.440 .0304160
586.222 .0304471
587.004 .0304746
587.785 .0305006
588.566 .0305272
589.346 .0305548
590.126 .0305827
590.906 .0306100
591.685 .0306350
592.464 .0306554
593.242 .0306708
594.020 .0306803
594.797 .0306862
595.575 .0306888
596.351 .0306896
597.128 .0306900
597.904 .0306911
598.679 .0306920
599.454 .0306920
600.229 .0306900
601.004 .0306855
601.778 .0306780
602.551 .0306684
603.325 .0306567
604.097 .0306449
604.870 .0306337
605.642 .0306236
606.414 .0306146
607.185 .0306069
607.956 .0305995
608.727 .0305923
609.497 .0305849
610.267 .0305770
611.037 .0305679
611.806 .0305576
612.575 .0305460
613.344 .0305337
614.112 .0305205
614.880 .0305068
615.647 .0304923
616.414 .0304781
617.181 .0304638
617.948 .0304500
618.714 .0304372
619.480 .0304258
620.245 .0304154
621.011 .0304062
621.775 .0303974
622.540 .0303897
623.304 .0303818
624.068 .0303744
624.832 .0303664
625.595 .0303580
626.358 .0303483
627.120 .0303370
627.883 .0303240
628.645 .0303106
629.406 .0302952
630.168 .0302792
630.929 .0302627
631.689 .0302466
632.450 .0302307
633.210 .0302155
633.970 .0302003
634.729 .0301851
635.489 .0301687
636.248 .0301507
637.006 .0301307
637.765 .0301101
638.523 .0300890
639.280 .0300686
640.038 .0300501
640.795 .0300339
641.552 .0300198
642.309 .0300085
643.065 .0299985
643.821 .0299884
644.577 .0299766
645.332 .0299623
646.088 .0299455
646.843 .0299263
647.597 .0299053
648.352 .0298838
649.106 .0298632
649.860 .0298439
650.613 .0298262
651.367 .0298104
652.120 .0297957
652.872 .0297818
653.625 .0297681
654.377 .0297534
655.129 .0297374
655.881 .0297202
656.632 .0297019
657.384 .0296834
658.135 .0296652
658.885 .0296473
659.636 .0296308
660.386 .0296160
661.136 .0296025
661.885 .0295899
662.635 .0295783
663.384 .0295669
664.133 .0295550
664.881 .0295421
665.630 .0295275
666.378 .0295119
667.126 .0294957
667.874 .0294787
668.621 .0294620
669.368 .0294461
670.115 .0294303
670.862 .0294148
671.608 .0293995
672.354 .0293839
673.100 .0293674
673.846 .0293503
674.591 .0293326
675.337 .0293145
676.082 .0292962
676.826 .0292780
677.571 .0292603
678.315 .0292438
679.059 .0292276
679.803 .0292112
680.547 .0291954
681.290 .0291792
682.033 .0291628
682.776 .0291462
683.518 .0291295
684.261 .0291132
685.003 .0290971
685.745 .0290815
686.487 .0290667
687.228 .0290530
687.969 .0290400
688.710 .0290275
689.451 .0290159
690.192 .0290041
690.932 .0289919
691.672 .0289791
692.412 .0289659
693.152 .0289519
693.891 .0289373
694.630 .0289222
695.369 .0289066
696.108 .0288906
696.846 .0288741
697.585 .0288570
698.323 .0288398
699.061 .0288226
699.798 .0288047
700.536 .0287866
701.273 .0287691
702.010 .0287516
702.746 .0287346
703.483 .0287178
704.219 .0287011
704.955 .0286846
705.691 .0286683
706.427 .0286519
707.162 .0286358
707.897 .0286204
708.632 .0286056
709.367 .0285913
710.101 .0285779
710.835 .0285647
711.569 .0285511
712.303 .0285375
713.037 .0285231
713.770 .0285082
714.503 .0284928
715.236 .0284773
715.969 .0284624
716.702 .0284483
717.434 .0284356
718.166 .0284240
718.898 .0284137
719.629 .0284044
720.361 .0283955
721.092 .0283865
721.823 .0283767
722.554 .0283654
723.284 .0283525
724.014 .0283375
724.744 .0283206
725.474 .0283016
726.204 .0282813
726.933 .0282601
727.662 .0282385
728.391 .0282167
729.120 .0281957
729.849 .0281748
730.577 .0281545
731.305 .0281339
732.033 .0281135
732.760 .0280932
733.488 .0280737
734.215 .0280550
734.942 .0280377
735.669 .0280212
736.395 .0280063
737.122 .0279919
737.848 .0279774
738.573 .0279624
739.299 .0279461
740.024 .0279280
740.750 .0279085
741.474 .0278875
742.199 .0278662
742.924 .0278450
743.648 .0278248
744.372 .0278047
745.096 .0277861
745.819 .0277679
746.543 .0277497
747.266 .0277319
747.989 .0277150
748.711 .0276988
749.434 .0276843
750.156 .0276719
750.878 .0276620
751.599 .0276550
752.321 .0276511
753.042 .0276491
753.763 .0276490
754.484 .0276492
755.205 .0276493
755.925 .0276492
756.645 .0276484
757.365 .0276461
758.085 .0276421
758.804 .0276367
759.523 .0276293
760.242 .0276196
760.961 .0276079
761.679 .0275942
762.397 .0275788
763.115 .0275609
763.833 .0275412
764.551 .0275197
765.268 .0274967
765.985 .0274723
766.702 .0274469
767.418 .0274212
768.134 .0273951
768.850 .0273694
769.566 .0273443
770.282 .0273204
770.997 .0272981
771.712 .0272767
772.427 .0272569
773.142 .0272384
773.856 .0272210
774.570 .0272047
775.284 .0271895
775.998 .0271758
776.711 .0271627
777.424 .0271503
778.137 .0271381
778.849 .0271260
779.562 .0271135
780.274 .0271006
780.986 .0270873
781.697 .0270738
782.409 .0270602
783.120 .0270468
783.831 .0270345
784.541 .0270233
785.252 .0270130
785.962 .0270033
786.671 .0269936
787.381 .0269842
788.090 .0269740
788.799 .0269631
789.508 .0269515
790.217 .0269395
790.925 .0269271
791.633 .0269146
792.341 .0269021
793.048 .0268899
793.755 .0268779
794.462 .0268658
795.169 .0268532
795.875 .0268400
796.581 .0268259
797.287 .0268113
797.993 .0267959
798.698 .0267801
799.403 .0267642
800.108 .0267489
800.812 .0267343
801.517 .0267207
802.221 .0267080
802.924 .0266960
803.628 .0266842
804.331 .0266726
805.034 .0266612
805.736 .0266500
806.439 .0266389
807.141 .0266285
807.843 .0266192
808.544 .0266106
809.245 .0266026
809.946 .0265953
810.647 .0265881
811.347 .0265806
812.047 .0265724
812.747 .0265640
813.447 .0265552
814.146 .0265467
814.845 .0265391
815.543 .0265327
816.242 .0265277
816.940 .0265232
817.638 .0265185
818.335 .0265134
819.032 .0265069
819.729 .0264989
820.426 .0264892
821.122 .0264783
821.818 .0264664
822.514 .0264539
823.209 .0264414
823.905 .0264293
824.599 .0264172
825.294 .0264052
825.988 .0263922
826.682 .0263782
827.376 .0263627
828.069 .0263458
828.762 .0263280
829.455 .0263094
830.147 .0262909
830.840 .0262733
831.531 .0262568
832.223 .0262424
832.914 .0262297
833.605 .0262192
834.296 .0262105
834.986 .0262028
835.676 .0261958
836.366 .0261889
837.055 .0261815
837.744 .0261739
838.433 .0261654
839.121 .0261569
839.809 .0261481
840.497 .0261392
841.185 .0261305
841.872 .0261219
842.559 .0261135
843.245 .0261048
843.932 .0260958
844.617 .0260865
845.303 .0260760
845.988 .0260650
846.673 .0260538
847.358 .0260423
848.042 .0260317
848.726 .0260220
849.410 .0260137
850.093 .0260071
850.776 .0260016
851.459 .0259966
852.141 .0259919
852.823 .0259872
853.505 .0259818
854.186 .0259754
854.867 .0259689
855.548 .0259616
856.228 .0259545
856.908 .0259477
857.588 .0259412
858.267 .0259346
858.946 .0259279
859.625 .0259200
860.303 .0259106
860.981 .0258996
861.659 .0258869
862.336 .0258724
863.013 .0258570
863.690 .0258405
864.366 .0258237
865.042 .0258070
865.718 .0257908
866.393 .0257747
867.068 .0257588
867.743 .0257429
868.417 .0257270
869.091 .0257106
869.765 .0256940
870.438 .0256774
871.111 .0256613
871.783 .0256457
872.456 .0256305
873.127 .0256156
873.799 .0256016
874.470 .0255878
875.141 .0255747
875.811 .0255615
876.481 .0255486
877.151 .0255356
877.820 .0255227
878.489 .0255100
879.158 .0254973
879.826 .0254845
880.494 .0254720
881.162 .0254594
881.829 .0254470
882.496 .0254342
883.163 .0254214
883.829 .0254087
884.495 .0253963
885.160 .0253838
885.825 .0253718
886.490 .0253604
887.154 .0253499
887.818 .0253396
888.482 .0253295
889.145 .0253192
889.808 .0253088
890.471 .0252978
891.133 .0252866
891.795 .0252757
892.456 .0252652
893.117 .0252552
893.778 .0252459
894.439 .0252371
895.099 .0252284
895.758 .0252193
896.417 .0252098
897.076 .0251992
897.735 .0251884
898.393 .0251772
899.051 .0251664
899.708 .0251564
900.365 .0251475
901.022 .0251392
901.678 .0251317
902.334 .0251239
902.990 .0251158
903.645 .0251066
904.300 .0250966
904.954 .0250857
905.608 .0250743
906.262 .0250627
906.915 .0250521
907.568 .0250421
908.221 .0250334
908.873 .0250249
909.525 .0250171
910.176 .0250088
910.828 .0250003
911.478 .0249910
912.129 .0249808
912.778 .0249702
913.428 .0249599
914.077 .0249495
914.726 .0249397
915.375 .0249308
916.023 .0249228
916.670 .0249158
917.318 .0249095
917.964 .0249031
918.611 .0248967
919.257 .0248900
919.903 .0248827
920.548 .0248747
921.193 .0248665
921.838 .0248581
922.482 .0248492
923.126 .0248411
923.770 .0248328
924.413 .0248247
925.056 .0248172
925.698 .0248097
926.340 .0248021
926.982 .0247943
927.623 .0247859
928.264 .0247768
928.904 .0247671
929.544 .0247567
930.184 .0247451
930.823 .0247334
931.462 .0247210
932.101 .0247079
932.739 .0246942
933.377 .0246799
934.014 .0246642
934.651 .0246480
935.288 .0246312
935.924 .0246138
936.560 .0245966
937.196 .0245796
937.831 .0245633
938.466 .0245477
939.100 .0245333
939.734 .0245201
940.368 .0245080
941.001 .0244973
941.634 .0244872
942.266 .0244776
942.899 .0244683
943.530 .0244592
944.162 .0244501
944.793 .0244409
945.423 .0244310
946.053 .0244200
946.683 .0244080
947.313 .0243951
947.942 .0243809
948.571 .0243647
949.199 .0243473
949.827 .0243285
950.455 .0243080
951.082 .0242871
951.709 .0242658
952.335 .0242450
952.961 .0242250
953.587 .0242057
954.212 .0241866
954.837 .0241687
955.462 .0241521
956.086 .0241366
956.710 .0241223
957.334 .0241094
957.957 .0240972
958.579 .0240862
959.202 .0240767
959.824 .0240678
960.445 .0240599
961.067 .0240529
961.688 .0240461
962.308 .0240389
962.928 .0240317
963.548 .0240241
964.168 .0240159
964.787 .0240077
965.406 .0239994
966.024 .0239913
966.642 .0239845
967.260 .0239790
967.877 .0239749
968.494 .0239722
969.110 .0239704
969.727 .0239687
970.342 .0239675
970.958 .0239658
971.573 .0239643
972.188 .0239627
972.802 .0239619
973.416 .0239618
974.030 .0239626
974.643 .0239647
975.256 .0239676
975.869 .0239714
976.481 .0239751
977.093 .0239785
977.705 .0239816
978.316 .0239839
978.927 .0239857
979.538 .0239868
980.148 .0239880
980.758 .0239891
981.367 .0239905
981.977 .0239916
982.586 .0239927
983.194 .0239937
983.802 .0239945
984.410 .0239951
985.018 .0239953
985.625 .0239955
986.232 .0239958
986.838 .0239959
987.445 .0239961
988.050 .0239954
988.656 .0239949
989.261 .0239934
989.866 .0239911
990.471 .0239879
991.075 .0239842
991.679 .0239802
992.282 .0239764
992.886 .0239727
993.489 .0239688
994.091 .0239644
994.694 .0239598
995.296 .0239545
995.897 .0239483
996.499 .0239410
997.100 .0239329
997.701 .0239239
998.301 .0239150
998.901 .0239063
999.501 .0238991
1000.101 .0238941
1000.700 .0238918
1001.299 .0238910
1001.898 .0238919
1002.496 .0238943
1003.094 .0238977
1003.692 .0239017
1004.289 .0239067
1004.887 .0239125
1005.484 .0239188
1006.080 .0239260
1006.677 .0239335
1007.273 .0239411
1007.868 .0239490
1008.464 .0239564
1009.059 .0239634
1009.654 .0239696
1010.249 .0239747
1010.843 .0239786
1011.437 .0239816
1012.031 .0239832
1012.625 .0239834
1013.218 .0239815
1013.811 .0239783
1014.404 .0239734
1014.997 .0239669
1015.589 .0239592
1016.181 .0239514
1016.773 .0239439
1017.365 .0239367
1017.956 .0239298
1018.547 .0239238
1019.138 .0239172
1019.728 .0239110
1020.319 .0239038
1020.909 .0238963
1021.499 .0238887
1022.088 .0238812
1022.678 .0238743
1023.267 .0238695
1023.856 .0238668
1024.445 .0238667
1025.033 .0238685
1025.621 .0238716
1026.209 .0238750
1026.797 .0238776
1027.385 .0238792
1027.972 .0238795
1028.560 .0238787
1029.147 .0238777
1029.734 .0238768
1030.320 .0238769
1030.907 .0238774
1031.493 .0238792
1032.079 .0238819
1032.665 .0238840
1033.250 .0238856
1033.836 .0238857
1034.421 .0238841
1035.006 .0238813
1035.591 .0238777
1036.176 .0238734
1036.761 .0238706
1037.345 .0238697
1037.929 .0238691
1038.514 .0238693
1039.097 .0238706
1039.681 .0238711
1040.265 .0238707
1040.848 .0238697
1041.432 .0238673
1042.015 .0238645
1042.598 .0238623
1043.181 .0238596
1043.764 .0238573
1044.346 .0238566
1044.929 .0238564
1045.511 .0238566
1046.094 .0238576
1046.676 .0238577
1047.258 .0238567
1047.840 .0238562
1048.422 .0238549
1049.003 .0238533
1049.585 .0238517
1050.166 .0238498
1050.748 .0238466
1051.329 .0238432
1051.910 .0238378
1052.491 .0238304
1053.072 .0238223
1053.653 .0238131
1054.234 .0238021
1054.815 .0237925
1055.396 .0237836
1055.976 .0237764
1056.557 .0237709
1057.138 .0237674
1057.718 .0237646
1058.298 .0237633
1058.879 .0237611
1059.459 .0237574
1060.039 .0237518
1060.620 .0237443
1061.200 .0237335
1061.780 .0237212
1062.360 .0237083
1062.940 .0236951
1063.520 .0236816
1064.101 .0236682
1064.681 .0236535
1065.261 .0236388
1065.841 .0236225
1066.421 .0236045
1067.001 .0235846
1067.581 .0235649
1068.161 .0235457
1068.741 .0235284
1069.321 .0235149
1069.901 .0235070
1070.482 .0235043
1071.062 .0235067
1071.642 .0235115
1072.222 .0235180
1072.803 .0235253
1073.383 .0235324
1073.963 .0235371
1074.544 .0235404
1075.124 .0235424
1075.705 .0235427
1076.286 .0235409
1076.866 .0235403
1077.447 .0235388
1078.028 .0235369
1078.609 .0235355
1079.190 .0235339
1079.771 .0235318
1080.352 .0235304
1080.934 .0235297
1081.515 .0235313
1082.097 .0235339
1082.679 .0235368
1083.260 .0235389
1083.842 .0235436
1084.424 .0235481
1085.007 .0235521
1085.589 .0235567
1086.172 .0235628
1086.754 .0235652
1087.337 .0235647
1087.920 .0235598
1088.503 .0235507
1089.087 .0235361
1089.670 .0235178
1090.254 .0234950
1090.838 .0234725
1091.422 .0234493
1092.006 .0234277
1092.590 .0234069
1093.175 .0233885
1093.760 .0233684
1094.345 .0233458
1094.930 .0233202
1095.516 .0232919
1096.102 .0232601
1096.688 .0232302
1097.274 .0232020
1097.860 .0231781
1098.447 .0231594
1099.034 .0231470
1099.622 .0231397
1100.209 .0231361
1100.797 .0231332
1101.385 .0231296
1101.973 .0231254
1102.562 .0231196
1103.151 .0231125
1103.740 .0231049
1104.330 .0231005
1104.920 .0231001
1105.510 .0231037
1106.101 .0231128
1106.691 .0231242
1107.283 .0231387
1107.874 .0231542
1108.466 .0231667
1109.058 .0231780
1109.651 .0231860
1110.244 .0231936
1110.837 .0231971
1111.431 .0231984
1112.025 .0231977
1112.620 .0231971
1113.215 .0231974
1113.810 .0231952
1114.406 .0231931
1115.002 .0231899
1115.599 .0231855
1116.196 .0231787
1116.793 .0231712
1117.391 .0231637
1117.989 .0231558
1118.588 .0231504
1119.187 .0231458
1119.787 .0231444
1120.387 .0231458
1120.988 .0231502
1121.589 .0231583
1122.190 .0231667
1122.793 .0231761
1123.395 .0231839
1123.998 .0231934
1124.602 .0232022
1125.206 .0232120
1125.811 .0232236
1126.416 .0232379
1127.022 .0232560
1127.628 .0232758
1128.235 .0232971
1128.843 .0233219
1129.451 .0233467
1130.059 .0233687
1130.669 .0233900
1131.278 .0234099
1131.889 .0234265
1132.500 .0234467
1133.112 .0234743
1133.724 .0235102
1134.337 .0235570
1134.950 .0236125
1135.564 .0236748
1136.179 .0237403
1136.795 .0238083
1137.411 .0238712
1138.028 .0239296
1138.645 .0239836
1139.263 .0240357
1139.882 .0240885
1140.502 .0241475
1141.122 .0242033
1141.743 .0242662
1142.365 .0243441
1142.987 .0244727
1143.611 .0245704
1144.235 .0243669
1144.859 .0245639
1145.485 .0250449
