Measurement Sequence started on: 10-20-44-796
Integration time: 35
Scans to Average: 2 
>>>>>Begin Spectral Data<<<<<
432.953 .0379627
433.882 .0413037
434.810 .0417699
435.737 .0408260
436.662 .0400439
437.586 .0405220
438.509 .0404320
439.431 .0401988
440.351 .0399501
441.269 .0397258
442.187 .0395248
443.103 .0393142
444.018 .0391391
444.932 .0389964
445.844 .0388704
446.756 .0387444
447.666 .0386138
448.575 .0384674
449.482 .0383192
450.388 .0381649
451.294 .0380255
452.198 .0379054
453.100 .0378131
454.002 .0377524
454.902 .0377178
455.801 .0376962
456.699 .0376903
457.596 .0376873
458.492 .0376764
459.387 .0376484
460.280 .0376120
461.172 .0375587
462.064 .0375029
462.954 .0374435
463.843 .0373881
464.730 .0373370
465.617 .0372913
466.503 .0372478
467.387 .0372047
468.271 .0371552
469.153 .0370984
470.035 .0370314
470.915 .0369583
471.794 .0368722
472.673 .0367838
473.550 .0366980
474.426 .0366231
475.301 .0365578
476.175 .0365046
477.048 .0364579
477.920 .0364200
478.791 .0363783
479.661 .0363327
480.530 .0362787
481.398 .0362173
482.266 .0361514
483.132 .0360881
483.997 .0360312
484.861 .0359871
485.724 .0359571
486.587 .0359418
487.448 .0359313
488.308 .0359221
489.168 .0359057
490.026 .0358807
490.884 .0358446
491.741 .0358004
492.597 .0357514
493.452 .0357093
494.306 .0356749
495.159 .0356548
496.011 .0356498
496.862 .0356530
497.713 .0356562
498.562 .0356514
499.411 .0356347
500.259 .0356003
501.106 .0355497
501.952 .0354905
502.798 .0354276
503.642 .0353709
504.486 .0353200
505.329 .0352775
506.171 .0352423
507.012 .0352086
507.852 .0351658
508.692 .0351113
509.531 .0350424
510.369 .0349545
511.206 .0348543
512.043 .0347460
512.878 .0346314
513.713 .0345107
514.547 .0343885
515.381 .0342648
516.213 .0341335
517.045 .0339960
517.876 .0338423
518.706 .0336787
519.536 .0335079
520.365 .0333268
521.193 .0331389
522.020 .0329507
522.847 .0327626
523.673 .0325715
524.498 .0323760
525.323 .0321795
526.146 .0319836
526.969 .0317926
527.792 .0316021
528.614 .0314124
529.435 .0312283
530.255 .0310495
531.075 .0308656
531.894 .0306867
532.712 .0305103
533.530 .0303390
534.347 .0301773
535.163 .0300254
535.979 .0298922
536.794 .0297847
537.608 .0296968
538.422 .0296304
539.235 .0295831
540.048 .0295540
540.860 .0295345
541.671 .0295287
542.481 .0295345
543.292 .0295493
544.101 .0295708
544.910 .0296015
545.718 .0296353
546.526 .0296741
547.333 .0297131
548.139 .0297504
548.945 .0297892
549.750 .0298272
550.555 .0298627
551.359 .0299019
552.162 .0299429
552.965 .0299897
553.768 .0300350
554.569 .0300858
555.371 .0301408
556.171 .0301946
556.972 .0302460
557.771 .0302961
558.570 .0303433
559.369 .0303897
560.167 .0304343
560.964 .0304772
561.761 .0305201
562.558 .0305679
563.354 .0306180
564.149 .0306716
564.944 .0307297
565.738 .0307927
566.532 .0308554
567.325 .0309200
568.118 .0309847
568.910 .0310494
569.702 .0311190
570.494 .0311934
571.285 .0312738
572.075 .0313638
572.865 .0314615
573.654 .0315637
574.443 .0316661
575.232 .0317655
576.020 .0318571
576.807 .0319418
577.594 .0320188
578.381 .0320886
579.167 .0321519
579.952 .0322125
580.738 .0322712
581.522 .0323280
582.307 .0323814
583.091 .0324305
583.874 .0324754
584.657 .0325153
585.440 .0325490
586.222 .0325774
587.004 .0326033
587.785 .0326279
588.566 .0326495
589.346 .0326692
590.126 .0326874
590.906 .0327021
591.685 .0327127
592.464 .0327185
593.242 .0327205
594.020 .0327189
594.797 .0327155
595.575 .0327106
596.351 .0327064
597.128 .0327024
597.904 .0326979
598.679 .0326925
599.454 .0326858
600.229 .0326765
601.004 .0326645
601.778 .0326502
602.551 .0326342
603.325 .0326157
604.097 .0325964
604.870 .0325750
605.642 .0325527
606.414 .0325290
607.185 .0325038
607.956 .0324772
608.727 .0324504
609.497 .0324231
610.267 .0323957
611.037 .0323678
611.806 .0323394
612.575 .0323099
613.344 .0322796
614.112 .0322481
614.880 .0322164
615.647 .0321849
616.414 .0321555
617.181 .0321280
617.948 .0321040
618.714 .0320832
619.480 .0320657
620.245 .0320501
621.011 .0320343
621.775 .0320174
622.540 .0319990
623.304 .0319780
624.068 .0319559
624.832 .0319333
625.595 .0319111
626.358 .0318899
627.120 .0318707
627.883 .0318524
628.645 .0318352
629.406 .0318180
630.168 .0318002
630.929 .0317814
631.689 .0317620
632.450 .0317415
633.210 .0317208
633.970 .0317013
634.729 .0316829
635.489 .0316647
636.248 .0316477
637.006 .0316312
637.765 .0316154
638.523 .0315995
639.280 .0315836
640.038 .0315672
640.795 .0315510
641.552 .0315339
642.309 .0315154
643.065 .0314958
643.821 .0314753
644.577 .0314534
645.332 .0314311
646.088 .0314090
646.843 .0313883
647.597 .0313695
648.352 .0313533
649.106 .0313395
649.860 .0313277
650.613 .0313167
651.367 .0313062
652.120 .0312956
652.872 .0312844
653.625 .0312721
654.377 .0312597
655.129 .0312479
655.881 .0312367
656.632 .0312266
657.384 .0312177
658.135 .0312098
658.885 .0312024
659.636 .0311940
660.386 .0311839
661.136 .0311716
661.885 .0311577
662.635 .0311420
663.384 .0311256
664.133 .0311090
664.881 .0310926
665.630 .0310773
666.378 .0310633
667.126 .0310495
667.874 .0310352
668.621 .0310202
669.368 .0310034
670.115 .0309843
670.862 .0309631
671.608 .0309407
672.354 .0309183
673.100 .0308962
673.846 .0308743
674.591 .0308527
675.337 .0308317
676.082 .0308102
676.826 .0307879
677.571 .0307647
678.315 .0307405
679.059 .0307155
679.803 .0306899
680.547 .0306647
681.290 .0306401
682.033 .0306157
682.776 .0305910
683.518 .0305654
684.261 .0305381
685.003 .0305089
685.745 .0304777
686.487 .0304456
687.228 .0304128
687.969 .0303799
688.710 .0303473
689.451 .0303157
690.192 .0302857
690.932 .0302567
691.672 .0302278
692.412 .0301994
693.152 .0301704
693.891 .0301411
694.630 .0301116
695.369 .0300830
696.108 .0300556
696.846 .0300296
697.585 .0300049
698.323 .0299820
699.061 .0299609
699.798 .0299413
700.536 .0299225
701.273 .0299042
702.010 .0298860
702.746 .0298673
703.483 .0298477
704.219 .0298281
704.955 .0298084
705.691 .0297887
706.427 .0297695
707.162 .0297512
707.897 .0297339
708.632 .0297175
709.367 .0297021
710.101 .0296872
710.835 .0296723
711.569 .0296570
712.303 .0296413
713.037 .0296255
713.770 .0296101
714.503 .0295947
715.236 .0295797
715.969 .0295652
716.702 .0295515
717.434 .0295379
718.166 .0295242
718.898 .0295098
719.629 .0294945
720.361 .0294782
721.092 .0294609
721.823 .0294430
722.554 .0294248
723.284 .0294072
724.014 .0293897
724.744 .0293721
725.474 .0293543
726.204 .0293367
726.933 .0293193
727.662 .0293014
728.391 .0292834
729.120 .0292658
729.849 .0292492
730.577 .0292343
731.305 .0292208
732.033 .0292093
732.760 .0291992
733.488 .0291900
734.215 .0291810
734.942 .0291722
735.669 .0291629
736.395 .0291535
737.122 .0291439
737.848 .0291342
738.573 .0291244
739.299 .0291146
740.024 .0291054
740.750 .0290965
741.474 .0290870
742.199 .0290767
742.924 .0290653
743.648 .0290533
744.372 .0290403
745.096 .0290274
745.819 .0290151
746.543 .0290037
747.266 .0289930
747.989 .0289830
748.711 .0289733
749.434 .0289639
750.156 .0289547
750.878 .0289449
751.599 .0289352
752.321 .0289255
753.042 .0289159
753.763 .0289072
754.484 .0288996
755.205 .0288926
755.925 .0288860
756.645 .0288794
757.365 .0288718
758.085 .0288629
758.804 .0288527
759.523 .0288403
760.242 .0288263
760.961 .0288104
761.679 .0287927
762.397 .0287734
763.115 .0287535
763.833 .0287326
764.551 .0287111
765.268 .0286890
765.985 .0286658
766.702 .0286413
767.418 .0286157
768.134 .0285889
768.850 .0285609
769.566 .0285321
770.282 .0285030
770.997 .0284736
771.712 .0284451
772.427 .0284173
773.142 .0283906
773.856 .0283652
774.570 .0283405
775.284 .0283159
775.998 .0282908
776.711 .0282654
777.424 .0282392
778.137 .0282127
778.849 .0281858
779.562 .0281589
780.274 .0281328
780.986 .0281076
781.697 .0280837
782.409 .0280613
783.120 .0280399
783.831 .0280198
784.541 .0280005
785.252 .0279820
785.962 .0279638
786.671 .0279460
787.381 .0279285
788.090 .0279112
788.799 .0278938
789.508 .0278761
790.217 .0278582
790.925 .0278401
791.633 .0278217
792.341 .0278027
793.048 .0277833
793.755 .0277631
794.462 .0277421
795.169 .0277204
795.875 .0276978
796.581 .0276748
797.287 .0276514
797.993 .0276283
798.698 .0276058
799.403 .0275841
800.108 .0275632
800.812 .0275435
801.517 .0275250
802.221 .0275074
802.924 .0274905
803.628 .0274747
804.331 .0274595
805.034 .0274452
805.736 .0274312
806.439 .0274175
807.141 .0274037
807.843 .0273903
808.544 .0273762
809.245 .0273617
809.946 .0273466
810.647 .0273313
811.347 .0273158
812.047 .0273007
812.747 .0272861
813.447 .0272720
814.146 .0272584
814.845 .0272455
815.543 .0272327
816.242 .0272204
816.940 .0272077
817.638 .0271948
818.335 .0271815
819.032 .0271676
819.729 .0271530
820.426 .0271383
821.122 .0271237
821.818 .0271089
822.514 .0270939
823.209 .0270790
823.905 .0270644
824.599 .0270498
825.294 .0270354
825.988 .0270210
826.682 .0270069
827.376 .0269932
828.069 .0269803
828.762 .0269682
829.455 .0269572
830.147 .0269474
830.840 .0269387
831.531 .0269310
832.223 .0269242
832.914 .0269178
833.605 .0269115
834.296 .0269058
834.986 .0269004
835.676 .0268949
836.366 .0268901
837.055 .0268858
837.744 .0268819
838.433 .0268777
839.121 .0268738
839.809 .0268691
840.497 .0268643
841.185 .0268592
841.872 .0268530
842.559 .0268465
843.245 .0268403
843.932 .0268339
844.617 .0268277
845.303 .0268218
845.988 .0268157
846.673 .0268089
847.358 .0268028
848.042 .0267960
848.726 .0267893
849.410 .0267831
850.093 .0267771
850.776 .0267716
851.459 .0267671
852.141 .0267629
852.823 .0267593
853.505 .0267568
854.186 .0267546
854.867 .0267526
855.548 .0267510
856.228 .0267494
856.908 .0267485
857.588 .0267476
858.267 .0267468
858.946 .0267451
859.625 .0267432
860.303 .0267402
860.981 .0267362
861.659 .0267315
862.336 .0267257
863.013 .0267197
863.690 .0267132
864.366 .0267059
865.042 .0266988
865.718 .0266918
866.393 .0266851
867.068 .0266785
867.743 .0266725
868.417 .0266659
869.091 .0266590
869.765 .0266515
870.438 .0266430
871.111 .0266335
871.783 .0266235
872.456 .0266127
873.127 .0266020
873.799 .0265912
874.470 .0265804
875.141 .0265699
875.811 .0265603
876.481 .0265504
877.151 .0265405
877.820 .0265305
878.489 .0265205
879.158 .0265106
879.826 .0265012
880.494 .0264924
881.162 .0264846
881.829 .0264778
882.496 .0264713
883.163 .0264648
883.829 .0264584
884.495 .0264515
885.160 .0264444
885.825 .0264368
886.490 .0264287
887.154 .0264202
887.818 .0264118
888.482 .0264031
889.145 .0263941
889.808 .0263854
890.471 .0263764
891.133 .0263671
891.795 .0263576
892.456 .0263477
893.117 .0263378
893.778 .0263283
894.439 .0263192
895.099 .0263102
895.758 .0263014
896.417 .0262926
897.076 .0262837
897.735 .0262751
898.393 .0262667
899.051 .0262579
899.708 .0262490
900.365 .0262392
901.022 .0262281
901.678 .0262154
902.334 .0262012
902.990 .0261858
903.645 .0261692
904.300 .0261521
904.954 .0261346
905.608 .0261171
906.262 .0261001
906.915 .0260833
907.568 .0260663
908.221 .0260491
908.873 .0260316
909.525 .0260132
910.176 .0259943
910.828 .0259757
911.478 .0259581
912.129 .0259416
912.778 .0259266
913.428 .0259126
914.077 .0258990
914.726 .0258861
915.375 .0258724
916.023 .0258581
916.670 .0258431
917.318 .0258272
917.964 .0258102
918.611 .0257926
919.257 .0257753
919.903 .0257575
920.548 .0257402
921.193 .0257233
921.838 .0257065
922.482 .0256899
923.126 .0256734
923.770 .0256567
924.413 .0256403
925.056 .0256246
925.698 .0256085
926.340 .0255925
926.982 .0255768
927.623 .0255606
928.264 .0255439
928.904 .0255267
929.544 .0255091
930.184 .0254902
930.823 .0254703
931.462 .0254485
932.101 .0254249
932.739 .0254003
933.377 .0253739
934.014 .0253455
934.651 .0253164
935.288 .0252863
935.924 .0252557
936.560 .0252254
937.196 .0251962
937.831 .0251677
938.466 .0251405
939.100 .0251147
939.734 .0250899
940.368 .0250662
941.001 .0250431
941.634 .0250204
942.266 .0249982
942.899 .0249762
943.530 .0249536
944.162 .0249307
944.793 .0249082
945.423 .0248850
946.053 .0248616
946.683 .0248378
947.313 .0248137
947.942 .0247889
948.571 .0247630
949.199 .0247365
949.827 .0247091
950.455 .0246815
951.082 .0246538
951.709 .0246272
952.335 .0246018
952.961 .0245781
953.587 .0245566
954.212 .0245373
954.837 .0245200
955.462 .0245041
956.086 .0244892
956.710 .0244751
957.334 .0244612
957.957 .0244469
958.579 .0244318
959.202 .0244165
959.824 .0244006
960.445 .0243842
961.067 .0243680
961.688 .0243521
962.308 .0243364
962.928 .0243210
963.548 .0243056
964.168 .0242899
964.787 .0242737
965.406 .0242565
966.024 .0242390
966.642 .0242215
967.260 .0242047
967.877 .0241887
968.494 .0241740
969.110 .0241613
969.727 .0241502
970.342 .0241405
970.958 .0241322
971.573 .0241253
972.188 .0241196
972.802 .0241147
973.416 .0241109
974.030 .0241083
974.643 .0241063
975.256 .0241053
975.869 .0241047
976.481 .0241039
977.093 .0241028
977.705 .0241013
978.316 .0240997
978.927 .0240988
979.538 .0240984
980.148 .0240987
980.758 .0240996
981.367 .0241017
981.977 .0241038
982.586 .0241056
983.194 .0241071
983.802 .0241077
984.410 .0241069
985.018 .0241052
985.625 .0241026
986.232 .0241002
986.838 .0240988
987.445 .0240980
988.050 .0240982
988.656 .0240995
989.261 .0241016
989.866 .0241035
990.471 .0241050
991.075 .0241061
991.679 .0241058
992.282 .0241040
992.886 .0241013
993.489 .0240978
994.091 .0240945
994.694 .0240918
995.296 .0240900
995.897 .0240888
996.499 .0240883
997.100 .0240881
997.701 .0240879
998.301 .0240872
998.901 .0240864
999.501 .0240846
1000.101 .0240827
1000.700 .0240807
1001.299 .0240786
1001.898 .0240772
1002.496 .0240774
1003.094 .0240783
1003.692 .0240802
1004.289 .0240832
1004.887 .0240873
1005.484 .0240921
1006.080 .0240983
1006.677 .0241043
1007.273 .0241103
1007.868 .0241168
1008.464 .0241232
1009.059 .0241296
1009.654 .0241372
1010.249 .0241458
1010.843 .0241559
1011.437 .0241679
1012.031 .0241804
1012.625 .0241931
1013.218 .0242059
1013.811 .0242179
1014.404 .0242278
1014.997 .0242365
1015.589 .0242439
1016.181 .0242510
1016.773 .0242592
1017.365 .0242688
1017.956 .0242790
1018.547 .0242905
1019.138 .0243018
1019.728 .0243118
1020.319 .0243202
1020.909 .0243271
1021.499 .0243321
1022.088 .0243365
1022.678 .0243409
1023.267 .0243454
1023.856 .0243509
1024.445 .0243583
1025.033 .0243663
1025.621 .0243744
1026.209 .0243822
1026.797 .0243890
1027.385 .0243949
1027.972 .0244012
1028.560 .0244075
1029.147 .0244144
1029.734 .0244235
1030.320 .0244334
1030.907 .0244438
1031.493 .0244552
1032.079 .0244663
1032.665 .0244769
1033.250 .0244864
1033.836 .0244947
1034.421 .0245018
1035.006 .0245081
1035.591 .0245135
1036.176 .0245174
1036.761 .0245205
1037.345 .0245226
1037.929 .0245230
1038.514 .0245227
1039.097 .0245220
1039.681 .0245215
1040.265 .0245217
1040.848 .0245224
1041.432 .0245240
1042.015 .0245267
1042.598 .0245300
1043.181 .0245347
1043.764 .0245410
1044.346 .0245487
1044.929 .0245582
1045.511 .0245706
1046.094 .0245855
1046.676 .0246020
1047.258 .0246190
1047.840 .0246362
1048.422 .0246525
1049.003 .0246664
1049.585 .0246769
1050.166 .0246838
1050.748 .0246887
1051.329 .0246913
1051.910 .0246914
1052.491 .0246911
1053.072 .0246911
1053.653 .0246906
1054.234 .0246891
1054.815 .0246860
1055.396 .0246810
1055.976 .0246733
1056.557 .0246635
1057.138 .0246516
1057.718 .0246384
1058.298 .0246259
1058.879 .0246150
1059.459 .0246053
1060.039 .0245982
1060.620 .0245917
1061.200 .0245853
1061.780 .0245787
1062.360 .0245711
1062.940 .0245625
1063.520 .0245540
1064.101 .0245460
1064.681 .0245386
1065.261 .0245311
1065.841 .0245235
1066.421 .0245154
1067.001 .0245063
1067.581 .0244960
1068.161 .0244837
1068.741 .0244715
1069.321 .0244596
1069.901 .0244496
1070.482 .0244418
1071.062 .0244365
1071.642 .0244339
1072.222 .0244329
1072.803 .0244311
1073.383 .0244278
1073.963 .0244232
1074.544 .0244171
1075.124 .0244084
1075.705 .0243993
1076.286 .0243893
1076.866 .0243808
1077.447 .0243729
1078.028 .0243659
1078.609 .0243603
1079.190 .0243551
1079.771 .0243490
1080.352 .0243409
1080.934 .0243318
1081.515 .0243215
1082.097 .0243093
1082.679 .0242971
1083.260 .0242842
1083.842 .0242725
1084.424 .0242619
1085.007 .0242530
1085.589 .0242467
1086.172 .0242445
1086.754 .0242446
1087.337 .0242472
1087.920 .0242538
1088.503 .0242620
1089.087 .0242726
1089.670 .0242840
1090.254 .0242942
1090.838 .0243029
1091.422 .0243083
1092.006 .0243118
1092.590 .0243118
1093.175 .0243102
1093.760 .0243070
1094.345 .0243032
1094.930 .0242998
1095.516 .0242956
1096.102 .0242914
1096.688 .0242873
1097.274 .0242827
1097.860 .0242750
1098.447 .0242633
1099.034 .0242489
1099.622 .0242329
1100.209 .0242180
1100.797 .0242039
1101.385 .0241932
1101.973 .0241865
1102.562 .0241854
1103.151 .0241876
1103.740 .0241908
1104.330 .0241952
1104.920 .0241971
1105.510 .0241967
1106.101 .0241927
1106.691 .0241848
1107.283 .0241749
1107.874 .0241659
1108.466 .0241575
1109.058 .0241491
1109.651 .0241433
1110.244 .0241384
1110.837 .0241320
1111.431 .0241253
1112.025 .0241145
1112.620 .0240997
1113.215 .0240830
1113.810 .0240649
1114.406 .0240441
1115.002 .0240260
1115.599 .0240097
1116.196 .0239939
1116.793 .0239808
1117.391 .0239705
1117.989 .0239598
1118.588 .0239538
1119.187 .0239502
1119.787 .0239461
1120.387 .0239450
1120.988 .0239480
1121.589 .0239505
1122.190 .0239552
1122.793 .0239586
1123.395 .0239595
1123.998 .0239598
1124.602 .0239621
1125.206 .0239663
1125.811 .0239766
1126.416 .0239951
1127.022 .0240183
1127.628 .0240448
1128.235 .0240733
1128.843 .0240972
1129.451 .0241208
1130.059 .0241418
1130.669 .0241572
1131.278 .0241721
1131.889 .0241880
1132.500 .0242072
1133.112 .0242338
1133.724 .0242672
1134.337 .0243074
1134.950 .0243518
1135.564 .0243980
1136.179 .0244409
1136.795 .0244832
1137.411 .0245267
1138.028 .0245696
1138.645 .0246187
1139.263 .0246722
1139.882 .0247293
1140.502 .0248012
1141.122 .0248849
1141.743 .0249726
1142.365 .0250789
1142.987 .0250628
1143.611 .0253662
1144.235 .0254855
1144.859 .0253467
1145.485 .0258300
