Measurement Sequence started on: 10-20-44-796
Integration time: 35
Scans to Average: 2 
>>>>>Begin Spectral Data<<<<<
432.953 .0374435
433.882 .0348018
434.810 .0288517
435.737 .0276301
436.662 .0287653
437.586 .0288484
438.509 .0282437
439.431 .0278716
440.351 .0277398
441.269 .0276911
442.187 .0276798
443.103 .0277413
444.018 .0278954
444.932 .0281147
445.844 .0283748
446.756 .0286696
447.666 .0289751
448.575 .0292851
449.482 .0295925
450.388 .0298757
451.294 .0301400
452.198 .0303866
453.100 .0306226
454.002 .0308425
454.902 .0310423
455.801 .0312077
456.699 .0313506
457.596 .0314694
458.492 .0315610
459.387 .0316277
460.280 .0316739
461.172 .0316860
462.064 .0316861
462.954 .0316754
463.843 .0316546
464.730 .0316298
465.617 .0316055
466.503 .0315805
467.387 .0315566
468.271 .0315320
469.153 .0315097
470.035 .0314954
470.915 .0314925
471.794 .0314867
472.673 .0314801
473.550 .0314768
474.426 .0314684
475.301 .0314538
476.175 .0314390
477.048 .0314192
477.920 .0313965
478.791 .0313778
479.661 .0313642
480.530 .0313532
481.398 .0313495
482.266 .0313492
483.132 .0313435
483.997 .0313305
484.861 .0313080
485.724 .0312747
486.587 .0312403
487.448 .0312053
488.308 .0311695
489.168 .0311415
490.026 .0311245
490.884 .0311122
491.741 .0310976
492.597 .0310791
493.452 .0310490
494.306 .0310060
495.159 .0309529
496.011 .0308917
496.862 .0308272
497.713 .0307667
498.562 .0307116
499.411 .0306624
500.259 .0306183
501.106 .0305745
501.952 .0305313
502.798 .0304842
503.642 .0304271
504.486 .0303639
505.329 .0302952
506.171 .0302301
507.012 .0301726
507.852 .0301220
508.692 .0300742
509.531 .0300303
510.369 .0299788
511.206 .0299138
512.043 .0298315
512.878 .0297287
513.713 .0296010
514.547 .0294560
515.381 .0292970
516.213 .0291251
517.045 .0289488
517.876 .0287762
518.706 .0285952
519.536 .0284167
520.365 .0282338
521.193 .0280364
522.020 .0278342
522.847 .0276266
523.673 .0274063
524.498 .0271839
525.323 .0269683
526.146 .0267669
526.969 .0265808
527.792 .0264165
528.614 .0262556
529.435 .0260960
530.255 .0259382
531.075 .0257614
531.894 .0255639
532.712 .0253499
533.530 .0251143
534.347 .0248721
535.163 .0246325
535.979 .0244052
536.794 .0242015
537.608 .0240274
538.422 .0238785
539.235 .0237558
540.048 .0236624
540.860 .0236047
541.671 .0235816
542.481 .0235987
543.292 .0236446
544.101 .0237175
544.910 .0238096
545.718 .0239106
546.526 .0240195
547.333 .0241284
548.139 .0242307
548.945 .0243225
549.750 .0244057
550.555 .0244834
551.359 .0245580
552.162 .0246339
552.965 .0247049
553.768 .0247704
554.569 .0248256
555.371 .0248695
556.171 .0249025
556.972 .0249302
557.771 .0249543
558.570 .0249828
559.369 .0250239
560.167 .0250748
560.964 .0251463
561.761 .0252410
562.558 .0253600
563.354 .0254939
564.149 .0256380
564.944 .0257901
565.738 .0259418
566.532 .0260908
567.325 .0262298
568.118 .0263587
568.910 .0264851
569.702 .0266073
570.494 .0267322
571.285 .0268596
572.075 .0269934
572.865 .0271279
573.654 .0272608
574.443 .0273842
575.232 .0274924
576.020 .0275823
576.807 .0276541
577.594 .0277089
578.381 .0277508
579.167 .0277855
579.952 .0278221
580.738 .0278663
581.522 .0279185
582.307 .0279771
583.091 .0280416
583.874 .0281069
584.657 .0281705
585.440 .0282299
586.222 .0282831
587.004 .0283307
587.785 .0283718
588.566 .0284073
589.346 .0284383
590.126 .0284654
590.906 .0284886
591.685 .0285082
592.464 .0285247
593.242 .0285361
594.020 .0285442
594.797 .0285492
595.575 .0285519
596.351 .0285519
597.128 .0285494
597.904 .0285440
598.679 .0285358
599.454 .0285241
600.229 .0285106
601.004 .0284970
601.778 .0284848
602.551 .0284739
603.325 .0284659
604.097 .0284599
604.870 .0284546
605.642 .0284496
606.414 .0284444
607.185 .0284371
607.956 .0284285
608.727 .0284176
609.497 .0284048
610.267 .0283899
611.037 .0283737
611.806 .0283556
612.575 .0283357
613.344 .0283137
614.112 .0282887
614.880 .0282622
615.647 .0282353
616.414 .0282080
617.181 .0281812
617.948 .0281564
618.714 .0281334
619.480 .0281118
620.245 .0280903
621.011 .0280695
621.775 .0280485
622.540 .0280269
623.304 .0280052
624.068 .0279841
624.832 .0279637
625.595 .0279460
626.358 .0279301
627.120 .0279165
627.883 .0279039
628.645 .0278917
629.406 .0278788
630.168 .0278653
630.929 .0278510
631.689 .0278350
632.450 .0278180
633.210 .0278022
633.970 .0277860
634.729 .0277708
635.489 .0277557
636.248 .0277409
637.006 .0277255
637.765 .0277099
638.523 .0276932
639.280 .0276755
640.038 .0276575
640.795 .0276389
641.552 .0276195
642.309 .0275998
643.065 .0275799
643.821 .0275595
644.577 .0275393
645.332 .0275200
646.088 .0275008
646.843 .0274829
647.597 .0274665
648.352 .0274532
649.106 .0274421
649.860 .0274334
650.613 .0274273
651.367 .0274231
652.120 .0274208
652.872 .0274193
653.625 .0274176
654.377 .0274163
655.129 .0274154
655.881 .0274146
656.632 .0274133
657.384 .0274130
658.135 .0274127
658.885 .0274125
659.636 .0274115
660.386 .0274086
661.136 .0274035
661.885 .0273968
662.635 .0273881
663.384 .0273778
664.133 .0273669
664.881 .0273554
665.630 .0273437
666.378 .0273332
667.126 .0273226
667.874 .0273119
668.621 .0273005
669.368 .0272877
670.115 .0272732
670.862 .0272570
671.608 .0272395
672.354 .0272209
673.100 .0272024
673.846 .0271841
674.591 .0271653
675.337 .0271472
676.082 .0271292
676.826 .0271114
677.571 .0270928
678.315 .0270736
679.059 .0270544
679.803 .0270360
680.547 .0270191
681.290 .0270038
682.033 .0269905
682.776 .0269783
683.518 .0269671
684.261 .0269553
685.003 .0269427
685.745 .0269287
686.487 .0269129
687.228 .0268961
687.969 .0268777
688.710 .0268588
689.451 .0268400
690.192 .0268223
690.932 .0268061
691.672 .0267898
692.412 .0267744
693.152 .0267584
693.891 .0267423
694.630 .0267253
695.369 .0267074
696.108 .0266889
696.846 .0266703
697.585 .0266524
698.323 .0266353
699.061 .0266195
699.798 .0266052
700.536 .0265926
701.273 .0265804
702.010 .0265681
702.746 .0265548
703.483 .0265403
704.219 .0265246
704.955 .0265070
705.691 .0264881
706.427 .0264688
707.162 .0264499
707.897 .0264324
708.632 .0264159
709.367 .0264017
710.101 .0263887
710.835 .0263776
711.569 .0263672
712.303 .0263573
713.037 .0263469
713.770 .0263359
714.503 .0263242
715.236 .0263121
715.969 .0262995
716.702 .0262874
717.434 .0262755
718.166 .0262642
718.898 .0262525
719.629 .0262411
720.361 .0262290
721.092 .0262175
721.823 .0262048
722.554 .0261918
723.284 .0261786
724.014 .0261649
724.744 .0261509
725.474 .0261374
726.204 .0261241
726.933 .0261113
727.662 .0260988
728.391 .0260865
729.120 .0260737
729.849 .0260609
730.577 .0260471
731.305 .0260323
732.033 .0260172
732.760 .0260012
733.488 .0259841
734.215 .0259677
734.942 .0259516
735.669 .0259359
736.395 .0259218
737.122 .0259089
737.848 .0258973
738.573 .0258865
739.299 .0258759
740.024 .0258651
740.750 .0258541
741.474 .0258430
742.199 .0258306
742.924 .0258185
743.648 .0258071
744.372 .0257955
745.096 .0257849
745.819 .0257751
746.543 .0257656
747.266 .0257563
747.989 .0257467
748.711 .0257360
749.434 .0257246
750.156 .0257131
750.878 .0257018
751.599 .0256914
752.321 .0256833
753.042 .0256769
753.763 .0256728
754.484 .0256709
755.205 .0256705
755.925 .0256707
756.645 .0256716
757.365 .0256720
758.085 .0256716
758.804 .0256700
759.523 .0256669
760.242 .0256617
760.961 .0256549
761.679 .0256457
762.397 .0256336
763.115 .0256184
763.833 .0256005
764.551 .0255788
765.268 .0255547
765.985 .0255283
766.702 .0255005
767.418 .0254724
768.134 .0254448
768.850 .0254176
769.566 .0253921
770.282 .0253681
770.997 .0253453
771.712 .0253234
772.427 .0253027
773.142 .0252823
773.856 .0252628
774.570 .0252440
775.284 .0252267
775.998 .0252103
776.711 .0251956
777.424 .0251814
778.137 .0251679
778.849 .0251538
779.562 .0251387
780.274 .0251219
780.986 .0251035
781.697 .0250832
782.409 .0250616
783.120 .0250399
783.831 .0250192
784.541 .0249997
785.252 .0249828
785.962 .0249678
786.671 .0249549
787.381 .0249431
788.090 .0249325
788.799 .0249217
789.508 .0249107
790.217 .0248994
790.925 .0248877
791.633 .0248766
792.341 .0248661
793.048 .0248564
793.755 .0248476
794.462 .0248390
795.169 .0248303
795.875 .0248208
796.581 .0248107
797.287 .0247996
797.993 .0247879
798.698 .0247754
799.403 .0247625
800.108 .0247496
800.812 .0247366
801.517 .0247241
802.221 .0247121
802.924 .0247008
803.628 .0246900
804.331 .0246808
805.034 .0246730
805.736 .0246659
806.439 .0246600
807.141 .0246548
807.843 .0246499
808.544 .0246450
809.245 .0246393
809.946 .0246329
810.647 .0246257
811.347 .0246182
812.047 .0246100
812.747 .0246029
813.447 .0245960
814.146 .0245894
814.845 .0245839
815.543 .0245784
816.242 .0245724
816.940 .0245656
817.638 .0245576
818.335 .0245485
819.032 .0245378
819.729 .0245259
820.426 .0245134
821.122 .0245015
821.818 .0244899
822.514 .0244788
823.209 .0244696
823.905 .0244617
824.599 .0244545
825.294 .0244488
825.988 .0244431
826.682 .0244375
827.376 .0244319
828.069 .0244258
828.762 .0244195
829.455 .0244132
830.147 .0244073
830.840 .0244016
831.531 .0243969
832.223 .0243931
832.914 .0243894
833.605 .0243865
834.296 .0243836
834.986 .0243798
835.676 .0243751
836.366 .0243696
837.055 .0243629
837.744 .0243554
838.433 .0243468
839.121 .0243375
839.809 .0243273
840.497 .0243164
841.185 .0243053
841.872 .0242940
842.559 .0242838
843.245 .0242748
843.932 .0242670
844.617 .0242606
845.303 .0242553
845.988 .0242517
846.673 .0242483
847.358 .0242455
848.042 .0242424
848.726 .0242387
849.410 .0242346
850.093 .0242305
850.776 .0242262
851.459 .0242225
852.141 .0242192
852.823 .0242158
853.505 .0242121
854.186 .0242074
854.867 .0242011
855.548 .0241932
856.228 .0241835
856.908 .0241721
857.588 .0241588
858.267 .0241452
858.946 .0241315
859.625 .0241182
860.303 .0241056
860.981 .0240946
861.659 .0240841
862.336 .0240739
863.013 .0240637
863.690 .0240532
864.366 .0240417
865.042 .0240288
865.718 .0240151
866.393 .0240006
867.068 .0239856
867.743 .0239706
868.417 .0239560
869.091 .0239422
869.765 .0239291
870.438 .0239157
871.111 .0239025
871.783 .0238892
872.456 .0238748
873.127 .0238597
873.799 .0238442
874.470 .0238287
875.141 .0238138
875.811 .0237997
876.481 .0237877
877.151 .0237771
877.820 .0237678
878.489 .0237590
879.158 .0237503
879.826 .0237411
880.494 .0237304
881.162 .0237184
881.829 .0237052
882.496 .0236906
883.163 .0236754
883.829 .0236599
884.495 .0236447
885.160 .0236307
885.825 .0236176
886.490 .0236056
887.154 .0235947
887.818 .0235841
888.482 .0235734
889.145 .0235618
889.808 .0235498
890.471 .0235370
891.133 .0235237
891.795 .0235101
892.456 .0234965
893.117 .0234835
893.778 .0234712
894.439 .0234591
895.099 .0234474
895.758 .0234355
896.417 .0234230
897.076 .0234091
897.735 .0233943
898.393 .0233785
899.051 .0233626
899.708 .0233462
900.365 .0233301
901.022 .0233138
901.678 .0232981
902.334 .0232830
902.990 .0232692
903.645 .0232567
904.300 .0232456
904.954 .0232359
905.608 .0232276
906.262 .0232203
906.915 .0232142
907.568 .0232082
908.221 .0232028
908.873 .0231969
909.525 .0231912
910.176 .0231850
910.828 .0231790
911.478 .0231732
912.129 .0231674
912.778 .0231607
913.428 .0231531
914.077 .0231439
914.726 .0231329
915.375 .0231200
916.023 .0231059
916.670 .0230913
917.318 .0230769
917.964 .0230627
918.611 .0230498
919.257 .0230375
919.903 .0230261
920.548 .0230142
921.193 .0230019
921.838 .0229895
922.482 .0229763
923.126 .0229635
923.770 .0229514
924.413 .0229404
925.056 .0229314
925.698 .0229237
926.340 .0229175
926.982 .0229119
927.623 .0229070
928.264 .0229014
928.904 .0228954
929.544 .0228883
930.184 .0228805
930.823 .0228725
931.462 .0228654
932.101 .0228586
932.739 .0228520
933.377 .0228462
934.014 .0228402
934.651 .0228340
935.288 .0228274
935.924 .0228196
936.560 .0228113
937.196 .0228026
937.831 .0227936
938.466 .0227840
939.100 .0227749
939.734 .0227667
940.368 .0227586
941.001 .0227509
941.634 .0227431
942.266 .0227350
942.899 .0227273
943.530 .0227190
944.162 .0227102
944.793 .0227016
945.423 .0226928
946.053 .0226839
946.683 .0226749
947.313 .0226667
947.942 .0226586
948.571 .0226506
949.199 .0226427
949.827 .0226337
950.455 .0226235
951.082 .0226123
951.709 .0226000
952.335 .0225863
952.961 .0225716
953.587 .0225560
954.212 .0225404
954.837 .0225257
955.462 .0225121
956.086 .0225001
956.710 .0224899
957.334 .0224818
957.957 .0224740
958.579 .0224667
959.202 .0224600
959.824 .0224527
960.445 .0224457
961.067 .0224391
961.688 .0224337
962.308 .0224303
962.928 .0224291
963.548 .0224298
964.168 .0224320
964.787 .0224357
965.406 .0224392
966.024 .0224422
966.642 .0224447
967.260 .0224462
967.877 .0224470
968.494 .0224480
969.110 .0224487
969.727 .0224496
970.342 .0224506
970.958 .0224514
971.573 .0224516
972.188 .0224518
972.802 .0224511
973.416 .0224500
974.030 .0224487
974.643 .0224474
975.256 .0224453
975.869 .0224435
976.481 .0224417
977.093 .0224398
977.705 .0224377
978.316 .0224359
978.927 .0224343
979.538 .0224336
980.148 .0224335
980.758 .0224345
981.367 .0224371
981.977 .0224413
982.586 .0224460
983.194 .0224516
983.802 .0224574
984.410 .0224635
985.018 .0224690
985.625 .0224751
986.232 .0224807
986.838 .0224861
987.445 .0224916
988.050 .0224970
988.656 .0225019
989.261 .0225059
989.866 .0225089
990.471 .0225110
991.075 .0225116
991.679 .0225108
992.282 .0225085
992.886 .0225055
993.489 .0225024
994.091 .0224985
994.694 .0224944
995.296 .0224906
995.897 .0224865
996.499 .0224812
997.100 .0224753
997.701 .0224686
998.301 .0224613
998.901 .0224539
999.501 .0224472
1000.101 .0224412
1000.700 .0224366
1001.299 .0224340
1001.898 .0224322
1002.496 .0224310
1003.094 .0224304
1003.692 .0224292
1004.289 .0224274
1004.887 .0224257
1005.484 .0224239
1006.080 .0224224
1006.677 .0224226
1007.273 .0224231
1007.868 .0224245
1008.464 .0224268
1009.059 .0224288
1009.654 .0224303
1010.249 .0224316
1010.843 .0224322
1011.437 .0224317
1012.031 .0224310
1012.625 .0224299
1013.218 .0224280
1013.811 .0224264
1014.404 .0224251
1014.997 .0224238
1015.589 .0224236
1016.181 .0224248
1016.773 .0224273
1017.365 .0224317
1017.956 .0224366
1018.547 .0224416
1019.138 .0224461
1019.728 .0224490
1020.319 .0224491
1020.909 .0224470
1021.499 .0224430
1022.088 .0224378
1022.678 .0224326
1023.267 .0224280
1023.856 .0224240
1024.445 .0224211
1025.033 .0224181
1025.621 .0224136
1026.209 .0224069
1026.797 .0223977
1027.385 .0223853
1027.972 .0223720
1028.560 .0223579
1029.147 .0223443
1029.734 .0223330
1030.320 .0223248
1030.907 .0223185
1031.493 .0223148
1032.079 .0223121
1032.665 .0223089
1033.250 .0223037
1033.836 .0222966
1034.421 .0222868
1035.006 .0222755
1035.591 .0222639
1036.176 .0222526
1036.761 .0222425
1037.345 .0222348
1037.929 .0222268
1038.514 .0222191
1039.097 .0222112
1039.681 .0222026
1040.265 .0221912
1040.848 .0221786
1041.432 .0221649
1042.015 .0221517
1042.598 .0221405
1043.181 .0221327
1043.764 .0221284
1044.346 .0221292
1044.929 .0221327
1045.511 .0221373
1046.094 .0221417
1046.676 .0221451
1047.258 .0221450
1047.840 .0221437
1048.422 .0221408
1049.003 .0221366
1049.585 .0221319
1050.166 .0221294
1050.748 .0221277
1051.329 .0221272
1051.910 .0221263
1052.491 .0221241
1053.072 .0221189
1053.653 .0221105
1054.234 .0220976
1054.815 .0220826
1055.396 .0220674
1055.976 .0220526
1056.557 .0220380
1057.138 .0220268
1057.718 .0220179
1058.298 .0220108
1058.879 .0220058
1059.459 .0220011
1060.039 .0219949
1060.620 .0219860
1061.200 .0219740
1061.780 .0219590
1062.360 .0219410
1062.940 .0219217
1063.520 .0219018
1064.101 .0218823
1064.681 .0218639
1065.261 .0218467
1065.841 .0218314
1066.421 .0218185
1067.001 .0218059
1067.581 .0217920
1068.161 .0217778
1068.741 .0217619
1069.321 .0217457
1069.901 .0217302
1070.482 .0217167
1071.062 .0217069
1071.642 .0216995
1072.222 .0216946
1072.803 .0216912
1073.383 .0216883
1073.963 .0216839
1074.544 .0216758
1075.124 .0216653
1075.705 .0216507
1076.286 .0216330
1076.866 .0216149
1077.447 .0215966
1078.028 .0215796
1078.609 .0215650
1079.190 .0215514
1079.771 .0215390
1080.352 .0215296
1080.934 .0215214
1081.515 .0215147
1082.097 .0215109
1082.679 .0215092
1083.260 .0215079
1083.842 .0215067
1084.424 .0215044
1085.007 .0215000
1085.589 .0214947
1086.172 .0214900
1086.754 .0214827
1087.337 .0214756
1087.920 .0214695
1088.503 .0214638
1089.087 .0214593
1089.670 .0214554
1090.254 .0214499
1090.838 .0214433
1091.422 .0214344
1092.006 .0214238
1092.590 .0214107
1093.175 .0214000
1093.760 .0213924
1094.345 .0213882
1094.930 .0213838
1095.516 .0213799
1096.102 .0213741
1096.688 .0213668
1097.274 .0213549
1097.860 .0213380
1098.447 .0213159
1099.034 .0212913
1099.622 .0212613
1100.209 .0212283
1100.797 .0211934
1101.385 .0211603
1101.973 .0211266
1102.562 .0210952
1103.151 .0210652
1103.740 .0210392
1104.330 .0210160
1104.920 .0209996
1105.510 .0209862
1106.101 .0209756
1106.691 .0209663
1107.283 .0209618
1107.874 .0209616
1108.466 .0209671
1109.058 .0209795
1109.651 .0210036
1110.244 .0210377
1110.837 .0210795
1111.431 .0211263
1112.025 .0211803
1112.620 .0212367
1113.215 .0212909
1113.810 .0213378
1114.406 .0213813
1115.002 .0214179
1115.599 .0214502
1116.196 .0214749
1116.793 .0214991
1117.391 .0215204
1117.989 .0215361
1118.588 .0215499
1119.187 .0215619
1119.787 .0215681
1120.387 .0215721
1120.988 .0215708
1121.589 .0215683
1122.190 .0215624
1122.793 .0215575
1123.395 .0215505
1123.998 .0215463
1124.602 .0215450
1125.206 .0215443
1125.811 .0215486
1126.416 .0215631
1127.022 .0215816
1127.628 .0216073
1128.235 .0216395
1128.843 .0216708
1129.451 .0216968
1130.059 .0217165
1130.669 .0217247
1131.278 .0217245
1131.889 .0217149
1132.500 .0217015
1133.112 .0216894
1133.724 .0216856
1134.337 .0216942
1134.950 .0217153
1135.564 .0217507
1136.179 .0217921
1136.795 .0218356
1137.411 .0218819
1138.028 .0219237
1138.645 .0219646
1139.263 .0220119
1139.882 .0220606
1140.502 .0221131
1141.122 .0221710
1141.743 .0222180
1142.365 .0222829
1142.987 .0224271
1143.611 .0223878
1144.235 .0224880
1144.859 .0220688
1145.485 .0228460
