Measurement Sequence started on: 10-20-44-796
Integration time: 35
Scans to Average: 2 
>>>>>Begin Spectral Data<<<<<
432.953 .0337118
433.882 .0336741
434.810 .0324782
435.737 .0316236
436.662 .0303837
437.586 .0321230
438.509 .0320741
439.431 .0320623
440.351 .0320859
441.269 .0321178
442.187 .0321493
443.103 .0321202
444.018 .0321085
444.932 .0320986
445.844 .0320948
446.756 .0320791
447.666 .0320466
448.575 .0319959
449.482 .0319225
450.388 .0318390
451.294 .0317498
452.198 .0316656
453.100 .0315936
454.002 .0315287
454.902 .0314840
455.801 .0314524
456.699 .0314178
457.596 .0313852
458.492 .0313487
459.387 .0313049
460.280 .0312509
461.172 .0311907
462.064 .0311346
462.954 .0310770
463.843 .0310255
464.730 .0309821
465.617 .0309505
466.503 .0309317
467.387 .0309173
468.271 .0309050
469.153 .0308984
470.035 .0308894
470.915 .0308781
471.794 .0308658
472.673 .0308540
473.550 .0308431
474.426 .0308388
475.301 .0308413
476.175 .0308507
477.048 .0308621
477.920 .0308746
478.791 .0308843
479.661 .0308917
480.530 .0308916
481.398 .0308805
482.266 .0308660
483.132 .0308499
483.997 .0308291
484.861 .0308092
485.724 .0307911
486.587 .0307775
487.448 .0307636
488.308 .0307497
489.168 .0307312
490.026 .0307086
490.884 .0306824
491.741 .0306507
492.597 .0306166
493.452 .0305816
494.306 .0305445
495.159 .0305084
496.011 .0304776
496.862 .0304475
497.713 .0304164
498.562 .0303832
499.411 .0303469
500.259 .0303039
501.106 .0302516
501.952 .0301940
502.798 .0301332
503.642 .0300706
504.486 .0300089
505.329 .0299474
506.171 .0298907
507.012 .0298335
507.852 .0297745
508.692 .0297111
509.531 .0296428
510.369 .0295649
511.206 .0294816
512.043 .0293908
512.878 .0292940
513.713 .0291897
514.547 .0290816
515.381 .0289703
516.213 .0288566
517.045 .0287338
517.876 .0286054
518.706 .0284693
519.536 .0283287
520.365 .0281788
521.193 .0280259
522.020 .0278710
522.847 .0277117
523.673 .0275433
524.498 .0273691
525.323 .0271837
526.146 .0269981
526.969 .0268140
527.792 .0266327
528.614 .0264547
529.435 .0262881
530.255 .0261306
531.075 .0259830
531.894 .0258412
532.712 .0257050
533.530 .0255694
534.347 .0254384
535.163 .0253115
535.979 .0251995
536.794 .0251122
537.608 .0250570
538.422 .0250284
539.235 .0250313
540.048 .0250520
540.860 .0250840
541.671 .0251173
542.481 .0251498
543.292 .0251747
544.101 .0251910
544.910 .0252054
545.718 .0252277
546.526 .0252595
547.333 .0253060
548.139 .0253670
548.945 .0254384
549.750 .0255117
550.555 .0255786
551.359 .0256337
552.162 .0256791
552.965 .0257161
553.768 .0257441
554.569 .0257717
555.371 .0258024
556.171 .0258389
556.972 .0258819
557.771 .0259341
558.570 .0259920
559.369 .0260534
560.167 .0261202
560.964 .0261898
561.761 .0262642
562.558 .0263462
563.354 .0264334
564.149 .0265269
564.944 .0266243
565.738 .0267218
566.532 .0268178
567.325 .0269119
568.118 .0270007
568.910 .0270831
569.702 .0271629
570.494 .0272378
571.285 .0273089
572.075 .0273786
572.865 .0274458
573.654 .0275095
574.443 .0275705
575.232 .0276283
576.020 .0276830
576.807 .0277390
577.594 .0277958
578.381 .0278538
579.167 .0279153
579.952 .0279790
580.738 .0280457
581.522 .0281156
582.307 .0281903
583.091 .0282684
583.874 .0283489
584.657 .0284286
585.440 .0285057
586.222 .0285795
587.004 .0286489
587.785 .0287094
588.566 .0287626
589.346 .0288081
590.126 .0288450
590.906 .0288738
591.685 .0288966
592.464 .0289140
593.242 .0289280
594.020 .0289381
594.797 .0289463
595.575 .0289525
596.351 .0289576
597.128 .0289605
597.904 .0289622
598.679 .0289628
599.454 .0289611
600.229 .0289575
601.004 .0289541
601.778 .0289500
602.551 .0289463
603.325 .0289432
604.097 .0289415
604.870 .0289405
605.642 .0289397
606.414 .0289379
607.185 .0289347
607.956 .0289301
608.727 .0289230
609.497 .0289134
610.267 .0289025
611.037 .0288900
611.806 .0288764
612.575 .0288624
613.344 .0288482
614.112 .0288332
614.880 .0288173
615.647 .0288005
616.414 .0287825
617.181 .0287634
617.948 .0287437
618.714 .0287241
619.480 .0287061
620.245 .0286898
621.011 .0286752
621.775 .0286628
622.540 .0286518
623.304 .0286415
624.068 .0286320
624.832 .0286234
625.595 .0286152
626.358 .0286071
627.120 .0285997
627.883 .0285927
628.645 .0285860
629.406 .0285798
630.168 .0285736
630.929 .0285669
631.689 .0285592
632.450 .0285496
633.210 .0285379
633.970 .0285241
634.729 .0285086
635.489 .0284907
636.248 .0284710
637.006 .0284499
637.765 .0284270
638.523 .0284036
639.280 .0283803
640.038 .0283578
640.795 .0283369
641.552 .0283181
642.309 .0283010
643.065 .0282864
643.821 .0282736
644.577 .0282622
645.332 .0282510
646.088 .0282398
646.843 .0282276
647.597 .0282139
648.352 .0281994
649.106 .0281848
649.860 .0281703
650.613 .0281572
651.367 .0281448
652.120 .0281343
652.872 .0281245
653.625 .0281149
654.377 .0281061
655.129 .0280971
655.881 .0280877
656.632 .0280773
657.384 .0280661
658.135 .0280544
658.885 .0280427
659.636 .0280313
660.386 .0280198
661.136 .0280092
661.885 .0279990
662.635 .0279887
663.384 .0279786
664.133 .0279682
664.881 .0279568
665.630 .0279444
666.378 .0279308
667.126 .0279147
667.874 .0278970
668.621 .0278777
669.368 .0278574
670.115 .0278366
670.862 .0278154
671.608 .0277949
672.354 .0277754
673.100 .0277574
673.846 .0277406
674.591 .0277258
675.337 .0277128
676.082 .0277012
676.826 .0276913
677.571 .0276829
678.315 .0276756
679.059 .0276695
679.803 .0276643
680.547 .0276600
681.290 .0276559
682.033 .0276521
682.776 .0276484
683.518 .0276446
684.261 .0276404
685.003 .0276355
685.745 .0276300
686.487 .0276238
687.228 .0276161
687.969 .0276069
688.710 .0275959
689.451 .0275828
690.192 .0275676
690.932 .0275505
691.672 .0275327
692.412 .0275142
693.152 .0274954
693.891 .0274770
694.630 .0274596
695.369 .0274429
696.108 .0274266
696.846 .0274104
697.585 .0273941
698.323 .0273781
699.061 .0273619
699.798 .0273461
700.536 .0273309
701.273 .0273166
702.010 .0273027
702.746 .0272895
703.483 .0272768
704.219 .0272639
704.955 .0272510
705.691 .0272374
706.427 .0272224
707.162 .0272065
707.897 .0271893
708.632 .0271722
709.367 .0271549
710.101 .0271380
710.835 .0271206
711.569 .0271035
712.303 .0270866
713.037 .0270695
713.770 .0270525
714.503 .0270358
715.236 .0270193
715.969 .0270030
716.702 .0269872
717.434 .0269721
718.166 .0269578
718.898 .0269448
719.629 .0269319
720.361 .0269197
721.092 .0269077
721.823 .0268959
722.554 .0268838
723.284 .0268719
724.014 .0268597
724.744 .0268465
725.474 .0268324
726.204 .0268172
726.933 .0268008
727.662 .0267831
728.391 .0267646
729.120 .0267455
729.849 .0267263
730.577 .0267075
731.305 .0266890
732.033 .0266714
732.760 .0266544
733.488 .0266379
734.215 .0266216
734.942 .0266054
735.669 .0265888
736.395 .0265720
737.122 .0265554
737.848 .0265393
738.573 .0265241
739.299 .0265099
740.024 .0264968
740.750 .0264844
741.474 .0264720
742.199 .0264593
742.924 .0264460
743.648 .0264319
744.372 .0264170
745.096 .0264019
745.819 .0263863
746.543 .0263707
747.266 .0263560
747.989 .0263425
748.711 .0263303
749.434 .0263197
750.156 .0263101
750.878 .0263017
751.599 .0262946
752.321 .0262885
753.042 .0262833
753.763 .0262795
754.484 .0262764
755.205 .0262739
755.925 .0262722
756.645 .0262709
757.365 .0262695
758.085 .0262681
758.804 .0262659
759.523 .0262618
760.242 .0262557
760.961 .0262470
761.679 .0262353
762.397 .0262204
763.115 .0262022
763.833 .0261810
764.551 .0261572
765.268 .0261316
765.985 .0261043
766.702 .0260758
767.418 .0260468
768.134 .0260172
768.850 .0259877
769.566 .0259589
770.282 .0259310
770.997 .0259044
771.712 .0258801
772.427 .0258581
773.142 .0258384
773.856 .0258209
774.570 .0258061
775.284 .0257930
775.998 .0257811
776.711 .0257704
777.424 .0257601
778.137 .0257501
778.849 .0257403
779.562 .0257298
780.274 .0257186
780.986 .0257062
781.697 .0256926
782.409 .0256776
783.120 .0256619
783.831 .0256450
784.541 .0256272
785.252 .0256091
785.962 .0255909
786.671 .0255726
787.381 .0255546
788.090 .0255369
788.799 .0255199
789.508 .0255033
790.217 .0254871
790.925 .0254718
791.633 .0254576
792.341 .0254444
793.048 .0254321
793.755 .0254204
794.462 .0254092
795.169 .0253981
795.875 .0253874
796.581 .0253770
797.287 .0253667
797.993 .0253566
798.698 .0253465
799.403 .0253367
800.108 .0253269
800.812 .0253169
801.517 .0253068
802.221 .0252965
802.924 .0252862
803.628 .0252759
804.331 .0252661
805.034 .0252573
805.736 .0252492
806.439 .0252419
807.141 .0252349
807.843 .0252283
808.544 .0252215
809.245 .0252145
809.946 .0252071
810.647 .0251993
811.347 .0251910
812.047 .0251826
812.747 .0251742
813.447 .0251657
814.146 .0251571
814.845 .0251483
815.543 .0251392
816.242 .0251300
816.940 .0251203
817.638 .0251101
818.335 .0250994
819.032 .0250887
819.729 .0250776
820.426 .0250661
821.122 .0250544
821.818 .0250425
822.514 .0250304
823.209 .0250185
823.905 .0250069
824.599 .0249954
825.294 .0249840
825.988 .0249725
826.682 .0249604
827.376 .0249478
828.069 .0249344
828.762 .0249202
829.455 .0249054
830.147 .0248906
830.840 .0248756
831.531 .0248607
832.223 .0248462
832.914 .0248324
833.605 .0248185
834.296 .0248050
834.986 .0247919
835.676 .0247788
836.366 .0247657
837.055 .0247526
837.744 .0247392
838.433 .0247259
839.121 .0247127
839.809 .0246996
840.497 .0246865
841.185 .0246743
841.872 .0246628
842.559 .0246525
843.245 .0246434
843.932 .0246358
844.617 .0246286
845.303 .0246222
845.988 .0246158
846.673 .0246089
847.358 .0246022
848.042 .0245957
848.726 .0245890
849.410 .0245827
850.093 .0245765
850.776 .0245709
851.459 .0245654
852.141 .0245601
852.823 .0245542
853.505 .0245475
854.186 .0245398
854.867 .0245309
855.548 .0245205
856.228 .0245096
856.908 .0244979
857.588 .0244857
858.267 .0244732
858.946 .0244602
859.625 .0244467
860.303 .0244332
860.981 .0244199
861.659 .0244072
862.336 .0243949
863.013 .0243835
863.690 .0243729
864.366 .0243634
865.042 .0243548
865.718 .0243469
866.393 .0243401
867.068 .0243339
867.743 .0243279
868.417 .0243222
869.091 .0243166
869.765 .0243110
870.438 .0243049
871.111 .0242981
871.783 .0242908
872.456 .0242826
873.127 .0242731
873.799 .0242628
874.470 .0242516
875.141 .0242394
875.811 .0242262
876.481 .0242121
877.151 .0241975
877.820 .0241823
878.489 .0241669
879.158 .0241514
879.826 .0241363
880.494 .0241218
881.162 .0241078
881.829 .0240947
882.496 .0240826
883.163 .0240711
883.829 .0240603
884.495 .0240502
885.160 .0240407
885.825 .0240319
886.490 .0240236
887.154 .0240159
887.818 .0240089
888.482 .0240022
889.145 .0239962
889.808 .0239907
890.471 .0239862
891.133 .0239819
891.795 .0239780
892.456 .0239746
893.117 .0239711
893.778 .0239678
894.439 .0239641
895.099 .0239600
895.758 .0239556
896.417 .0239505
897.076 .0239449
897.735 .0239388
898.393 .0239323
899.051 .0239255
899.708 .0239184
900.365 .0239106
901.022 .0239024
901.678 .0238932
902.334 .0238833
902.990 .0238730
903.645 .0238618
904.300 .0238506
904.954 .0238394
905.608 .0238285
906.262 .0238178
906.915 .0238076
907.568 .0237978
908.221 .0237881
908.873 .0237787
909.525 .0237691
910.176 .0237589
910.828 .0237485
911.478 .0237377
912.129 .0237261
912.778 .0237142
913.428 .0237022
914.077 .0236894
914.726 .0236765
915.375 .0236634
916.023 .0236500
916.670 .0236369
917.318 .0236243
917.964 .0236121
918.611 .0236002
919.257 .0235892
919.903 .0235785
920.548 .0235687
921.193 .0235599
921.838 .0235515
922.482 .0235440
923.126 .0235374
923.770 .0235315
924.413 .0235264
925.056 .0235221
925.698 .0235185
926.340 .0235150
926.982 .0235113
927.623 .0235068
928.264 .0235015
928.904 .0234947
929.544 .0234864
930.184 .0234764
930.823 .0234653
931.462 .0234530
932.101 .0234397
932.739 .0234256
933.377 .0234105
934.014 .0233947
934.651 .0233776
935.288 .0233594
935.924 .0233402
936.560 .0233199
937.196 .0232994
937.831 .0232791
938.466 .0232593
939.100 .0232402
939.734 .0232222
940.368 .0232052
941.001 .0231884
941.634 .0231718
942.266 .0231549
942.899 .0231378
943.530 .0231207
944.162 .0231034
944.793 .0230862
945.423 .0230692
946.053 .0230526
946.683 .0230364
947.313 .0230209
947.942 .0230052
948.571 .0229894
949.199 .0229733
949.827 .0229568
950.455 .0229396
951.082 .0229222
951.709 .0229050
952.335 .0228879
952.961 .0228712
953.587 .0228547
954.212 .0228388
954.837 .0228234
955.462 .0228082
956.086 .0227933
956.710 .0227782
957.334 .0227630
957.957 .0227471
958.579 .0227310
959.202 .0227147
959.824 .0226984
960.445 .0226826
961.067 .0226675
961.688 .0226535
962.308 .0226408
962.928 .0226296
963.548 .0226196
964.168 .0226100
964.787 .0226003
965.406 .0225904
966.024 .0225805
966.642 .0225706
967.260 .0225614
967.877 .0225534
968.494 .0225471
969.110 .0225426
969.727 .0225393
970.342 .0225371
970.958 .0225354
971.573 .0225337
972.188 .0225313
972.802 .0225279
973.416 .0225238
974.030 .0225198
974.643 .0225163
975.256 .0225140
975.869 .0225129
976.481 .0225133
977.093 .0225148
977.705 .0225171
978.316 .0225198
978.927 .0225221
979.538 .0225237
980.148 .0225244
980.758 .0225233
981.367 .0225207
981.977 .0225168
982.586 .0225124
983.194 .0225075
983.802 .0225023
984.410 .0224965
985.018 .0224911
985.625 .0224857
986.232 .0224805
986.838 .0224756
987.445 .0224710
988.050 .0224665
988.656 .0224616
989.261 .0224567
989.866 .0224520
990.471 .0224481
991.075 .0224457
991.679 .0224446
992.282 .0224457
992.886 .0224488
993.489 .0224539
994.091 .0224609
994.694 .0224693
995.296 .0224778
995.897 .0224860
996.499 .0224935
997.100 .0224990
997.701 .0225029
998.301 .0225055
998.901 .0225074
999.501 .0225089
1000.101 .0225097
1000.700 .0225103
1001.299 .0225104
1001.898 .0225104
1002.496 .0225096
1003.094 .0225079
1003.692 .0225055
1004.289 .0225018
1004.887 .0224970
1005.484 .0224913
1006.080 .0224854
1006.677 .0224795
1007.273 .0224745
1007.868 .0224708
1008.464 .0224689
1009.059 .0224686
1009.654 .0224707
1010.249 .0224755
1010.843 .0224823
1011.437 .0224907
1012.031 .0224993
1012.625 .0225077
1013.218 .0225158
1013.811 .0225229
1014.404 .0225299
1014.997 .0225373
1015.589 .0225459
1016.181 .0225549
1016.773 .0225646
1017.365 .0225750
1017.956 .0225849
1018.547 .0225941
1019.138 .0226017
1019.728 .0226067
1020.319 .0226092
1020.909 .0226098
1021.499 .0226094
1022.088 .0226088
1022.678 .0226096
1023.267 .0226111
1023.856 .0226136
1024.445 .0226173
1025.033 .0226217
1025.621 .0226256
1026.209 .0226300
1026.797 .0226336
1027.385 .0226360
1027.972 .0226382
1028.560 .0226402
1029.147 .0226415
1029.734 .0226439
1030.320 .0226467
1030.907 .0226499
1031.493 .0226532
1032.079 .0226577
1032.665 .0226618
1033.250 .0226667
1033.836 .0226714
1034.421 .0226760
1035.006 .0226799
1035.591 .0226832
1036.176 .0226846
1036.761 .0226847
1037.345 .0226833
1037.929 .0226799
1038.514 .0226744
1039.097 .0226687
1039.681 .0226628
1040.265 .0226572
1040.848 .0226521
1041.432 .0226481
1042.015 .0226445
1042.598 .0226408
1043.181 .0226369
1043.764 .0226328
1044.346 .0226281
1044.929 .0226231
1045.511 .0226183
1046.094 .0226149
1046.676 .0226137
1047.258 .0226142
1047.840 .0226168
1048.422 .0226215
1049.003 .0226270
1049.585 .0226316
1050.166 .0226356
1050.748 .0226389
1051.329 .0226410
1051.910 .0226426
1052.491 .0226441
1053.072 .0226462
1053.653 .0226489
1054.234 .0226515
1054.815 .0226537
1055.396 .0226552
1055.976 .0226553
1056.557 .0226542
1057.138 .0226530
1057.718 .0226521
1058.298 .0226528
1058.879 .0226552
1059.459 .0226595
1060.039 .0226650
1060.620 .0226699
1061.200 .0226727
1061.780 .0226724
1062.360 .0226689
1062.940 .0226618
1063.520 .0226515
1064.101 .0226400
1064.681 .0226284
1065.261 .0226173
1065.841 .0226080
1066.421 .0225998
1067.001 .0225927
1067.581 .0225855
1068.161 .0225775
1068.741 .0225683
1069.321 .0225584
1069.901 .0225488
1070.482 .0225396
1071.062 .0225304
1071.642 .0225232
1072.222 .0225173
1072.803 .0225123
1073.383 .0225085
1073.963 .0225060
1074.544 .0225039
1075.124 .0225026
1075.705 .0225005
1076.286 .0224982
1076.866 .0224950
1077.447 .0224920
1078.028 .0224860
1078.609 .0224789
1079.190 .0224702
1079.771 .0224595
1080.352 .0224488
1080.934 .0224402
1081.515 .0224330
1082.097 .0224299
1082.679 .0224299
1083.260 .0224323
1083.842 .0224360
1084.424 .0224401
1085.007 .0224398
1085.589 .0224372
1086.172 .0224300
1086.754 .0224178
1087.337 .0224005
1087.920 .0223824
1088.503 .0223638
1089.087 .0223472
1089.670 .0223334
1090.254 .0223211
1090.838 .0223108
1091.422 .0223014
1092.006 .0222885
1092.590 .0222747
1093.175 .0222584
1093.760 .0222398
1094.345 .0222200
1094.930 .0222018
1095.516 .0221850
1096.102 .0221731
1096.688 .0221676
1097.274 .0221688
1097.860 .0221738
1098.447 .0221809
1099.034 .0221878
1099.622 .0221937
1100.209 .0221965
1100.797 .0221945
1101.385 .0221885
1101.973 .0221806
1102.562 .0221695
1103.151 .0221572
1103.740 .0221436
1104.330 .0221314
1104.920 .0221206
1105.510 .0221105
1106.101 .0221011
1106.691 .0220934
1107.283 .0220858
1107.874 .0220805
1108.466 .0220775
1109.058 .0220750
1109.651 .0220738
1110.244 .0220740
1110.837 .0220740
1111.431 .0220713
1112.025 .0220668
1112.620 .0220604
1113.215 .0220532
1113.810 .0220458
1114.406 .0220362
1115.002 .0220273
1115.599 .0220185
1116.196 .0220070
1116.793 .0219914
1117.391 .0219734
1117.989 .0219531
1118.588 .0219314
1119.187 .0219107
1119.787 .0218923
1120.387 .0218818
1120.988 .0218802
1121.589 .0218881
1122.190 .0219046
1122.793 .0219267
1123.395 .0219527
1123.998 .0219799
1124.602 .0220089
1125.206 .0220366
1125.811 .0220658
1126.416 .0220950
1127.022 .0221249
1127.628 .0221553
1128.235 .0221839
1128.843 .0222089
1129.451 .0222324
1130.059 .0222507
1130.669 .0222642
1131.278 .0222711
1131.889 .0222745
1132.500 .0222748
1133.112 .0222745
1133.724 .0222707
1134.337 .0222689
1134.950 .0222663
1135.564 .0222673
1136.179 .0222677
1136.795 .0222764
1137.411 .0222927
1138.028 .0223184
1138.645 .0223556
1139.263 .0224000
1139.882 .0224537
1140.502 .0225202
1141.122 .0225987
1141.743 .0226945
1142.365 .0228211
1142.987 .0227935
1143.611 .0230168
1144.235 .0232405
1144.859 .0234339
1145.485 .0240380
