Measurement Sequence started on: 10-20-44-796
Integration time: 35
Scans to Average: 2 
>>>>>Begin Spectral Data<<<<<
432.953 .0262896
433.882 .0383854
434.810 .0376430
435.737 .0343197
436.662 .0354220
437.586 .0353638
438.509 .0355586
439.431 .0353719
440.351 .0352311
441.269 .0351644
442.187 .0350450
443.103 .0349259
444.018 .0348124
444.932 .0347064
445.844 .0346374
446.756 .0345673
447.666 .0345184
448.575 .0344635
449.482 .0343986
450.388 .0343276
451.294 .0342497
452.198 .0341674
453.100 .0340869
454.002 .0340206
454.902 .0339677
455.801 .0339275
456.699 .0339048
457.596 .0338944
458.492 .0338883
459.387 .0338765
460.280 .0338501
461.172 .0338025
462.064 .0337414
462.954 .0336654
463.843 .0335820
464.730 .0334988
465.617 .0334263
466.503 .0333627
467.387 .0333087
468.271 .0332666
469.153 .0332303
470.035 .0331894
470.915 .0331485
471.794 .0330999
472.673 .0330457
473.550 .0329908
474.426 .0329430
475.301 .0329026
476.175 .0328761
477.048 .0328590
477.920 .0328485
478.791 .0328413
479.661 .0328362
480.530 .0328256
481.398 .0328107
482.266 .0327922
483.132 .0327724
483.997 .0327503
484.861 .0327337
485.724 .0327220
486.587 .0327166
487.448 .0327155
488.308 .0327159
489.168 .0327139
490.026 .0327100
490.884 .0327033
491.741 .0326937
492.597 .0326816
493.452 .0326668
494.306 .0326460
495.159 .0326229
496.011 .0325943
496.862 .0325613
497.713 .0325201
498.562 .0324731
499.411 .0324185
500.259 .0323554
501.106 .0322843
501.952 .0322081
502.798 .0321299
503.642 .0320468
504.486 .0319558
505.329 .0318603
506.171 .0317587
507.012 .0316506
507.852 .0315372
508.692 .0314222
509.531 .0313044
510.369 .0311906
511.206 .0310753
512.043 .0309630
512.878 .0308528
513.713 .0307444
514.547 .0306315
515.381 .0305145
516.213 .0303888
517.045 .0302504
517.876 .0301030
518.706 .0299498
519.536 .0297910
520.365 .0296338
521.193 .0294762
522.020 .0293238
522.847 .0291711
523.673 .0290199
524.498 .0288589
525.323 .0286927
526.146 .0285160
526.969 .0283331
527.792 .0281430
528.614 .0279531
529.435 .0277713
530.255 .0276020
531.075 .0274458
531.894 .0273096
532.712 .0271922
533.530 .0270868
534.347 .0269888
535.163 .0268993
535.979 .0268164
536.794 .0267515
537.608 .0266973
538.422 .0266608
539.235 .0266453
540.048 .0266456
540.860 .0266537
541.671 .0266669
542.481 .0266865
543.292 .0267001
544.101 .0267112
544.910 .0267210
545.718 .0267336
546.526 .0267559
547.333 .0267879
548.139 .0268345
548.945 .0268955
549.750 .0269662
550.555 .0270360
551.359 .0271021
552.162 .0271648
552.965 .0272197
553.768 .0272661
554.569 .0273105
555.371 .0273548
556.171 .0273994
556.972 .0274477
557.771 .0275020
558.570 .0275607
559.369 .0276227
560.167 .0276851
560.964 .0277430
561.761 .0277927
562.558 .0278396
563.354 .0278805
564.149 .0279235
564.944 .0279698
565.738 .0280198
566.532 .0280752
567.325 .0281368
568.118 .0282011
568.910 .0282669
569.702 .0283337
570.494 .0284017
571.285 .0284668
572.075 .0285319
572.865 .0285939
573.654 .0286571
574.443 .0287219
575.232 .0287891
576.020 .0288581
576.807 .0289290
577.594 .0289984
578.381 .0290691
579.167 .0291379
579.952 .0292045
580.738 .0292692
581.522 .0293337
582.307 .0293969
583.091 .0294605
583.874 .0295245
584.657 .0295882
585.440 .0296508
586.222 .0297105
587.004 .0297639
587.785 .0298108
588.566 .0298498
589.346 .0298803
590.126 .0299039
590.906 .0299215
591.685 .0299348
592.464 .0299461
593.242 .0299558
594.020 .0299638
594.797 .0299692
595.575 .0299719
596.351 .0299717
597.128 .0299678
597.904 .0299601
598.679 .0299498
599.454 .0299374
600.229 .0299243
601.004 .0299113
601.778 .0298993
602.551 .0298891
603.325 .0298806
604.097 .0298733
604.870 .0298656
605.642 .0298569
606.414 .0298474
607.185 .0298364
607.956 .0298249
608.727 .0298132
609.497 .0298015
610.267 .0297904
611.037 .0297801
611.806 .0297703
612.575 .0297613
613.344 .0297525
614.112 .0297432
614.880 .0297323
615.647 .0297196
616.414 .0297048
617.181 .0296878
617.948 .0296696
618.714 .0296506
619.480 .0296312
620.245 .0296124
621.011 .0295937
621.775 .0295759
622.540 .0295588
623.304 .0295425
624.068 .0295270
624.832 .0295111
625.595 .0294954
626.358 .0294798
627.120 .0294647
627.883 .0294505
628.645 .0294371
629.406 .0294248
630.168 .0294135
630.929 .0294024
631.689 .0293915
632.450 .0293796
633.210 .0293664
633.970 .0293513
634.729 .0293343
635.489 .0293149
636.248 .0292936
637.006 .0292706
637.765 .0292470
638.523 .0292221
639.280 .0291972
640.038 .0291721
640.795 .0291471
641.552 .0291220
642.309 .0290968
643.065 .0290718
643.821 .0290475
644.577 .0290231
645.332 .0289992
646.088 .0289764
646.843 .0289552
647.597 .0289352
648.352 .0289176
649.106 .0289024
649.860 .0288888
650.613 .0288766
651.367 .0288657
652.120 .0288552
652.872 .0288444
653.625 .0288330
654.377 .0288209
655.129 .0288088
655.881 .0287964
656.632 .0287839
657.384 .0287717
658.135 .0287605
658.885 .0287490
659.636 .0287374
660.386 .0287251
661.136 .0287113
661.885 .0286957
662.635 .0286791
663.384 .0286611
664.133 .0286425
664.881 .0286234
665.630 .0286048
666.378 .0285865
667.126 .0285686
667.874 .0285501
668.621 .0285315
669.368 .0285123
670.115 .0284929
670.862 .0284729
671.608 .0284537
672.354 .0284363
673.100 .0284207
673.846 .0284077
674.591 .0283970
675.337 .0283886
676.082 .0283822
676.826 .0283770
677.571 .0283721
678.315 .0283670
679.059 .0283618
679.803 .0283562
680.547 .0283502
681.290 .0283437
682.033 .0283362
682.776 .0283280
683.518 .0283190
684.261 .0283090
685.003 .0282973
685.745 .0282840
686.487 .0282689
687.228 .0282523
687.969 .0282341
688.710 .0282148
689.451 .0281954
690.192 .0281765
690.932 .0281580
691.672 .0281402
692.412 .0281235
693.152 .0281078
693.891 .0280926
694.630 .0280782
695.369 .0280639
696.108 .0280494
696.846 .0280344
697.585 .0280190
698.323 .0280033
699.061 .0279876
699.798 .0279714
700.536 .0279546
701.273 .0279375
702.010 .0279194
702.746 .0278999
703.483 .0278797
704.219 .0278586
704.955 .0278371
705.691 .0278154
706.427 .0277943
707.162 .0277743
707.897 .0277558
708.632 .0277388
709.367 .0277231
710.101 .0277087
710.835 .0276951
711.569 .0276817
712.303 .0276684
713.037 .0276551
713.770 .0276414
714.503 .0276271
715.236 .0276119
715.969 .0275959
716.702 .0275792
717.434 .0275619
718.166 .0275443
718.898 .0275266
719.629 .0275092
720.361 .0274919
721.092 .0274745
721.823 .0274568
722.554 .0274384
723.284 .0274190
724.014 .0273982
724.744 .0273759
725.474 .0273529
726.204 .0273295
726.933 .0273062
727.662 .0272834
728.391 .0272612
729.120 .0272402
729.849 .0272201
730.577 .0272011
731.305 .0271824
732.033 .0271640
732.760 .0271454
733.488 .0271269
734.215 .0271081
734.942 .0270892
735.669 .0270700
736.395 .0270516
737.122 .0270338
737.848 .0270163
738.573 .0269995
739.299 .0269842
740.024 .0269698
740.750 .0269566
741.474 .0269436
742.199 .0269308
742.924 .0269172
743.648 .0269030
744.372 .0268871
745.096 .0268707
745.819 .0268536
746.543 .0268365
747.266 .0268197
747.989 .0268043
748.711 .0267904
749.434 .0267785
750.156 .0267688
750.878 .0267604
751.599 .0267529
752.321 .0267466
753.042 .0267408
753.763 .0267356
754.484 .0267307
755.205 .0267264
755.925 .0267225
756.645 .0267191
757.365 .0267158
758.085 .0267124
758.804 .0267089
759.523 .0267048
760.242 .0266987
760.961 .0266906
761.679 .0266807
762.397 .0266679
763.115 .0266529
763.833 .0266361
764.551 .0266173
765.268 .0265972
765.985 .0265760
766.702 .0265541
767.418 .0265313
768.134 .0265086
768.850 .0264859
769.566 .0264636
770.282 .0264423
770.997 .0264217
771.712 .0264019
772.427 .0263839
773.142 .0263668
773.856 .0263505
774.570 .0263351
775.284 .0263206
775.998 .0263065
776.711 .0262934
777.424 .0262814
778.137 .0262707
778.849 .0262611
779.562 .0262530
780.274 .0262451
780.986 .0262377
781.697 .0262304
782.409 .0262222
783.120 .0262136
783.831 .0262052
784.541 .0261964
785.252 .0261883
785.962 .0261811
786.671 .0261750
787.381 .0261692
788.090 .0261644
788.799 .0261594
789.508 .0261533
790.217 .0261464
790.925 .0261382
791.633 .0261283
792.341 .0261173
793.048 .0261053
793.755 .0260920
794.462 .0260782
795.169 .0260641
795.875 .0260497
796.581 .0260359
797.287 .0260228
797.993 .0260100
798.698 .0259979
799.403 .0259862
800.108 .0259749
800.812 .0259631
801.517 .0259514
802.221 .0259392
802.924 .0259270
803.628 .0259153
804.331 .0259050
805.034 .0258961
805.736 .0258887
806.439 .0258828
807.141 .0258779
807.843 .0258731
808.544 .0258679
809.245 .0258614
809.946 .0258537
810.647 .0258445
811.347 .0258346
812.047 .0258240
812.747 .0258144
813.447 .0258054
814.146 .0257971
814.845 .0257895
815.543 .0257819
816.242 .0257740
816.940 .0257655
817.638 .0257559
818.335 .0257453
819.032 .0257339
819.729 .0257219
820.426 .0257095
821.122 .0256971
821.818 .0256844
822.514 .0256714
823.209 .0256579
823.905 .0256438
824.599 .0256285
825.294 .0256125
825.988 .0255960
826.682 .0255790
827.376 .0255621
828.069 .0255453
828.762 .0255289
829.455 .0255131
830.147 .0254979
830.840 .0254836
831.531 .0254699
832.223 .0254569
832.914 .0254442
833.605 .0254320
834.296 .0254204
834.986 .0254092
835.676 .0253984
836.366 .0253882
837.055 .0253784
837.744 .0253689
838.433 .0253594
839.121 .0253502
839.809 .0253408
840.497 .0253309
841.185 .0253208
841.872 .0253101
842.559 .0252995
843.245 .0252891
843.932 .0252788
844.617 .0252687
845.303 .0252588
845.988 .0252490
846.673 .0252389
847.358 .0252285
848.042 .0252176
848.726 .0252060
849.410 .0251940
850.093 .0251817
850.776 .0251689
851.459 .0251559
852.141 .0251427
852.823 .0251291
853.505 .0251158
854.186 .0251019
854.867 .0250883
855.548 .0250748
856.228 .0250619
856.908 .0250494
857.588 .0250377
858.267 .0250274
858.946 .0250183
859.625 .0250100
860.303 .0250027
860.981 .0249959
861.659 .0249896
862.336 .0249837
863.013 .0249782
863.690 .0249729
864.366 .0249680
865.042 .0249627
865.718 .0249569
866.393 .0249498
867.068 .0249413
867.743 .0249311
868.417 .0249189
869.091 .0249048
869.765 .0248887
870.438 .0248716
871.111 .0248543
871.783 .0248372
872.456 .0248206
873.127 .0248047
873.799 .0247895
874.470 .0247747
875.141 .0247603
875.811 .0247467
876.481 .0247334
877.151 .0247211
877.820 .0247097
878.489 .0246993
879.158 .0246903
879.826 .0246826
880.494 .0246758
881.162 .0246697
881.829 .0246635
882.496 .0246565
883.163 .0246486
883.829 .0246400
884.495 .0246308
885.160 .0246213
885.825 .0246118
886.490 .0246026
887.154 .0245935
887.818 .0245849
888.482 .0245763
889.145 .0245679
889.808 .0245599
890.471 .0245519
891.133 .0245440
891.795 .0245365
892.456 .0245298
893.117 .0245237
893.778 .0245183
894.439 .0245130
895.099 .0245075
895.758 .0245013
896.417 .0244941
897.076 .0244860
897.735 .0244771
898.393 .0244676
899.051 .0244577
899.708 .0244480
900.365 .0244389
901.022 .0244307
901.678 .0244234
902.334 .0244174
902.990 .0244124
903.645 .0244079
904.300 .0244038
904.954 .0244000
905.608 .0243961
906.262 .0243920
906.915 .0243875
907.568 .0243825
908.221 .0243770
908.873 .0243715
909.525 .0243657
910.176 .0243598
910.828 .0243535
911.478 .0243466
912.129 .0243386
912.778 .0243294
913.428 .0243189
914.077 .0243072
914.726 .0242948
915.375 .0242819
916.023 .0242694
916.670 .0242582
917.318 .0242486
917.964 .0242410
918.611 .0242352
919.257 .0242317
919.903 .0242292
920.548 .0242276
921.193 .0242267
921.838 .0242267
922.482 .0242270
923.126 .0242273
923.770 .0242279
924.413 .0242286
925.056 .0242290
925.698 .0242288
926.340 .0242282
926.982 .0242269
927.623 .0242243
928.264 .0242207
928.904 .0242162
929.544 .0242110
930.184 .0242048
930.823 .0241977
931.462 .0241898
932.101 .0241812
932.739 .0241716
933.377 .0241608
934.014 .0241495
934.651 .0241380
935.288 .0241258
935.924 .0241138
936.560 .0241022
937.196 .0240910
937.831 .0240795
938.466 .0240682
939.100 .0240567
939.734 .0240442
940.368 .0240310
941.001 .0240170
941.634 .0240026
942.266 .0239883
942.899 .0239742
943.530 .0239609
944.162 .0239487
944.793 .0239373
945.423 .0239259
946.053 .0239142
946.683 .0239018
947.313 .0238881
947.942 .0238733
948.571 .0238574
949.199 .0238408
949.827 .0238235
950.455 .0238062
951.082 .0237890
951.709 .0237725
952.335 .0237560
952.961 .0237398
953.587 .0237234
954.212 .0237065
954.837 .0236895
955.462 .0236724
956.086 .0236556
956.710 .0236398
957.334 .0236251
957.957 .0236116
958.579 .0235992
959.202 .0235879
959.824 .0235771
960.445 .0235668
961.067 .0235569
961.688 .0235468
962.308 .0235365
962.928 .0235271
963.548 .0235171
964.168 .0235074
964.787 .0234980
965.406 .0234885
966.024 .0234791
966.642 .0234697
967.260 .0234605
967.877 .0234512
968.494 .0234421
969.110 .0234335
969.727 .0234249
970.342 .0234173
970.958 .0234100
971.573 .0234028
972.188 .0233965
972.802 .0233912
973.416 .0233867
974.030 .0233832
974.643 .0233805
975.256 .0233786
975.869 .0233770
976.481 .0233754
977.093 .0233738
977.705 .0233718
978.316 .0233697
978.927 .0233667
979.538 .0233629
980.148 .0233583
980.758 .0233530
981.367 .0233476
981.977 .0233424
982.586 .0233376
983.194 .0233332
983.802 .0233294
984.410 .0233261
985.018 .0233232
985.625 .0233204
986.232 .0233175
986.838 .0233146
987.445 .0233116
988.050 .0233084
988.656 .0233053
989.261 .0233023
989.866 .0232995
990.471 .0232971
991.075 .0232948
991.679 .0232923
992.282 .0232899
992.886 .0232875
993.489 .0232851
994.091 .0232827
994.694 .0232802
995.296 .0232774
995.897 .0232742
996.499 .0232698
997.100 .0232640
997.701 .0232571
998.301 .0232492
998.901 .0232406
999.501 .0232326
1000.101 .0232251
1000.700 .0232181
1001.299 .0232125
1001.898 .0232075
1002.496 .0232033
1003.094 .0231988
1003.692 .0231937
1004.289 .0231877
1004.887 .0231811
1005.484 .0231743
1006.080 .0231671
1006.677 .0231608
1007.273 .0231558
1007.868 .0231518
1008.464 .0231496
1009.059 .0231493
1009.654 .0231505
1010.249 .0231528
1010.843 .0231568
1011.437 .0231612
1012.031 .0231658
1012.625 .0231697
1013.218 .0231724
1013.811 .0231735
1014.404 .0231729
1014.997 .0231705
1015.589 .0231663
1016.181 .0231619
1016.773 .0231575
1017.365 .0231540
1017.956 .0231515
1018.547 .0231501
1019.138 .0231488
1019.728 .0231473
1020.319 .0231454
1020.909 .0231422
1021.499 .0231376
1022.088 .0231321
1022.678 .0231257
1023.267 .0231195
1023.856 .0231131
1024.445 .0231080
1025.033 .0231037
1025.621 .0231003
1026.209 .0230969
1026.797 .0230930
1027.385 .0230879
1027.972 .0230819
1028.560 .0230745
1029.147 .0230664
1029.734 .0230579
1030.320 .0230497
1030.907 .0230419
1031.493 .0230356
1032.079 .0230313
1032.665 .0230287
1033.250 .0230274
1033.836 .0230272
1034.421 .0230267
1035.006 .0230266
1035.591 .0230260
1036.176 .0230252
1036.761 .0230249
1037.345 .0230251
1037.929 .0230258
1038.514 .0230270
1039.097 .0230284
1039.681 .0230305
1040.265 .0230328
1040.848 .0230349
1041.432 .0230364
1042.015 .0230367
1042.598 .0230362
1043.181 .0230350
1043.764 .0230338
1044.346 .0230327
1044.929 .0230311
1045.511 .0230297
1046.094 .0230281
1046.676 .0230257
1047.258 .0230223
1047.840 .0230170
1048.422 .0230103
1049.003 .0230024
1049.585 .0229926
1050.166 .0229821
1050.748 .0229712
1051.329 .0229606
1051.910 .0229496
1052.491 .0229383
1053.072 .0229276
1053.653 .0229174
1054.234 .0229084
1054.815 .0229008
1055.396 .0228947
1055.976 .0228907
1056.557 .0228882
1057.138 .0228873
1057.718 .0228888
1058.298 .0228901
1058.879 .0228915
1059.459 .0228924
1060.039 .0228918
1060.620 .0228887
1061.200 .0228826
1061.780 .0228748
1062.360 .0228643
1062.940 .0228520
1063.520 .0228381
1064.101 .0228213
1064.681 .0228041
1065.261 .0227850
1065.841 .0227637
1066.421 .0227411
1067.001 .0227191
1067.581 .0226966
1068.161 .0226752
1068.741 .0226564
1069.321 .0226410
1069.901 .0226293
1070.482 .0226225
1071.062 .0226191
1071.642 .0226186
1072.222 .0226222
1072.803 .0226285
1073.383 .0226355
1073.963 .0226453
1074.544 .0226556
1075.124 .0226663
1075.705 .0226753
1076.286 .0226836
1076.866 .0226885
1077.447 .0226906
1078.028 .0226898
1078.609 .0226858
1079.190 .0226786
1079.771 .0226692
1080.352 .0226566
1080.934 .0226427
1081.515 .0226286
1082.097 .0226140
1082.679 .0225982
1083.260 .0225828
1083.842 .0225664
1084.424 .0225497
1085.007 .0225347
1085.589 .0225219
1086.172 .0225104
1086.754 .0225008
1087.337 .0224928
1087.920 .0224873
1088.503 .0224841
1089.087 .0224820
1089.670 .0224800
1090.254 .0224788
1090.838 .0224781
1091.422 .0224781
1092.006 .0224798
1092.590 .0224843
1093.175 .0224916
1093.760 .0225012
1094.345 .0225123
1094.930 .0225234
1095.516 .0225360
1096.102 .0225499
1096.688 .0225635
1097.274 .0225772
1097.860 .0225885
1098.447 .0225987
1099.034 .0226054
1099.622 .0226098
1100.209 .0226115
1100.797 .0226102
1101.385 .0226068
1101.973 .0226013
1102.562 .0225959
1103.151 .0225911
1103.740 .0225873
1104.330 .0225842
1104.920 .0225815
1105.510 .0225782
1106.101 .0225728
1106.691 .0225671
1107.283 .0225618
1107.874 .0225583
1108.466 .0225558
1109.058 .0225575
1109.651 .0225634
1110.244 .0225711
1110.837 .0225811
1111.431 .0225906
1112.025 .0225976
1112.620 .0226008
1113.215 .0225996
1113.810 .0225948
1114.406 .0225903
1115.002 .0225850
1115.599 .0225789
1116.196 .0225742
1116.793 .0225698
1117.391 .0225644
1117.989 .0225574
1118.588 .0225496
1119.187 .0225418
1119.787 .0225360
1120.387 .0225359
1120.988 .0225399
1121.589 .0225514
1122.190 .0225690
1122.793 .0225894
1123.395 .0226144
1123.998 .0226406
1124.602 .0226669
1125.206 .0226941
1125.811 .0227230
1126.416 .0227549
1127.022 .0227907
1127.628 .0228309
1128.235 .0228762
1128.843 .0229236
1129.451 .0229730
1130.059 .0230180
1130.669 .0230591
1131.278 .0230957
1131.889 .0231247
1132.500 .0231495
1133.112 .0231731
1133.724 .0231953
1134.337 .0232205
1134.950 .0232465
1135.564 .0232772
1136.179 .0233081
1136.795 .0233397
1137.411 .0233708
1138.028 .0234007
1138.645 .0234308
1139.263 .0234619
1139.882 .0234956
1140.502 .0235356
1141.122 .0235793
1141.743 .0236374
1142.365 .0237200
1142.987 .0237518
1143.611 .0238346
1144.235 .0238459
1144.859 .0241420
1145.485 .0246721
