Measurement Sequence started on: 10-20-44-796
Integration time: 35
Scans to Average: 2 
>>>>>Begin Spectral Data<<<<<
432.953 .0498138
433.882 .0458956
434.810 .0393472
435.737 .0367441
436.662 .0351129
437.586 .0372364
438.509 .0363803
439.431 .0358981
440.351 .0357090
441.269 .0355988
442.187 .0355026
443.103 .0353966
444.018 .0353208
444.932 .0352508
445.844 .0352292
446.756 .0352608
447.666 .0353232
448.575 .0353758
449.482 .0353976
450.388 .0353855
451.294 .0353476
452.198 .0352953
453.100 .0352311
454.002 .0351724
454.902 .0351233
455.801 .0350943
456.699 .0350736
457.596 .0350612
458.492 .0350504
459.387 .0350245
460.280 .0349815
461.172 .0349190
462.064 .0348427
462.954 .0347562
463.843 .0346705
464.730 .0345886
465.617 .0345049
466.503 .0344171
467.387 .0343221
468.271 .0342182
469.153 .0341093
470.035 .0339962
470.915 .0338832
471.794 .0337748
472.673 .0336730
473.550 .0335853
474.426 .0335085
475.301 .0334455
476.175 .0333932
477.048 .0333468
477.920 .0333026
478.791 .0332606
479.661 .0332194
480.530 .0331860
481.398 .0331590
482.266 .0331452
483.132 .0331459
483.997 .0331618
484.861 .0331874
485.724 .0332219
486.587 .0332649
487.448 .0333136
488.308 .0333592
489.168 .0334023
490.026 .0334346
490.884 .0334589
491.741 .0334710
492.597 .0334763
493.452 .0334730
494.306 .0334661
495.159 .0334540
496.011 .0334366
496.862 .0334118
497.713 .0333750
498.562 .0333245
499.411 .0332613
500.259 .0331832
501.106 .0330930
501.952 .0329908
502.798 .0328885
503.642 .0327912
504.486 .0327026
505.329 .0326238
506.171 .0325575
507.012 .0324972
507.852 .0324409
508.692 .0323821
509.531 .0323180
510.369 .0322486
511.206 .0321744
512.043 .0320976
512.878 .0320173
513.713 .0319363
514.547 .0318552
515.381 .0317734
516.213 .0316899
517.045 .0315978
517.876 .0314982
518.706 .0313917
519.536 .0312762
520.365 .0311514
521.193 .0310159
522.020 .0308730
522.847 .0307245
523.673 .0305696
524.498 .0304127
525.323 .0302553
526.146 .0300962
526.969 .0299328
527.792 .0297713
528.614 .0296079
529.435 .0294417
530.255 .0292814
531.075 .0291178
531.894 .0289530
532.712 .0287888
533.530 .0286178
534.347 .0284424
535.163 .0282691
535.979 .0280927
536.794 .0279264
537.608 .0277741
538.422 .0276411
539.235 .0275275
540.048 .0274439
540.860 .0273874
541.671 .0273527
542.481 .0273444
543.292 .0273558
544.101 .0273797
544.910 .0274196
545.718 .0274608
546.526 .0275134
547.333 .0275751
548.139 .0276390
548.945 .0277023
549.750 .0277703
550.555 .0278414
551.359 .0279166
552.162 .0279967
552.965 .0280813
553.768 .0281684
554.569 .0282566
555.371 .0283391
556.171 .0284166
556.972 .0284852
557.771 .0285412
558.570 .0285811
559.369 .0286155
560.167 .0286399
560.964 .0286641
561.761 .0286943
562.558 .0287383
563.354 .0287994
564.149 .0288733
564.944 .0289531
565.738 .0290430
566.532 .0291378
567.325 .0292302
568.118 .0293212
568.910 .0294163
569.702 .0295079
570.494 .0296011
571.285 .0296965
572.075 .0297925
572.865 .0298882
573.654 .0299825
574.443 .0300692
575.232 .0301530
576.020 .0302336
576.807 .0303090
577.594 .0303797
578.381 .0304521
579.167 .0305188
579.952 .0305820
580.738 .0306458
581.522 .0307098
582.307 .0307697
583.091 .0308278
583.874 .0308793
584.657 .0309246
585.440 .0309635
586.222 .0309970
587.004 .0310241
587.785 .0310481
588.566 .0310697
589.346 .0310878
590.126 .0311035
590.906 .0311164
591.685 .0311246
592.464 .0311287
593.242 .0311283
594.020 .0311223
594.797 .0311116
595.575 .0310979
596.351 .0310817
597.128 .0310646
597.904 .0310482
598.679 .0310342
599.454 .0310197
600.229 .0310059
601.004 .0309923
601.778 .0309790
602.551 .0309649
603.325 .0309500
604.097 .0309365
604.870 .0309249
605.642 .0309167
606.414 .0309116
607.185 .0309096
607.956 .0309112
608.727 .0309150
609.497 .0309196
610.267 .0309240
611.037 .0309277
611.806 .0309293
612.575 .0309295
613.344 .0309283
614.112 .0309257
614.880 .0309217
615.647 .0309164
616.414 .0309102
617.181 .0309019
617.948 .0308915
618.714 .0308787
619.480 .0308646
620.245 .0308481
621.011 .0308286
621.775 .0308074
622.540 .0307848
623.304 .0307614
624.068 .0307378
624.832 .0307145
625.595 .0306926
626.358 .0306726
627.120 .0306541
627.883 .0306357
628.645 .0306189
629.406 .0306028
630.168 .0305865
630.929 .0305700
631.689 .0305533
632.450 .0305360
633.210 .0305203
633.970 .0305060
634.729 .0304933
635.489 .0304826
636.248 .0304739
637.006 .0304655
637.765 .0304564
638.523 .0304458
639.280 .0304319
640.038 .0304150
640.795 .0303956
641.552 .0303733
642.309 .0303499
643.065 .0303271
643.821 .0303057
644.577 .0302859
645.332 .0302670
646.088 .0302487
646.843 .0302308
647.597 .0302129
648.352 .0301939
649.106 .0301742
649.860 .0301532
650.613 .0301330
651.367 .0301132
652.120 .0300951
652.872 .0300786
653.625 .0300641
654.377 .0300506
655.129 .0300372
655.881 .0300228
656.632 .0300060
657.384 .0299866
658.135 .0299657
658.885 .0299408
659.636 .0299138
660.386 .0298847
661.136 .0298544
661.885 .0298238
662.635 .0297945
663.384 .0297656
664.133 .0297387
664.881 .0297137
665.630 .0296908
666.378 .0296705
667.126 .0296536
667.874 .0296389
668.621 .0296265
669.368 .0296164
670.115 .0296074
670.862 .0295981
671.608 .0295907
672.354 .0295836
673.100 .0295767
673.846 .0295699
674.591 .0295624
675.337 .0295542
676.082 .0295455
676.826 .0295358
677.571 .0295254
678.315 .0295145
679.059 .0295034
679.803 .0294915
680.547 .0294798
681.290 .0294681
682.033 .0294556
682.776 .0294424
683.518 .0294286
684.261 .0294134
685.003 .0293974
685.745 .0293811
686.487 .0293650
687.228 .0293498
687.969 .0293360
688.710 .0293232
689.451 .0293113
690.192 .0292990
690.932 .0292857
691.672 .0292702
692.412 .0292524
693.152 .0292324
693.891 .0292102
694.630 .0291880
695.369 .0291666
696.108 .0291471
696.846 .0291300
697.585 .0291155
698.323 .0291036
699.061 .0290930
699.798 .0290831
700.536 .0290727
701.273 .0290614
702.010 .0290495
702.746 .0290369
703.483 .0290244
704.219 .0290124
704.955 .0290019
705.691 .0289924
706.427 .0289835
707.162 .0289747
707.897 .0289649
708.632 .0289543
709.367 .0289420
710.101 .0289280
710.835 .0289117
711.569 .0288937
712.303 .0288748
713.037 .0288557
713.770 .0288370
714.503 .0288187
715.236 .0288018
715.969 .0287859
716.702 .0287705
717.434 .0287550
718.166 .0287392
718.898 .0287231
719.629 .0287062
720.361 .0286886
721.092 .0286697
721.823 .0286500
722.554 .0286299
723.284 .0286092
724.014 .0285884
724.744 .0285668
725.474 .0285439
726.204 .0285199
726.933 .0284948
727.662 .0284682
728.391 .0284409
729.120 .0284135
729.849 .0283869
730.577 .0283613
731.305 .0283368
732.033 .0283134
732.760 .0282916
733.488 .0282712
734.215 .0282514
734.942 .0282320
735.669 .0282132
736.395 .0281947
737.122 .0281771
737.848 .0281601
738.573 .0281436
739.299 .0281271
740.024 .0281109
740.750 .0280936
741.474 .0280752
742.199 .0280556
742.924 .0280350
743.648 .0280141
744.372 .0279932
745.096 .0279721
745.819 .0279511
746.543 .0279305
747.266 .0279103
747.989 .0278900
748.711 .0278700
749.434 .0278504
750.156 .0278317
750.878 .0278138
751.599 .0277980
752.321 .0277841
753.042 .0277725
753.763 .0277629
754.484 .0277547
755.205 .0277473
755.925 .0277401
756.645 .0277323
757.365 .0277234
758.085 .0277135
758.804 .0277027
759.523 .0276903
760.242 .0276769
760.961 .0276628
761.679 .0276473
762.397 .0276303
763.115 .0276117
763.833 .0275899
764.551 .0275651
765.268 .0275378
765.985 .0275078
766.702 .0274758
767.418 .0274426
768.134 .0274093
768.850 .0273763
769.566 .0273446
770.282 .0273145
770.997 .0272858
771.712 .0272588
772.427 .0272326
773.142 .0272066
773.856 .0271815
774.570 .0271571
775.284 .0271335
775.998 .0271113
776.711 .0270909
777.424 .0270720
778.137 .0270538
778.849 .0270369
779.562 .0270205
780.274 .0270036
780.986 .0269864
781.697 .0269691
782.409 .0269520
783.120 .0269359
783.831 .0269210
784.541 .0269080
785.252 .0268965
785.962 .0268859
786.671 .0268755
787.381 .0268649
788.090 .0268535
788.799 .0268409
789.508 .0268274
790.217 .0268139
790.925 .0268001
791.633 .0267871
792.341 .0267747
793.048 .0267638
793.755 .0267534
794.462 .0267427
795.169 .0267314
795.875 .0267194
796.581 .0267070
797.287 .0266944
797.993 .0266815
798.698 .0266696
799.403 .0266583
800.108 .0266481
800.812 .0266387
801.517 .0266297
802.221 .0266213
802.924 .0266132
803.628 .0266054
804.331 .0265980
805.034 .0265910
805.736 .0265846
806.439 .0265788
807.141 .0265732
807.843 .0265674
808.544 .0265607
809.245 .0265533
809.946 .0265456
810.647 .0265375
811.347 .0265291
812.047 .0265213
812.747 .0265148
813.447 .0265092
814.146 .0265041
814.845 .0264999
815.543 .0264960
816.242 .0264922
816.940 .0264878
817.638 .0264826
818.335 .0264768
819.032 .0264707
819.729 .0264641
820.426 .0264573
821.122 .0264501
821.818 .0264425
822.514 .0264341
823.209 .0264256
823.905 .0264162
824.599 .0264052
825.294 .0263935
825.988 .0263811
826.682 .0263681
827.376 .0263545
828.069 .0263412
828.762 .0263287
829.455 .0263163
830.147 .0263047
830.840 .0262936
831.531 .0262831
832.223 .0262736
832.914 .0262641
833.605 .0262549
834.296 .0262460
834.986 .0262371
835.676 .0262283
836.366 .0262199
837.055 .0262118
837.744 .0262040
838.433 .0261953
839.121 .0261868
839.809 .0261776
840.497 .0261676
841.185 .0261571
841.872 .0261460
842.559 .0261351
843.245 .0261250
843.932 .0261152
844.617 .0261074
845.303 .0261011
845.988 .0260968
846.673 .0260929
847.358 .0260895
848.042 .0260859
848.726 .0260819
849.410 .0260770
850.093 .0260712
850.776 .0260639
851.459 .0260558
852.141 .0260463
852.823 .0260360
853.505 .0260250
854.186 .0260131
854.867 .0260002
855.548 .0259869
856.228 .0259728
856.908 .0259583
857.588 .0259435
858.267 .0259294
858.946 .0259152
859.625 .0259013
860.303 .0258873
860.981 .0258733
861.659 .0258595
862.336 .0258451
863.013 .0258304
863.690 .0258161
864.366 .0258021
865.042 .0257885
865.718 .0257754
866.393 .0257628
867.068 .0257497
867.743 .0257357
868.417 .0257199
869.091 .0257016
869.765 .0256815
870.438 .0256594
871.111 .0256356
871.783 .0256109
872.456 .0255860
873.127 .0255608
873.799 .0255357
874.470 .0255105
875.141 .0254853
875.811 .0254602
876.481 .0254351
877.151 .0254105
877.820 .0253869
878.489 .0253643
879.158 .0253431
879.826 .0253230
880.494 .0253040
881.162 .0252856
881.829 .0252684
882.496 .0252516
883.163 .0252352
883.829 .0252192
884.495 .0252034
885.160 .0251890
885.825 .0251756
886.490 .0251631
887.154 .0251516
887.818 .0251411
888.482 .0251307
889.145 .0251194
889.808 .0251081
890.471 .0250960
891.133 .0250838
891.795 .0250712
892.456 .0250583
893.117 .0250457
893.778 .0250342
894.439 .0250228
895.099 .0250118
895.758 .0250008
896.417 .0249889
897.076 .0249757
897.735 .0249614
898.393 .0249451
899.051 .0249279
899.708 .0249102
900.365 .0248923
901.022 .0248747
901.678 .0248585
902.334 .0248428
902.990 .0248285
903.645 .0248148
904.300 .0248006
904.954 .0247858
905.608 .0247709
906.262 .0247553
906.915 .0247401
907.568 .0247255
908.221 .0247120
908.873 .0246996
909.525 .0246889
910.176 .0246780
910.828 .0246671
911.478 .0246550
912.129 .0246410
912.778 .0246245
913.428 .0246065
914.077 .0245872
914.726 .0245677
915.375 .0245484
916.023 .0245299
916.670 .0245130
917.318 .0244972
917.964 .0244823
918.611 .0244683
919.257 .0244545
919.903 .0244408
920.548 .0244262
921.193 .0244118
921.838 .0243973
922.482 .0243840
923.126 .0243719
923.770 .0243608
924.413 .0243508
925.056 .0243415
925.698 .0243329
926.340 .0243250
926.982 .0243168
927.623 .0243086
928.264 .0243001
928.904 .0242912
929.544 .0242817
930.184 .0242716
930.823 .0242612
931.462 .0242512
932.101 .0242408
932.739 .0242300
933.377 .0242187
934.014 .0242072
934.651 .0241952
935.288 .0241826
935.924 .0241703
936.560 .0241573
937.196 .0241440
937.831 .0241306
938.466 .0241169
939.100 .0241033
939.734 .0240891
940.368 .0240744
941.001 .0240589
941.634 .0240423
942.266 .0240242
942.899 .0240047
943.530 .0239848
944.162 .0239639
944.793 .0239427
945.423 .0239212
946.053 .0238995
946.683 .0238772
947.313 .0238553
947.942 .0238335
948.571 .0238122
949.199 .0237910
949.827 .0237704
950.455 .0237508
951.082 .0237330
951.709 .0237165
952.335 .0237020
952.961 .0236900
953.587 .0236803
954.212 .0236721
954.837 .0236657
955.462 .0236605
956.086 .0236570
956.710 .0236552
957.334 .0236544
957.957 .0236545
958.579 .0236556
959.202 .0236566
959.824 .0236575
960.445 .0236576
961.067 .0236563
961.688 .0236536
962.308 .0236504
962.928 .0236463
963.548 .0236406
964.168 .0236341
964.787 .0236272
965.406 .0236200
966.024 .0236131
966.642 .0236061
967.260 .0235993
967.877 .0235938
968.494 .0235884
969.110 .0235832
969.727 .0235790
970.342 .0235753
970.958 .0235723
971.573 .0235697
972.188 .0235678
972.802 .0235663
973.416 .0235663
974.030 .0235676
974.643 .0235700
975.256 .0235733
975.869 .0235764
976.481 .0235790
977.093 .0235815
977.705 .0235831
978.316 .0235844
978.927 .0235865
979.538 .0235889
980.148 .0235912
980.758 .0235942
981.367 .0235973
981.977 .0236020
982.586 .0236073
983.194 .0236136
983.802 .0236205
984.410 .0236286
985.018 .0236378
985.625 .0236478
986.232 .0236591
986.838 .0236707
987.445 .0236812
988.050 .0236910
988.656 .0236991
989.261 .0237055
989.866 .0237099
990.471 .0237135
991.075 .0237164
991.679 .0237189
992.282 .0237208
992.886 .0237233
993.489 .0237266
994.091 .0237306
994.694 .0237340
995.296 .0237370
995.897 .0237394
996.499 .0237409
997.100 .0237408
997.701 .0237402
998.301 .0237395
998.901 .0237398
999.501 .0237406
1000.101 .0237430
1000.700 .0237473
1001.299 .0237523
1001.898 .0237580
1002.496 .0237630
1003.094 .0237666
1003.692 .0237674
1004.289 .0237655
1004.887 .0237624
1005.484 .0237575
1006.080 .0237521
1006.677 .0237469
1007.273 .0237432
1007.868 .0237421
1008.464 .0237424
1009.059 .0237439
1009.654 .0237466
1010.249 .0237509
1010.843 .0237550
1011.437 .0237592
1012.031 .0237640
1012.625 .0237698
1013.218 .0237765
1013.811 .0237843
1014.404 .0237925
1014.997 .0238016
1015.589 .0238116
1016.181 .0238217
1016.773 .0238324
1017.365 .0238440
1017.956 .0238549
1018.547 .0238663
1019.138 .0238766
1019.728 .0238859
1020.319 .0238934
1020.909 .0238997
1021.499 .0239045
1022.088 .0239081
1022.678 .0239104
1023.267 .0239117
1023.856 .0239128
1024.445 .0239141
1025.033 .0239137
1025.621 .0239127
1026.209 .0239103
1026.797 .0239056
1027.385 .0238987
1027.972 .0238900
1028.560 .0238797
1029.147 .0238692
1029.734 .0238588
1030.320 .0238489
1030.907 .0238399
1031.493 .0238323
1032.079 .0238255
1032.665 .0238200
1033.250 .0238151
1033.836 .0238100
1034.421 .0238050
1035.006 .0238008
1035.591 .0237974
1036.176 .0237944
1036.761 .0237927
1037.345 .0237920
1037.929 .0237917
1038.514 .0237916
1039.097 .0237908
1039.681 .0237898
1040.265 .0237877
1040.848 .0237833
1041.432 .0237781
1042.015 .0237713
1042.598 .0237639
1043.181 .0237562
1043.764 .0237489
1044.346 .0237425
1044.929 .0237364
1045.511 .0237316
1046.094 .0237274
1046.676 .0237236
1047.258 .0237194
1047.840 .0237147
1048.422 .0237093
1049.003 .0237042
1049.585 .0236988
1050.166 .0236949
1050.748 .0236934
1051.329 .0236931
1051.910 .0236941
1052.491 .0236965
1053.072 .0236998
1053.653 .0237023
1054.234 .0237024
1054.815 .0237012
1055.396 .0236968
1055.976 .0236914
1056.557 .0236843
1057.138 .0236769
1057.718 .0236704
1058.298 .0236638
1058.879 .0236566
1059.459 .0236480
1060.039 .0236372
1060.620 .0236223
1061.200 .0236031
1061.780 .0235796
1062.360 .0235516
1062.940 .0235214
1063.520 .0234904
1064.101 .0234613
1064.681 .0234340
1065.261 .0234106
1065.841 .0233901
1066.421 .0233723
1067.001 .0233579
1067.581 .0233442
1068.161 .0233317
1068.741 .0233192
1069.321 .0233075
1069.901 .0232955
1070.482 .0232857
1071.062 .0232770
1071.642 .0232707
1072.222 .0232663
1072.803 .0232622
1073.383 .0232563
1073.963 .0232485
1074.544 .0232391
1075.124 .0232255
1075.705 .0232089
1076.286 .0231935
1076.866 .0231770
1077.447 .0231634
1078.028 .0231513
1078.609 .0231426
1079.190 .0231366
1079.771 .0231329
1080.352 .0231283
1080.934 .0231239
1081.515 .0231213
1082.097 .0231208
1082.679 .0231229
1083.260 .0231302
1083.842 .0231423
1084.424 .0231566
1085.007 .0231713
1085.589 .0231827
1086.172 .0231864
1086.754 .0231829
1087.337 .0231681
1087.920 .0231453
1088.503 .0231151
1089.087 .0230808
1089.670 .0230478
1090.254 .0230168
1090.838 .0229910
1091.422 .0229690
1092.006 .0229500
1092.590 .0229319
1093.175 .0229147
1093.760 .0228958
1094.345 .0228754
1094.930 .0228552
1095.516 .0228384
1096.102 .0228249
1096.688 .0228157
1097.274 .0228120
1097.860 .0228120
1098.447 .0228156
1099.034 .0228202
1099.622 .0228226
1100.209 .0228276
1100.797 .0228305
1101.385 .0228331
1101.973 .0228341
1102.562 .0228359
1103.151 .0228379
1103.740 .0228393
1104.330 .0228420
1104.920 .0228430
1105.510 .0228413
1106.101 .0228382
1106.691 .0228332
1107.283 .0228303
1107.874 .0228279
1108.466 .0228276
1109.058 .0228280
1109.651 .0228303
1110.244 .0228307
1110.837 .0228274
1111.431 .0228233
1112.025 .0228180
1112.620 .0228112
1113.215 .0228043
1113.810 .0227988
1114.406 .0227981
1115.002 .0228024
1115.599 .0228115
1116.196 .0228204
1116.793 .0228267
1117.391 .0228289
1117.989 .0228253
1118.588 .0228178
1119.187 .0228063
1119.787 .0227904
1120.387 .0227746
1120.988 .0227624
1121.589 .0227505
1122.190 .0227390
1122.793 .0227281
1123.395 .0227170
1123.998 .0227074
1124.602 .0226931
1125.206 .0226773
1125.811 .0226635
1126.416 .0226581
1127.022 .0226601
1127.628 .0226664
1128.235 .0226793
1128.843 .0226970
1129.451 .0227180
1130.059 .0227344
1130.669 .0227440
1131.278 .0227488
1131.889 .0227432
1132.500 .0227336
1133.112 .0227192
1133.724 .0227064
1134.337 .0226982
1134.950 .0226985
1135.564 .0227100
1136.179 .0227324
1136.795 .0227633
1137.411 .0228062
1138.028 .0228591
1138.645 .0229224
1139.263 .0229988
1139.882 .0230907
1140.502 .0232053
1141.122 .0233405
1141.743 .0235067
1142.365 .0236869
1142.987 .0238549
1143.611 .0241643
1144.235 .0242383
1144.859 .0247219
1145.485 .0246816
