Measurement Sequence started on: 10-20-44-796
Integration time: 35
Scans to Average: 2 
>>>>>Begin Spectral Data<<<<<
432.953 .0308272
433.882 .0252605
434.810 .0286277
435.737 .0289512
436.662 .0286282
437.586 .0297357
438.509 .0300944
439.431 .0305812
440.351 .0309296
441.269 .0312398
442.187 .0315313
443.103 .0317523
444.018 .0319509
444.932 .0321270
445.844 .0322658
446.756 .0323771
447.666 .0324660
448.575 .0325250
449.482 .0325624
450.388 .0325797
451.294 .0325782
452.198 .0325476
453.100 .0325064
454.002 .0324554
454.902 .0323946
455.801 .0323304
456.699 .0322655
457.596 .0322008
458.492 .0321390
459.387 .0320799
460.280 .0320266
461.172 .0319700
462.064 .0319124
462.954 .0318456
463.843 .0317749
464.730 .0317012
465.617 .0316263
466.503 .0315505
467.387 .0314804
468.271 .0314149
469.153 .0313574
470.035 .0313080
470.915 .0312678
471.794 .0312313
472.673 .0311955
473.550 .0311606
474.426 .0311266
475.301 .0310964
476.175 .0310710
477.048 .0310531
477.920 .0310467
478.791 .0310499
479.661 .0310618
480.530 .0310822
481.398 .0311097
482.266 .0311423
483.132 .0311769
483.997 .0312071
484.861 .0312300
485.724 .0312506
486.587 .0312662
487.448 .0312754
488.308 .0312795
489.168 .0312820
490.026 .0312784
490.884 .0312710
491.741 .0312569
492.597 .0312376
493.452 .0312157
494.306 .0311898
495.159 .0311560
496.011 .0311171
496.862 .0310746
497.713 .0310280
498.562 .0309782
499.411 .0309282
500.259 .0308728
501.106 .0308178
501.952 .0307638
502.798 .0307098
503.642 .0306555
504.486 .0306023
505.329 .0305510
506.171 .0305015
507.012 .0304507
507.852 .0303984
508.692 .0303444
509.531 .0302900
510.369 .0302304
511.206 .0301657
512.043 .0300943
512.878 .0300125
513.713 .0299206
514.547 .0298167
515.381 .0297013
516.213 .0295758
517.045 .0294406
517.876 .0292962
518.706 .0291433
519.536 .0289835
520.365 .0288155
521.193 .0286422
522.020 .0284658
522.847 .0282832
523.673 .0280975
524.498 .0279102
525.323 .0277236
526.146 .0275394
526.969 .0273614
527.792 .0271897
528.614 .0270196
529.435 .0268523
530.255 .0266895
531.075 .0265278
531.894 .0263743
532.712 .0262335
533.530 .0260970
534.347 .0259693
535.163 .0258494
535.979 .0257363
536.794 .0256308
537.608 .0255375
538.422 .0254542
539.235 .0253804
540.048 .0253184
540.860 .0252706
541.671 .0252343
542.481 .0252209
543.292 .0252196
544.101 .0252249
544.910 .0252371
545.718 .0252516
546.526 .0252650
547.333 .0252896
548.139 .0253228
548.945 .0253677
549.750 .0254200
550.555 .0254888
551.359 .0255691
552.162 .0256586
552.965 .0257549
553.768 .0258494
554.569 .0259426
555.371 .0260300
556.171 .0261058
556.972 .0261821
557.771 .0262614
558.570 .0263456
559.369 .0264337
560.167 .0265284
560.964 .0266262
561.761 .0267244
562.558 .0268197
563.354 .0269071
564.149 .0269801
564.944 .0270372
565.738 .0270809
566.532 .0271122
567.325 .0271401
568.118 .0271670
568.910 .0272008
569.702 .0272471
570.494 .0273031
571.285 .0273684
572.075 .0274414
572.865 .0275178
573.654 .0275896
574.443 .0276539
575.232 .0277139
576.020 .0277688
576.807 .0278224
577.594 .0278775
578.381 .0279382
579.167 .0280064
579.952 .0280810
580.738 .0281618
581.522 .0282472
582.307 .0283333
583.091 .0284173
583.874 .0284955
584.657 .0285666
585.440 .0286302
586.222 .0286848
587.004 .0287308
587.785 .0287695
588.566 .0288014
589.346 .0288269
590.126 .0288494
590.906 .0288688
591.685 .0288855
592.464 .0289001
593.242 .0289139
594.020 .0289254
594.797 .0289367
595.575 .0289477
596.351 .0289583
597.128 .0289682
597.904 .0289773
598.679 .0289844
599.454 .0289899
600.229 .0289942
601.004 .0289964
601.778 .0289956
602.551 .0289940
603.325 .0289894
604.097 .0289830
604.870 .0289744
605.642 .0289636
606.414 .0289507
607.185 .0289352
607.956 .0289167
608.727 .0288966
609.497 .0288753
610.267 .0288535
611.037 .0288311
611.806 .0288103
612.575 .0287908
613.344 .0287728
614.112 .0287569
614.880 .0287428
615.647 .0287296
616.414 .0287177
617.181 .0287058
617.948 .0286943
618.714 .0286832
619.480 .0286717
620.245 .0286597
621.011 .0286474
621.775 .0286344
622.540 .0286202
623.304 .0286054
624.068 .0285907
624.832 .0285744
625.595 .0285581
626.358 .0285421
627.120 .0285255
627.883 .0285092
628.645 .0284933
629.406 .0284777
630.168 .0284627
630.929 .0284491
631.689 .0284365
632.450 .0284250
633.210 .0284158
633.970 .0284075
634.729 .0283993
635.489 .0283917
636.248 .0283831
637.006 .0283732
637.765 .0283621
638.523 .0283495
639.280 .0283348
640.038 .0283201
640.795 .0283050
641.552 .0282889
642.309 .0282728
643.065 .0282566
643.821 .0282389
644.577 .0282203
645.332 .0282001
646.088 .0281781
646.843 .0281548
647.597 .0281307
648.352 .0281056
649.106 .0280821
649.860 .0280600
650.613 .0280398
651.367 .0280219
652.120 .0280069
652.872 .0279928
653.625 .0279794
654.377 .0279668
655.129 .0279537
655.881 .0279397
656.632 .0279249
657.384 .0279091
658.135 .0278936
658.885 .0278786
659.636 .0278648
660.386 .0278519
661.136 .0278409
661.885 .0278303
662.635 .0278198
663.384 .0278087
664.133 .0277962
664.881 .0277814
665.630 .0277645
666.378 .0277460
667.126 .0277269
667.874 .0277074
668.621 .0276889
669.368 .0276719
670.115 .0276562
670.862 .0276411
671.608 .0276268
672.354 .0276121
673.100 .0275969
673.846 .0275805
674.591 .0275629
675.337 .0275447
676.082 .0275265
676.826 .0275089
677.571 .0274922
678.315 .0274776
679.059 .0274642
679.803 .0274516
680.547 .0274403
681.290 .0274296
682.033 .0274183
682.776 .0274066
683.518 .0273943
684.261 .0273816
685.003 .0273688
685.745 .0273561
686.487 .0273438
687.228 .0273321
687.969 .0273208
688.710 .0273097
689.451 .0272987
690.192 .0272879
690.932 .0272769
691.672 .0272660
692.412 .0272549
693.152 .0272430
693.891 .0272311
694.630 .0272188
695.369 .0272064
696.108 .0271937
696.846 .0271803
697.585 .0271669
698.323 .0271537
699.061 .0271404
699.798 .0271269
700.536 .0271136
701.273 .0271005
702.010 .0270871
702.746 .0270737
703.483 .0270606
704.219 .0270477
704.955 .0270356
705.691 .0270238
706.427 .0270119
707.162 .0270007
707.897 .0269896
708.632 .0269785
709.367 .0269680
710.101 .0269572
710.835 .0269461
711.569 .0269347
712.303 .0269232
713.037 .0269111
713.770 .0268988
714.503 .0268864
715.236 .0268733
715.969 .0268596
716.702 .0268452
717.434 .0268298
718.166 .0268151
718.898 .0268005
719.629 .0267864
720.361 .0267729
721.092 .0267605
721.823 .0267485
722.554 .0267368
723.284 .0267254
724.014 .0267133
724.744 .0267003
725.474 .0266862
726.204 .0266706
726.933 .0266545
727.662 .0266382
728.391 .0266220
729.120 .0266059
729.849 .0265907
730.577 .0265759
731.305 .0265613
732.033 .0265466
732.760 .0265316
733.488 .0265158
734.215 .0264990
734.942 .0264813
735.669 .0264630
736.395 .0264453
737.122 .0264286
737.848 .0264133
738.573 .0263997
739.299 .0263871
740.024 .0263753
740.750 .0263638
741.474 .0263521
742.199 .0263399
742.924 .0263260
743.648 .0263111
744.372 .0262958
745.096 .0262806
745.819 .0262654
746.543 .0262511
747.266 .0262384
747.989 .0262268
748.711 .0262160
749.434 .0262058
750.156 .0261960
750.878 .0261869
751.599 .0261782
752.321 .0261700
753.042 .0261625
753.763 .0261565
754.484 .0261517
755.205 .0261480
755.925 .0261452
756.645 .0261424
757.365 .0261390
758.085 .0261346
758.804 .0261284
759.523 .0261199
760.242 .0261092
760.961 .0260964
761.679 .0260822
762.397 .0260665
763.115 .0260497
763.833 .0260323
764.551 .0260145
765.268 .0259960
765.985 .0259759
766.702 .0259545
767.418 .0259315
768.134 .0259072
768.850 .0258819
769.566 .0258561
770.282 .0258315
770.997 .0258080
771.712 .0257862
772.427 .0257662
773.142 .0257479
773.856 .0257304
774.570 .0257133
775.284 .0256960
775.998 .0256779
776.711 .0256593
777.424 .0256402
778.137 .0256212
778.849 .0256027
779.562 .0255854
780.274 .0255692
780.986 .0255544
781.697 .0255410
782.409 .0255281
783.120 .0255156
783.831 .0255035
784.541 .0254913
785.252 .0254788
785.962 .0254661
786.671 .0254538
787.381 .0254414
788.090 .0254292
788.799 .0254170
789.508 .0254045
790.217 .0253915
790.925 .0253780
791.633 .0253638
792.341 .0253487
793.048 .0253330
793.755 .0253163
794.462 .0252991
795.169 .0252814
795.875 .0252634
796.581 .0252455
797.287 .0252280
797.993 .0252107
798.698 .0251938
799.403 .0251774
800.108 .0251617
800.812 .0251465
801.517 .0251318
802.221 .0251172
802.924 .0251032
803.628 .0250894
804.331 .0250762
805.034 .0250637
805.736 .0250521
806.439 .0250410
807.141 .0250306
807.843 .0250209
808.544 .0250112
809.245 .0250017
809.946 .0249924
810.647 .0249835
811.347 .0249748
812.047 .0249662
812.747 .0249581
813.447 .0249505
814.146 .0249433
814.845 .0249360
815.543 .0249288
816.242 .0249212
816.940 .0249126
817.638 .0249034
818.335 .0248933
819.032 .0248827
819.729 .0248714
820.426 .0248594
821.122 .0248470
821.818 .0248342
822.514 .0248211
823.209 .0248080
823.905 .0247953
824.599 .0247823
825.294 .0247694
825.988 .0247564
826.682 .0247434
827.376 .0247301
828.069 .0247172
828.762 .0247045
829.455 .0246918
830.147 .0246794
830.840 .0246675
831.531 .0246561
832.223 .0246459
832.914 .0246360
833.605 .0246268
834.296 .0246179
834.986 .0246094
835.676 .0246005
836.366 .0245917
837.055 .0245833
837.744 .0245749
838.433 .0245663
839.121 .0245583
839.809 .0245501
840.497 .0245425
841.185 .0245351
841.872 .0245281
842.559 .0245213
843.245 .0245150
843.932 .0245089
844.617 .0245032
845.303 .0244980
845.988 .0244932
846.673 .0244881
847.358 .0244831
848.042 .0244779
848.726 .0244724
849.410 .0244667
850.093 .0244615
850.776 .0244567
851.459 .0244527
852.141 .0244490
852.823 .0244459
853.505 .0244429
854.186 .0244400
854.867 .0244363
855.548 .0244318
856.228 .0244268
856.908 .0244211
857.588 .0244145
858.267 .0244080
858.946 .0244011
859.625 .0243944
860.303 .0243877
860.981 .0243815
861.659 .0243756
862.336 .0243701
863.013 .0243644
863.690 .0243588
864.366 .0243527
865.042 .0243465
865.718 .0243396
866.393 .0243328
867.068 .0243258
867.743 .0243191
868.417 .0243123
869.091 .0243059
869.765 .0242995
870.438 .0242932
871.111 .0242868
871.783 .0242800
872.456 .0242728
873.127 .0242652
873.799 .0242572
874.470 .0242491
875.141 .0242409
875.811 .0242331
876.481 .0242254
877.151 .0242180
877.820 .0242106
878.489 .0242038
879.158 .0241973
879.826 .0241907
880.494 .0241845
881.162 .0241785
881.829 .0241730
882.496 .0241677
883.163 .0241630
883.829 .0241586
884.495 .0241543
885.160 .0241500
885.825 .0241458
886.490 .0241418
887.154 .0241381
887.818 .0241351
888.482 .0241330
889.145 .0241322
889.808 .0241320
890.471 .0241323
891.133 .0241327
891.795 .0241328
892.456 .0241319
893.117 .0241298
893.778 .0241268
894.439 .0241232
895.099 .0241187
895.758 .0241138
896.417 .0241089
897.076 .0241042
897.735 .0240992
898.393 .0240941
899.051 .0240887
899.708 .0240827
900.365 .0240763
901.022 .0240697
901.678 .0240628
902.334 .0240564
902.990 .0240506
903.645 .0240456
904.300 .0240418
904.954 .0240391
905.608 .0240369
906.262 .0240356
906.915 .0240349
907.568 .0240338
908.221 .0240320
908.873 .0240296
909.525 .0240264
910.176 .0240222
910.828 .0240172
911.478 .0240113
912.129 .0240044
912.778 .0239968
913.428 .0239880
914.077 .0239783
914.726 .0239680
915.375 .0239568
916.023 .0239447
916.670 .0239321
917.318 .0239192
917.964 .0239058
918.611 .0238925
919.257 .0238795
919.903 .0238665
920.548 .0238537
921.193 .0238416
921.838 .0238299
922.482 .0238188
923.126 .0238082
923.770 .0237972
924.413 .0237865
925.056 .0237753
925.698 .0237635
926.340 .0237516
926.982 .0237397
927.623 .0237275
928.264 .0237151
928.904 .0237029
929.544 .0236906
930.184 .0236779
930.823 .0236650
931.462 .0236510
932.101 .0236359
932.739 .0236200
933.377 .0236029
934.014 .0235857
934.651 .0235694
935.288 .0235536
935.924 .0235388
936.560 .0235250
937.196 .0235120
937.831 .0234995
938.466 .0234868
939.100 .0234735
939.734 .0234591
940.368 .0234439
941.001 .0234277
941.634 .0234112
942.266 .0233952
942.899 .0233795
943.530 .0233638
944.162 .0233482
944.793 .0233318
945.423 .0233146
946.053 .0232965
946.683 .0232774
947.313 .0232578
947.942 .0232374
948.571 .0232166
949.199 .0231957
949.827 .0231750
950.455 .0231543
951.082 .0231336
951.709 .0231132
952.335 .0230925
952.961 .0230712
953.587 .0230494
954.212 .0230273
954.837 .0230049
955.462 .0229821
956.086 .0229591
956.710 .0229356
957.334 .0229123
957.957 .0228894
958.579 .0228670
959.202 .0228455
959.824 .0228251
960.445 .0228058
961.067 .0227878
961.688 .0227711
962.308 .0227556
962.928 .0227411
963.548 .0227273
964.168 .0227137
964.787 .0226994
965.406 .0226847
966.024 .0226697
966.642 .0226543
967.260 .0226388
967.877 .0226234
968.494 .0226081
969.110 .0225929
969.727 .0225775
970.342 .0225620
970.958 .0225459
971.573 .0225299
972.188 .0225135
972.802 .0224969
973.416 .0224809
974.030 .0224657
974.643 .0224514
975.256 .0224387
975.869 .0224269
976.481 .0224158
977.093 .0224053
977.705 .0223953
978.316 .0223852
978.927 .0223751
979.538 .0223647
980.148 .0223539
980.758 .0223427
981.367 .0223314
981.977 .0223197
982.586 .0223081
983.194 .0222967
983.802 .0222856
984.410 .0222748
985.018 .0222649
985.625 .0222549
986.232 .0222457
986.838 .0222375
987.445 .0222301
988.050 .0222226
988.656 .0222160
989.261 .0222097
989.866 .0222033
990.471 .0221969
991.075 .0221904
991.679 .0221836
992.282 .0221768
992.886 .0221696
993.489 .0221623
994.091 .0221554
994.694 .0221493
995.296 .0221433
995.897 .0221383
996.499 .0221338
997.100 .0221289
997.701 .0221238
998.301 .0221189
998.901 .0221141
999.501 .0221091
1000.101 .0221043
1000.700 .0221003
1001.299 .0220971
1001.898 .0220951
1002.496 .0220941
1003.094 .0220943
1003.692 .0220958
1004.289 .0220979
1004.887 .0221001
1005.484 .0221028
1006.080 .0221062
1006.677 .0221099
1007.273 .0221132
1007.868 .0221168
1008.464 .0221206
1009.059 .0221244
1009.654 .0221283
1010.249 .0221323
1010.843 .0221363
1011.437 .0221404
1012.031 .0221435
1012.625 .0221462
1013.218 .0221481
1013.811 .0221492
1014.404 .0221491
1014.997 .0221479
1015.589 .0221465
1016.181 .0221448
1016.773 .0221430
1017.365 .0221423
1017.956 .0221419
1018.547 .0221420
1019.138 .0221420
1019.728 .0221425
1020.319 .0221431
1020.909 .0221437
1021.499 .0221445
1022.088 .0221458
1022.678 .0221469
1023.267 .0221481
1023.856 .0221484
1024.445 .0221484
1025.033 .0221478
1025.621 .0221458
1026.209 .0221435
1026.797 .0221410
1027.385 .0221389
1027.972 .0221380
1028.560 .0221380
1029.147 .0221397
1029.734 .0221420
1030.320 .0221445
1030.907 .0221466
1031.493 .0221478
1032.079 .0221481
1032.665 .0221477
1033.250 .0221471
1033.836 .0221470
1034.421 .0221476
1035.006 .0221502
1035.591 .0221549
1036.176 .0221613
1036.761 .0221694
1037.345 .0221783
1037.929 .0221872
1038.514 .0221950
1039.097 .0222015
1039.681 .0222069
1040.265 .0222114
1040.848 .0222161
1041.432 .0222204
1042.015 .0222252
1042.598 .0222304
1043.181 .0222367
1043.764 .0222438
1044.346 .0222510
1044.929 .0222581
1045.511 .0222638
1046.094 .0222684
1046.676 .0222713
1047.258 .0222723
1047.840 .0222723
1048.422 .0222724
1049.003 .0222725
1049.585 .0222732
1050.166 .0222760
1050.748 .0222808
1051.329 .0222872
1051.910 .0222951
1052.491 .0223043
1053.072 .0223131
1053.653 .0223213
1054.234 .0223288
1054.815 .0223355
1055.396 .0223427
1055.976 .0223493
1056.557 .0223558
1057.138 .0223636
1057.718 .0223725
1058.298 .0223822
1058.879 .0223917
1059.459 .0224019
1060.039 .0224119
1060.620 .0224196
1061.200 .0224261
1061.780 .0224305
1062.360 .0224335
1062.940 .0224353
1063.520 .0224361
1064.101 .0224370
1064.681 .0224370
1065.261 .0224360
1065.841 .0224320
1066.421 .0224256
1067.001 .0224166
1067.581 .0224036
1068.161 .0223882
1068.741 .0223728
1069.321 .0223579
1069.901 .0223449
1070.482 .0223354
1071.062 .0223299
1071.642 .0223280
1072.222 .0223291
1072.803 .0223317
1073.383 .0223352
1073.963 .0223391
1074.544 .0223427
1075.124 .0223463
1075.705 .0223517
1076.286 .0223581
1076.866 .0223665
1077.447 .0223780
1078.028 .0223927
1078.609 .0224090
1079.190 .0224265
1079.771 .0224434
1080.352 .0224590
1080.934 .0224726
1081.515 .0224835
1082.097 .0224925
1082.679 .0225017
1083.260 .0225107
1083.842 .0225201
1084.424 .0225301
1085.007 .0225410
1085.589 .0225511
1086.172 .0225612
1086.754 .0225688
1087.337 .0225728
1087.920 .0225740
1088.503 .0225736
1089.087 .0225709
1089.670 .0225678
1090.254 .0225649
1090.838 .0225614
1091.422 .0225597
1092.006 .0225591
1092.590 .0225572
1093.175 .0225555
1093.760 .0225546
1094.345 .0225532
1094.930 .0225503
1095.516 .0225494
1096.102 .0225492
1096.688 .0225510
1097.274 .0225564
1097.860 .0225622
1098.447 .0225680
1099.034 .0225748
1099.622 .0225790
1100.209 .0225809
1100.797 .0225817
1101.385 .0225792
1101.973 .0225743
1102.562 .0225709
1103.151 .0225686
1103.740 .0225671
1104.330 .0225677
1104.920 .0225701
1105.510 .0225734
1106.101 .0225775
1106.691 .0225798
1107.283 .0225784
1107.874 .0225773
1108.466 .0225730
1109.058 .0225666
1109.651 .0225615
1110.244 .0225585
1110.837 .0225585
1111.431 .0225592
1112.025 .0225597
1112.620 .0225579
1113.215 .0225524
1113.810 .0225454
1114.406 .0225369
1115.002 .0225292
1115.599 .0225219
1116.196 .0225156
1116.793 .0225118
1117.391 .0225099
1117.989 .0225071
1118.588 .0225046
1119.187 .0225015
1119.787 .0224978
1120.387 .0224951
1120.988 .0224929
1121.589 .0224968
1122.190 .0225047
1122.793 .0225167
1123.395 .0225307
1123.998 .0225404
1124.602 .0225487
1125.206 .0225522
1125.811 .0225537
1126.416 .0225546
1127.022 .0225569
1127.628 .0225659
1128.235 .0225806
1128.843 .0226036
1129.451 .0226301
1130.059 .0226578
1130.669 .0226825
1131.278 .0226992
1131.889 .0227079
1132.500 .0227117
1133.112 .0227144
1133.724 .0227207
1134.337 .0227383
1134.950 .0227653
1135.564 .0228054
1136.179 .0228555
1136.795 .0229151
1137.411 .0229823
1138.028 .0230510
1138.645 .0231207
1139.263 .0231974
1139.882 .0232826
1140.502 .0233759
1141.122 .0234751
1141.743 .0235927
1142.365 .0237294
1142.987 .0238736
1143.611 .0239913
1144.235 .0240636
1144.859 .0243810
1145.485 .0247463
