Measurement Sequence started on: 10-20-44-796
Integration time: 35
Scans to Average: 2 
>>>>>Begin Spectral Data<<<<<
432.953 .0202099
433.882 .0317498
434.810 .0352273
435.737 .0382275
436.662 .0375511
437.586 .0357325
438.509 .0361203
439.431 .0358977
440.351 .0354809
441.269 .0349915
442.187 .0345696
443.103 .0341948
444.018 .0339058
444.932 .0336645
445.844 .0334473
446.756 .0332375
447.666 .0330162
448.575 .0328041
449.482 .0325957
450.388 .0324084
451.294 .0322514
452.198 .0321396
453.100 .0320659
454.002 .0320375
454.902 .0320370
455.801 .0320582
456.699 .0320850
457.596 .0321069
458.492 .0321129
459.387 .0321035
460.280 .0320796
461.172 .0320441
462.064 .0320057
462.954 .0319782
463.843 .0319546
464.730 .0319442
465.617 .0319346
466.503 .0319230
467.387 .0319019
468.271 .0318626
469.153 .0317992
470.035 .0317187
470.915 .0316245
471.794 .0315200
472.673 .0314151
473.550 .0313229
474.426 .0312459
475.301 .0311879
476.175 .0311463
477.048 .0311158
477.920 .0310897
478.791 .0310655
479.661 .0310353
480.530 .0310025
481.398 .0309652
482.266 .0309280
483.132 .0308956
483.997 .0308684
484.861 .0308488
485.724 .0308365
486.587 .0308288
487.448 .0308225
488.308 .0308127
489.168 .0307958
490.026 .0307696
490.884 .0307370
491.741 .0306953
492.597 .0306476
493.452 .0305986
494.306 .0305514
495.159 .0305090
496.011 .0304750
496.862 .0304473
497.713 .0304263
498.562 .0304128
499.411 .0304011
500.259 .0303890
501.106 .0303761
501.952 .0303587
502.798 .0303311
503.642 .0302936
504.486 .0302463
505.329 .0301893
506.171 .0301246
507.012 .0300516
507.852 .0299723
508.692 .0298850
509.531 .0297876
510.369 .0296814
511.206 .0295676
512.043 .0294457
512.878 .0293143
513.713 .0291749
514.547 .0290298
515.381 .0288793
516.213 .0287247
517.045 .0285673
517.876 .0284106
518.706 .0282482
519.536 .0280843
520.365 .0279227
521.193 .0277674
522.020 .0276190
522.847 .0274808
523.673 .0273481
524.498 .0272146
525.323 .0270774
526.146 .0269340
526.969 .0267805
527.792 .0266211
528.614 .0264519
529.435 .0262819
530.255 .0261167
531.075 .0259575
531.894 .0258130
532.712 .0256916
533.530 .0255859
534.347 .0254871
535.163 .0253950
535.979 .0253043
536.794 .0252145
537.608 .0251228
538.422 .0250357
539.235 .0249605
540.048 .0248986
540.860 .0248533
541.671 .0248295
542.481 .0248318
543.292 .0248540
544.101 .0248876
544.910 .0249405
545.718 .0249967
546.526 .0250600
547.333 .0251260
548.139 .0251946
548.945 .0252655
549.750 .0253325
550.555 .0253967
551.359 .0254603
552.162 .0255195
552.965 .0255765
553.768 .0256291
554.569 .0256865
555.371 .0257381
556.171 .0257834
556.972 .0258241
557.771 .0258623
558.570 .0258904
559.369 .0259161
560.167 .0259423
560.964 .0259735
561.761 .0260104
562.558 .0260585
563.354 .0261196
564.149 .0261915
564.944 .0262715
565.738 .0263562
566.532 .0264409
567.325 .0265233
568.118 .0265992
568.910 .0266692
569.702 .0267381
570.494 .0268091
571.285 .0268795
572.075 .0269555
572.865 .0270390
573.654 .0271256
574.443 .0272124
575.232 .0272988
576.020 .0273855
576.807 .0274671
577.594 .0275493
578.381 .0276308
579.167 .0277138
579.952 .0278010
580.738 .0278929
581.522 .0279857
582.307 .0280769
583.091 .0281629
583.874 .0282414
584.657 .0283106
585.440 .0283697
586.222 .0284159
587.004 .0284517
587.785 .0284785
588.566 .0284973
589.346 .0285071
590.126 .0285123
590.906 .0285123
591.685 .0285094
592.464 .0285034
593.242 .0284956
594.020 .0284864
594.797 .0284779
595.575 .0284700
596.351 .0284639
597.128 .0284601
597.904 .0284587
598.679 .0284607
599.454 .0284666
600.229 .0284753
601.004 .0284857
601.778 .0284972
602.551 .0285080
603.325 .0285169
604.097 .0285226
604.870 .0285241
605.642 .0285228
606.414 .0285177
607.185 .0285082
607.956 .0284966
608.727 .0284829
609.497 .0284682
610.267 .0284520
611.037 .0284351
611.806 .0284168
612.575 .0283972
613.344 .0283753
614.112 .0283518
614.880 .0283272
615.647 .0283024
616.414 .0282764
617.181 .0282513
617.948 .0282277
618.714 .0282056
619.480 .0281854
620.245 .0281680
621.011 .0281517
621.775 .0281361
622.540 .0281196
623.304 .0281034
624.068 .0280868
624.832 .0280705
625.595 .0280550
626.358 .0280413
627.120 .0280297
627.883 .0280201
628.645 .0280120
629.406 .0280062
630.168 .0280016
630.929 .0279964
631.689 .0279893
632.450 .0279802
633.210 .0279690
633.970 .0279550
634.729 .0279400
635.489 .0279243
636.248 .0279078
637.006 .0278910
637.765 .0278731
638.523 .0278541
639.280 .0278339
640.038 .0278129
640.795 .0277907
641.552 .0277674
642.309 .0277440
643.065 .0277205
643.821 .0276985
644.577 .0276781
645.332 .0276603
646.088 .0276448
646.843 .0276318
647.597 .0276206
648.352 .0276113
649.106 .0276035
649.860 .0275965
650.613 .0275900
651.367 .0275829
652.120 .0275750
652.872 .0275655
653.625 .0275543
654.377 .0275428
655.129 .0275305
655.881 .0275176
656.632 .0275042
657.384 .0274908
658.135 .0274772
658.885 .0274627
659.636 .0274473
660.386 .0274312
661.136 .0274139
661.885 .0273954
662.635 .0273756
663.384 .0273561
664.133 .0273379
664.881 .0273213
665.630 .0273068
666.378 .0272943
667.126 .0272836
667.874 .0272737
668.621 .0272640
669.368 .0272543
670.115 .0272442
670.862 .0272331
671.608 .0272220
672.354 .0272123
673.100 .0272034
673.846 .0271951
674.591 .0271874
675.337 .0271799
676.082 .0271713
676.826 .0271606
677.571 .0271477
678.315 .0271324
679.059 .0271160
679.803 .0270985
680.547 .0270801
681.290 .0270623
682.033 .0270444
682.776 .0270263
683.518 .0270074
684.261 .0269875
685.003 .0269658
685.745 .0269426
686.487 .0269195
687.228 .0268968
687.969 .0268754
688.710 .0268567
689.451 .0268404
690.192 .0268262
690.932 .0268136
691.672 .0268012
692.412 .0267882
693.152 .0267749
693.891 .0267604
694.630 .0267453
695.369 .0267302
696.108 .0267160
696.846 .0267025
697.585 .0266899
698.323 .0266784
699.061 .0266667
699.798 .0266547
700.536 .0266427
701.273 .0266298
702.010 .0266165
702.746 .0266022
703.483 .0265874
704.219 .0265729
704.955 .0265585
705.691 .0265439
706.427 .0265297
707.162 .0265160
707.897 .0265027
708.632 .0264894
709.367 .0264765
710.101 .0264635
710.835 .0264499
711.569 .0264357
712.303 .0264205
713.037 .0264044
713.770 .0263881
714.503 .0263711
715.236 .0263549
715.969 .0263391
716.702 .0263241
717.434 .0263106
718.166 .0262982
718.898 .0262869
719.629 .0262757
720.361 .0262642
721.092 .0262523
721.823 .0262394
722.554 .0262258
723.284 .0262116
724.014 .0261968
724.744 .0261817
725.474 .0261661
726.204 .0261502
726.933 .0261345
727.662 .0261186
728.391 .0261031
729.120 .0260875
729.849 .0260716
730.577 .0260558
731.305 .0260398
732.033 .0260239
732.760 .0260079
733.488 .0259921
734.215 .0259769
734.942 .0259617
735.669 .0259468
736.395 .0259325
737.122 .0259180
737.848 .0259032
738.573 .0258879
739.299 .0258718
740.024 .0258549
740.750 .0258374
741.474 .0258199
742.199 .0258026
742.924 .0257862
743.648 .0257706
744.372 .0257554
745.096 .0257412
745.819 .0257271
746.543 .0257129
747.266 .0256991
747.989 .0256858
748.711 .0256724
749.434 .0256602
750.156 .0256493
750.878 .0256395
751.599 .0256321
752.321 .0256265
753.042 .0256229
753.763 .0256203
754.484 .0256183
755.205 .0256162
755.925 .0256135
756.645 .0256105
757.365 .0256070
758.085 .0256034
758.804 .0255997
759.523 .0255950
760.242 .0255901
760.961 .0255843
761.679 .0255775
762.397 .0255682
763.115 .0255567
763.833 .0255417
764.551 .0255239
765.268 .0255031
765.985 .0254806
766.702 .0254563
767.418 .0254311
768.134 .0254054
768.850 .0253795
769.566 .0253536
770.282 .0253283
770.997 .0253032
771.712 .0252793
772.427 .0252557
773.142 .0252330
773.856 .0252105
774.570 .0251894
775.284 .0251687
775.998 .0251482
776.711 .0251287
777.424 .0251095
778.137 .0250906
778.849 .0250727
779.562 .0250556
780.274 .0250400
780.986 .0250255
781.697 .0250120
782.409 .0249994
783.120 .0249878
783.831 .0249767
784.541 .0249659
785.252 .0249557
785.962 .0249465
786.671 .0249375
787.381 .0249292
788.090 .0249219
788.799 .0249155
789.508 .0249095
790.217 .0249029
790.925 .0248958
791.633 .0248880
792.341 .0248788
793.048 .0248682
793.755 .0248554
794.462 .0248413
795.169 .0248257
795.875 .0248086
796.581 .0247908
797.287 .0247727
797.993 .0247545
798.698 .0247367
799.403 .0247191
800.108 .0247022
800.812 .0246855
801.517 .0246691
802.221 .0246534
802.924 .0246380
803.628 .0246230
804.331 .0246087
805.034 .0245954
805.736 .0245840
806.439 .0245734
807.141 .0245644
807.843 .0245568
808.544 .0245500
809.245 .0245436
809.946 .0245368
810.647 .0245295
811.347 .0245220
812.047 .0245139
812.747 .0245062
813.447 .0244983
814.146 .0244910
814.845 .0244840
815.543 .0244772
816.242 .0244712
816.940 .0244653
817.638 .0244593
818.335 .0244536
819.032 .0244475
819.729 .0244408
820.426 .0244332
821.122 .0244249
821.818 .0244156
822.514 .0244055
823.209 .0243945
823.905 .0243824
824.599 .0243687
825.294 .0243550
825.988 .0243401
826.682 .0243246
827.376 .0243089
828.069 .0242922
828.762 .0242749
829.455 .0242574
830.147 .0242398
830.840 .0242225
831.531 .0242061
832.223 .0241917
832.914 .0241782
833.605 .0241671
834.296 .0241577
834.986 .0241496
835.676 .0241435
836.366 .0241385
837.055 .0241332
837.744 .0241278
838.433 .0241220
839.121 .0241161
839.809 .0241098
840.497 .0241041
841.185 .0240987
841.872 .0240933
842.559 .0240887
843.245 .0240838
843.932 .0240788
844.617 .0240735
845.303 .0240672
845.988 .0240603
846.673 .0240525
847.358 .0240442
848.042 .0240355
848.726 .0240273
849.410 .0240198
850.093 .0240122
850.776 .0240050
851.459 .0239984
852.141 .0239923
852.823 .0239860
853.505 .0239797
854.186 .0239726
854.867 .0239650
855.548 .0239567
856.228 .0239482
856.908 .0239391
857.588 .0239305
858.267 .0239230
858.946 .0239157
859.625 .0239096
860.303 .0239048
860.981 .0239006
861.659 .0238976
862.336 .0238948
863.013 .0238920
863.690 .0238884
864.366 .0238851
865.042 .0238814
865.718 .0238776
866.393 .0238743
867.068 .0238712
867.743 .0238683
868.417 .0238662
869.091 .0238639
869.765 .0238617
870.438 .0238593
871.111 .0238566
871.783 .0238532
872.456 .0238496
873.127 .0238454
873.799 .0238405
874.470 .0238350
875.141 .0238286
875.811 .0238211
876.481 .0238125
877.151 .0238031
877.820 .0237935
878.489 .0237839
879.158 .0237745
879.826 .0237650
880.494 .0237561
881.162 .0237474
881.829 .0237385
882.496 .0237290
883.163 .0237192
883.829 .0237091
884.495 .0236991
885.160 .0236898
885.825 .0236813
886.490 .0236745
887.154 .0236694
887.818 .0236659
888.482 .0236633
889.145 .0236613
889.808 .0236593
890.471 .0236572
891.133 .0236552
891.795 .0236524
892.456 .0236491
893.117 .0236462
893.778 .0236433
894.439 .0236406
895.099 .0236376
895.758 .0236343
896.417 .0236304
897.076 .0236260
897.735 .0236207
898.393 .0236143
899.051 .0236076
899.708 .0236007
900.365 .0235937
901.022 .0235866
901.678 .0235799
902.334 .0235734
902.990 .0235682
903.645 .0235633
904.300 .0235588
904.954 .0235543
905.608 .0235493
906.262 .0235432
906.915 .0235360
907.568 .0235267
908.221 .0235163
908.873 .0235045
909.525 .0234920
910.176 .0234784
910.828 .0234647
911.478 .0234507
912.129 .0234364
912.778 .0234216
913.428 .0234062
914.077 .0233893
914.726 .0233719
915.375 .0233535
916.023 .0233354
916.670 .0233181
917.318 .0233017
917.964 .0232867
918.611 .0232736
919.257 .0232611
919.903 .0232494
920.548 .0232378
921.193 .0232269
921.838 .0232166
922.482 .0232070
923.126 .0231988
923.770 .0231922
924.413 .0231875
925.056 .0231838
925.698 .0231810
926.340 .0231788
926.982 .0231761
927.623 .0231727
928.264 .0231685
928.904 .0231637
929.544 .0231581
930.184 .0231520
930.823 .0231450
931.462 .0231372
932.101 .0231284
932.739 .0231178
933.377 .0231061
934.014 .0230929
934.651 .0230790
935.288 .0230640
935.924 .0230484
936.560 .0230326
937.196 .0230164
937.831 .0229998
938.466 .0229828
939.100 .0229657
939.734 .0229488
940.368 .0229322
941.001 .0229164
941.634 .0229016
942.266 .0228880
942.899 .0228742
943.530 .0228596
944.162 .0228436
944.793 .0228256
945.423 .0228044
946.053 .0227811
946.683 .0227558
947.313 .0227299
947.942 .0227041
948.571 .0226792
949.199 .0226555
949.827 .0226332
950.455 .0226114
951.082 .0225903
951.709 .0225692
952.335 .0225476
952.961 .0225256
953.587 .0225044
954.212 .0224839
954.837 .0224641
955.462 .0224455
956.086 .0224287
956.710 .0224126
957.334 .0223972
957.957 .0223811
958.579 .0223649
959.202 .0223486
959.824 .0223315
960.445 .0223143
961.067 .0222976
961.688 .0222819
962.308 .0222674
962.928 .0222540
963.548 .0222416
964.168 .0222293
964.787 .0222173
965.406 .0222056
966.024 .0221941
966.642 .0221823
967.260 .0221712
967.877 .0221599
968.494 .0221487
969.110 .0221370
969.727 .0221242
970.342 .0221109
970.958 .0220959
971.573 .0220796
972.188 .0220625
972.802 .0220452
973.416 .0220290
974.030 .0220133
974.643 .0219999
975.256 .0219879
975.869 .0219768
976.481 .0219665
977.093 .0219573
977.705 .0219487
978.316 .0219412
978.927 .0219352
979.538 .0219307
980.148 .0219280
980.758 .0219268
981.367 .0219268
981.977 .0219277
982.586 .0219282
983.194 .0219269
983.802 .0219233
984.410 .0219181
985.018 .0219100
985.625 .0219006
986.232 .0218907
986.838 .0218808
987.445 .0218712
988.050 .0218615
988.656 .0218527
989.261 .0218439
989.866 .0218353
990.471 .0218258
991.075 .0218162
991.679 .0218062
992.282 .0217956
992.886 .0217854
993.489 .0217766
994.091 .0217693
994.694 .0217634
995.296 .0217582
995.897 .0217542
996.499 .0217504
997.100 .0217466
997.701 .0217420
998.301 .0217378
998.901 .0217330
999.501 .0217279
1000.101 .0217221
1000.700 .0217165
1001.299 .0217111
1001.898 .0217061
1002.496 .0217018
1003.094 .0216979
1003.692 .0216951
1004.289 .0216930
1004.887 .0216923
1005.484 .0216936
1006.080 .0216966
1006.677 .0217014
1007.273 .0217068
1007.868 .0217142
1008.464 .0217217
1009.059 .0217303
1009.654 .0217400
1010.249 .0217503
1010.843 .0217612
1011.437 .0217720
1012.031 .0217825
1012.625 .0217919
1013.218 .0218008
1013.811 .0218089
1014.404 .0218153
1014.997 .0218208
1015.589 .0218249
1016.181 .0218280
1016.773 .0218313
1017.365 .0218357
1017.956 .0218404
1018.547 .0218460
1019.138 .0218520
1019.728 .0218569
1020.319 .0218606
1020.909 .0218627
1021.499 .0218623
1022.088 .0218594
1022.678 .0218552
1023.267 .0218495
1023.856 .0218436
1024.445 .0218393
1025.033 .0218365
1025.621 .0218355
1026.209 .0218362
1026.797 .0218369
1027.385 .0218371
1027.972 .0218365
1028.560 .0218346
1029.147 .0218315
1029.734 .0218272
1030.320 .0218233
1030.907 .0218201
1031.493 .0218189
1032.079 .0218205
1032.665 .0218240
1033.250 .0218296
1033.836 .0218359
1034.421 .0218420
1035.006 .0218470
1035.591 .0218508
1036.176 .0218538
1036.761 .0218547
1037.345 .0218541
1037.929 .0218527
1038.514 .0218508
1039.097 .0218487
1039.681 .0218484
1040.265 .0218486
1040.848 .0218496
1041.432 .0218512
1042.015 .0218527
1042.598 .0218553
1043.181 .0218581
1043.764 .0218617
1044.346 .0218660
1044.929 .0218720
1045.511 .0218804
1046.094 .0218890
1046.676 .0219009
1047.258 .0219145
1047.840 .0219289
1048.422 .0219429
1049.003 .0219560
1049.585 .0219685
1050.166 .0219818
1050.748 .0219958
1051.329 .0220114
1051.910 .0220293
1052.491 .0220489
1053.072 .0220688
1053.653 .0220880
1054.234 .0221054
1054.815 .0221198
1055.396 .0221284
1055.976 .0221335
1056.557 .0221337
1057.138 .0221322
1057.718 .0221298
1058.298 .0221294
1058.879 .0221325
1059.459 .0221380
1060.039 .0221433
1060.620 .0221479
1061.200 .0221500
1061.780 .0221481
1062.360 .0221394
1062.940 .0221272
1063.520 .0221114
1064.101 .0220938
1064.681 .0220746
1065.261 .0220569
1065.841 .0220399
1066.421 .0220252
1067.001 .0220096
1067.581 .0219919
1068.161 .0219710
1068.741 .0219474
1069.321 .0219210
1069.901 .0218945
1070.482 .0218682
1071.062 .0218439
1071.642 .0218235
1072.222 .0218102
1072.803 .0218010
1073.383 .0217964
1073.963 .0217958
1074.544 .0217981
1075.124 .0218004
1075.705 .0218030
1076.286 .0218058
1076.866 .0218104
1077.447 .0218174
1078.028 .0218269
1078.609 .0218391
1079.190 .0218552
1079.771 .0218724
1080.352 .0218925
1080.934 .0219125
1081.515 .0219324
1082.097 .0219501
1082.679 .0219666
1083.260 .0219801
1083.842 .0219901
1084.424 .0219960
1085.007 .0219999
1085.589 .0220014
1086.172 .0220000
1086.754 .0219956
1087.337 .0219906
1087.920 .0219877
1088.503 .0219856
1089.087 .0219861
1089.670 .0219895
1090.254 .0219930
1090.838 .0219981
1091.422 .0220027
1092.006 .0220077
1092.590 .0220146
1093.175 .0220239
1093.760 .0220398
1094.345 .0220614
1094.930 .0220895
1095.516 .0221228
1096.102 .0221604
1096.688 .0222001
1097.274 .0222382
1097.860 .0222705
1098.447 .0222958
1099.034 .0223112
1099.622 .0223201
1100.209 .0223234
1100.797 .0223247
1101.385 .0223262
1101.973 .0223274
1102.562 .0223290
1103.151 .0223302
1103.740 .0223283
1104.330 .0223255
1104.920 .0223196
1105.510 .0223100
1106.101 .0222951
1106.691 .0222781
1107.283 .0222587
1107.874 .0222393
1108.466 .0222214
1109.058 .0222055
1109.651 .0221891
1110.244 .0221734
1110.837 .0221569
1111.431 .0221387
1112.025 .0221199
1112.620 .0220997
1113.215 .0220794
1113.810 .0220607
1114.406 .0220421
1115.002 .0220254
1115.599 .0220117
1116.196 .0220020
1116.793 .0219948
1117.391 .0219870
1117.989 .0219809
1118.588 .0219738
1119.187 .0219680
1119.787 .0219646
1120.387 .0219694
1120.988 .0219832
1121.589 .0220055
1122.190 .0220334
1122.793 .0220628
1123.395 .0220881
1123.998 .0221081
1124.602 .0221212
1125.206 .0221296
1125.811 .0221348
1126.416 .0221395
1127.022 .0221450
1127.628 .0221555
1128.235 .0221672
1128.843 .0221800
1129.451 .0221928
1130.059 .0222028
1130.669 .0222074
1131.278 .0222061
1131.889 .0222050
1132.500 .0222096
1133.112 .0222219
1133.724 .0222377
1134.337 .0222544
1134.950 .0222694
1135.564 .0222782
1136.179 .0222811
1136.795 .0222803
1137.411 .0222791
1138.028 .0222833
1138.645 .0222963
1139.263 .0223153
1139.882 .0223395
1140.502 .0223614
1141.122 .0223899
1141.743 .0224310
1142.365 .0224759
1142.987 .0223705
1143.611 .0221475
1144.235 .0225495
1144.859 .0230297
1145.485 .0230034
