Measurement Sequence started on: 10-20-44-796
Integration time: 35
Scans to Average: 2 
>>>>>Begin Spectral Data<<<<<
432.953 .0377673
433.882 .0348656
434.810 .0307376
435.737 .0314687
436.662 .0308012
437.586 .0323872
438.509 .0322556
439.431 .0322965
440.351 .0324404
441.269 .0325315
442.187 .0326084
443.103 .0326272
444.018 .0326726
444.932 .0327103
445.844 .0327502
446.756 .0327913
447.666 .0328284
448.575 .0328647
449.482 .0328842
450.388 .0329002
451.294 .0329085
452.198 .0329089
453.100 .0328920
454.002 .0328679
454.902 .0328343
455.801 .0327914
456.699 .0327381
457.596 .0326769
458.492 .0326106
459.387 .0325402
460.280 .0324695
461.172 .0323958
462.064 .0323252
462.954 .0322571
463.843 .0321913
464.730 .0321314
465.617 .0320738
466.503 .0320167
467.387 .0319565
468.271 .0318939
469.153 .0318302
470.035 .0317679
470.915 .0317111
471.794 .0316605
472.673 .0316219
473.550 .0315968
474.426 .0315853
475.301 .0315849
476.175 .0315910
477.048 .0315980
477.920 .0316003
478.791 .0315937
479.661 .0315779
480.530 .0315575
481.398 .0315340
482.266 .0315144
483.132 .0315022
483.997 .0315008
484.861 .0315060
485.724 .0315206
486.587 .0315422
487.448 .0315630
488.308 .0315787
489.168 .0315862
490.026 .0315824
490.884 .0315702
491.741 .0315492
492.597 .0315235
493.452 .0314966
494.306 .0314716
495.159 .0314449
496.011 .0314194
496.862 .0313918
497.713 .0313572
498.562 .0313095
499.411 .0312522
500.259 .0311781
501.106 .0310866
501.952 .0309817
502.798 .0308668
503.642 .0307451
504.486 .0306201
505.329 .0304925
506.171 .0303679
507.012 .0302485
507.852 .0301321
508.692 .0300159
509.531 .0299025
510.369 .0297888
511.206 .0296735
512.043 .0295554
512.878 .0294355
513.713 .0293138
514.547 .0291948
515.381 .0290770
516.213 .0289609
517.045 .0288469
517.876 .0287310
518.706 .0286131
519.536 .0284930
520.365 .0283640
521.193 .0282252
522.020 .0280785
522.847 .0279200
523.673 .0277520
524.498 .0275749
525.323 .0273914
526.146 .0272061
526.969 .0270265
527.792 .0268499
528.614 .0266755
529.435 .0265193
530.255 .0263767
531.075 .0262426
531.894 .0261261
532.712 .0260220
533.530 .0259254
534.347 .0258418
535.163 .0257696
535.979 .0257085
536.794 .0256629
537.608 .0256310
538.422 .0256098
539.235 .0255978
540.048 .0255956
540.860 .0255912
541.671 .0255818
542.481 .0255753
543.292 .0255588
544.101 .0255392
544.910 .0255243
545.718 .0255156
546.526 .0255191
547.333 .0255375
548.139 .0255716
548.945 .0256144
549.750 .0256638
550.555 .0257198
551.359 .0257751
552.162 .0258294
552.965 .0258871
553.768 .0259498
554.569 .0260223
555.371 .0261053
556.171 .0261944
556.972 .0262917
557.771 .0263933
558.570 .0264906
559.369 .0265807
560.167 .0266654
560.964 .0267468
561.761 .0268241
562.558 .0269006
563.354 .0269822
564.149 .0270634
564.944 .0271461
565.738 .0272318
566.532 .0273138
567.325 .0273918
568.118 .0274649
568.910 .0275335
569.702 .0276025
570.494 .0276741
571.285 .0277500
572.075 .0278311
572.865 .0279188
573.654 .0280060
574.443 .0280893
575.232 .0281684
576.020 .0282421
576.807 .0283063
577.594 .0283630
578.381 .0284147
579.167 .0284618
579.952 .0285088
580.738 .0285586
581.522 .0286115
582.307 .0286692
583.091 .0287275
583.874 .0287853
584.657 .0288406
585.440 .0288931
586.222 .0289405
587.004 .0289829
587.785 .0290205
588.566 .0290542
589.346 .0290839
590.126 .0291113
590.906 .0291357
591.685 .0291586
592.464 .0291788
593.242 .0291957
594.020 .0292088
594.797 .0292194
595.575 .0292266
596.351 .0292331
597.128 .0292369
597.904 .0292382
598.679 .0292378
599.454 .0292359
600.229 .0292315
601.004 .0292262
601.778 .0292198
602.551 .0292133
603.325 .0292055
604.097 .0291975
604.870 .0291889
605.642 .0291802
606.414 .0291718
607.185 .0291626
607.956 .0291528
608.727 .0291432
609.497 .0291326
610.267 .0291220
611.037 .0291118
611.806 .0291018
612.575 .0290914
613.344 .0290811
614.112 .0290713
614.880 .0290607
615.647 .0290502
616.414 .0290401
617.181 .0290305
617.948 .0290209
618.714 .0290112
619.480 .0290007
620.245 .0289893
621.011 .0289770
621.775 .0289626
622.540 .0289461
623.304 .0289286
624.068 .0289105
624.832 .0288923
625.595 .0288749
626.358 .0288592
627.120 .0288446
627.883 .0288322
628.645 .0288213
629.406 .0288115
630.168 .0288023
630.929 .0287940
631.689 .0287860
632.450 .0287775
633.210 .0287693
633.970 .0287604
634.729 .0287514
635.489 .0287422
636.248 .0287321
637.006 .0287209
637.765 .0287082
638.523 .0286946
639.280 .0286796
640.038 .0286633
640.795 .0286457
641.552 .0286266
642.309 .0286069
643.065 .0285868
643.821 .0285662
644.577 .0285456
645.332 .0285257
646.088 .0285066
646.843 .0284879
647.597 .0284699
648.352 .0284531
649.106 .0284375
649.860 .0284223
650.613 .0284072
651.367 .0283919
652.120 .0283763
652.872 .0283603
653.625 .0283435
654.377 .0283262
655.129 .0283085
655.881 .0282903
656.632 .0282723
657.384 .0282544
658.135 .0282373
658.885 .0282204
659.636 .0282040
660.386 .0281881
661.136 .0281721
661.885 .0281566
662.635 .0281415
663.384 .0281270
664.133 .0281129
664.881 .0280986
665.630 .0280845
666.378 .0280701
667.126 .0280553
667.874 .0280397
668.621 .0280235
669.368 .0280069
670.115 .0279906
670.862 .0279747
671.608 .0279604
672.354 .0279483
673.100 .0279383
673.846 .0279298
674.591 .0279217
675.337 .0279138
676.082 .0279054
676.826 .0278960
677.571 .0278862
678.315 .0278758
679.059 .0278657
679.803 .0278564
680.547 .0278484
681.290 .0278411
682.033 .0278341
682.776 .0278265
683.518 .0278173
684.261 .0278055
685.003 .0277912
685.745 .0277742
686.487 .0277563
687.228 .0277379
687.969 .0277197
688.710 .0277020
689.451 .0276855
690.192 .0276696
690.932 .0276538
691.672 .0276375
692.412 .0276204
693.152 .0276023
693.891 .0275835
694.630 .0275645
695.369 .0275461
696.108 .0275284
696.846 .0275118
697.585 .0274959
698.323 .0274805
699.061 .0274649
699.798 .0274489
700.536 .0274325
701.273 .0274163
702.010 .0274003
702.746 .0273848
703.483 .0273706
704.219 .0273576
704.955 .0273458
705.691 .0273343
706.427 .0273230
707.162 .0273112
707.897 .0272988
708.632 .0272859
709.367 .0272727
710.101 .0272594
710.835 .0272467
711.569 .0272341
712.303 .0272219
713.037 .0272096
713.770 .0271974
714.503 .0271847
715.236 .0271716
715.969 .0271577
716.702 .0271432
717.434 .0271286
718.166 .0271141
718.898 .0271000
719.629 .0270866
720.361 .0270739
721.092 .0270618
721.823 .0270500
722.554 .0270380
723.284 .0270255
724.014 .0270120
724.744 .0269969
725.474 .0269800
726.204 .0269614
726.933 .0269415
727.662 .0269206
728.391 .0268995
729.120 .0268784
729.849 .0268581
730.577 .0268387
731.305 .0268201
732.033 .0268021
732.760 .0267842
733.488 .0267665
734.215 .0267483
734.942 .0267297
735.669 .0267106
736.395 .0266917
737.122 .0266735
737.848 .0266559
738.573 .0266399
739.299 .0266246
740.024 .0266101
740.750 .0265962
741.474 .0265821
742.199 .0265671
742.924 .0265513
743.648 .0265344
744.372 .0265169
745.096 .0264992
745.819 .0264815
746.543 .0264641
747.266 .0264478
747.989 .0264328
748.711 .0264190
749.434 .0264069
750.156 .0263969
750.878 .0263882
751.599 .0263818
752.321 .0263763
753.042 .0263723
753.763 .0263695
754.484 .0263676
755.205 .0263660
755.925 .0263645
756.645 .0263626
757.365 .0263596
758.085 .0263557
758.804 .0263509
759.523 .0263446
760.242 .0263371
760.961 .0263277
761.679 .0263164
762.397 .0263031
763.115 .0262877
763.833 .0262698
764.551 .0262499
765.268 .0262280
765.985 .0262040
766.702 .0261785
767.418 .0261523
768.134 .0261259
768.850 .0260998
769.566 .0260743
770.282 .0260494
770.997 .0260255
771.712 .0260023
772.427 .0259799
773.142 .0259582
773.856 .0259375
774.570 .0259177
775.284 .0258988
775.998 .0258810
776.711 .0258649
777.424 .0258501
778.137 .0258370
778.849 .0258250
779.562 .0258141
780.274 .0258038
780.986 .0257935
781.697 .0257831
782.409 .0257731
783.120 .0257635
783.831 .0257546
784.541 .0257462
785.252 .0257390
785.962 .0257323
786.671 .0257261
787.381 .0257199
788.090 .0257133
788.799 .0257058
789.508 .0256969
790.217 .0256865
790.925 .0256749
791.633 .0256623
792.341 .0256495
793.048 .0256364
793.755 .0256235
794.462 .0256103
795.169 .0255968
795.875 .0255828
796.581 .0255685
797.287 .0255536
797.993 .0255380
798.698 .0255220
799.403 .0255055
800.108 .0254888
800.812 .0254720
801.517 .0254553
802.221 .0254391
802.924 .0254237
803.628 .0254090
804.331 .0253951
805.034 .0253827
805.736 .0253712
806.439 .0253606
807.141 .0253509
807.843 .0253417
808.544 .0253325
809.245 .0253233
809.946 .0253138
810.647 .0253042
811.347 .0252950
812.047 .0252863
812.747 .0252785
813.447 .0252714
814.146 .0252647
814.845 .0252582
815.543 .0252513
816.242 .0252439
816.940 .0252351
817.638 .0252250
818.335 .0252137
819.032 .0252008
819.729 .0251874
820.426 .0251738
821.122 .0251602
821.818 .0251468
822.514 .0251334
823.209 .0251197
823.905 .0251050
824.599 .0250895
825.294 .0250730
825.988 .0250552
826.682 .0250367
827.376 .0250175
828.069 .0249980
828.762 .0249791
829.455 .0249609
830.147 .0249433
830.840 .0249270
831.531 .0249114
832.223 .0248960
832.914 .0248811
833.605 .0248667
834.296 .0248530
834.986 .0248402
835.676 .0248280
836.366 .0248167
837.055 .0248064
837.744 .0247968
838.433 .0247872
839.121 .0247778
839.809 .0247679
840.497 .0247571
841.185 .0247457
841.872 .0247338
842.559 .0247219
843.245 .0247107
843.932 .0247002
844.617 .0246908
845.303 .0246821
845.988 .0246741
846.673 .0246662
847.358 .0246589
848.042 .0246512
848.726 .0246435
849.410 .0246357
850.093 .0246283
850.776 .0246215
851.459 .0246154
852.141 .0246096
852.823 .0246044
853.505 .0245994
854.186 .0245939
854.867 .0245874
855.548 .0245801
856.228 .0245717
856.908 .0245626
857.588 .0245525
858.267 .0245420
858.946 .0245310
859.625 .0245204
860.303 .0245099
860.981 .0244996
861.659 .0244897
862.336 .0244797
863.013 .0244696
863.690 .0244595
864.366 .0244486
865.042 .0244376
865.718 .0244267
866.393 .0244163
867.068 .0244059
867.743 .0243961
868.417 .0243863
869.091 .0243771
869.765 .0243680
870.438 .0243589
871.111 .0243492
871.783 .0243394
872.456 .0243289
873.127 .0243185
873.799 .0243083
874.470 .0242987
875.141 .0242893
875.811 .0242810
876.481 .0242727
877.151 .0242647
877.820 .0242565
878.489 .0242485
879.158 .0242401
879.826 .0242318
880.494 .0242228
881.162 .0242136
881.829 .0242049
882.496 .0241964
883.163 .0241880
883.829 .0241802
884.495 .0241724
885.160 .0241652
885.825 .0241585
886.490 .0241525
887.154 .0241470
887.818 .0241426
888.482 .0241385
889.145 .0241343
889.808 .0241303
890.471 .0241261
891.133 .0241213
891.795 .0241163
892.456 .0241109
893.117 .0241051
893.778 .0240992
894.439 .0240934
895.099 .0240875
895.758 .0240817
896.417 .0240753
897.076 .0240679
897.735 .0240595
898.393 .0240501
899.051 .0240396
899.708 .0240280
900.365 .0240164
901.022 .0240048
901.678 .0239937
902.334 .0239834
902.990 .0239739
903.645 .0239656
904.300 .0239578
904.954 .0239505
905.608 .0239432
906.262 .0239364
906.915 .0239303
907.568 .0239248
908.221 .0239204
908.873 .0239172
909.525 .0239150
910.176 .0239136
910.828 .0239124
911.478 .0239107
912.129 .0239079
912.778 .0239035
913.428 .0238974
914.077 .0238893
914.726 .0238794
915.375 .0238682
916.023 .0238566
916.670 .0238451
917.318 .0238338
917.964 .0238230
918.611 .0238130
919.257 .0238030
919.903 .0237932
920.548 .0237834
921.193 .0237735
921.838 .0237640
922.482 .0237550
923.126 .0237468
923.770 .0237401
924.413 .0237349
925.056 .0237315
925.698 .0237294
926.340 .0237283
926.982 .0237271
927.623 .0237253
928.264 .0237224
928.904 .0237176
929.544 .0237110
930.184 .0237025
930.823 .0236924
931.462 .0236810
932.101 .0236683
932.739 .0236547
933.377 .0236401
934.014 .0236246
934.651 .0236082
935.288 .0235913
935.924 .0235744
936.560 .0235583
937.196 .0235431
937.831 .0235290
938.466 .0235161
939.100 .0235038
939.734 .0234915
940.368 .0234786
941.001 .0234651
941.634 .0234507
942.266 .0234357
942.899 .0234202
943.530 .0234047
944.162 .0233899
944.793 .0233759
945.423 .0233619
946.053 .0233478
946.683 .0233324
947.313 .0233153
947.942 .0232961
948.571 .0232749
949.199 .0232522
949.827 .0232289
950.455 .0232051
951.082 .0231820
951.709 .0231600
952.335 .0231396
952.961 .0231201
953.587 .0231022
954.212 .0230849
954.837 .0230679
955.462 .0230511
956.086 .0230350
956.710 .0230194
957.334 .0230048
957.957 .0229908
958.579 .0229773
959.202 .0229642
959.824 .0229509
960.445 .0229374
961.067 .0229241
961.688 .0229105
962.308 .0228973
962.928 .0228848
963.548 .0228728
964.168 .0228609
964.787 .0228490
965.406 .0228370
966.024 .0228239
966.642 .0228103
967.260 .0227961
967.877 .0227822
968.494 .0227693
969.110 .0227574
969.727 .0227471
970.342 .0227389
970.958 .0227320
971.573 .0227256
972.188 .0227195
972.802 .0227130
973.416 .0227055
974.030 .0226971
974.643 .0226886
975.256 .0226805
975.869 .0226731
976.481 .0226668
977.093 .0226616
977.705 .0226575
978.316 .0226538
978.927 .0226500
979.538 .0226461
980.148 .0226416
980.758 .0226361
981.367 .0226304
981.977 .0226251
982.586 .0226207
983.194 .0226174
983.802 .0226147
984.410 .0226126
985.018 .0226109
985.625 .0226087
986.232 .0226057
986.838 .0226021
987.445 .0225978
988.050 .0225928
988.656 .0225875
989.261 .0225817
989.866 .0225757
990.471 .0225695
991.075 .0225633
991.679 .0225560
992.282 .0225490
992.886 .0225417
993.489 .0225343
994.091 .0225279
994.694 .0225220
995.296 .0225168
995.897 .0225123
996.499 .0225082
997.100 .0225044
997.701 .0225005
998.301 .0224970
998.901 .0224932
999.501 .0224900
1000.101 .0224869
1000.700 .0224835
1001.299 .0224798
1001.898 .0224762
1002.496 .0224713
1003.094 .0224654
1003.692 .0224590
1004.289 .0224518
1004.887 .0224452
1005.484 .0224391
1006.080 .0224345
1006.677 .0224314
1007.273 .0224301
1007.868 .0224303
1008.464 .0224315
1009.059 .0224341
1009.654 .0224367
1010.249 .0224399
1010.843 .0224436
1011.437 .0224474
1012.031 .0224510
1012.625 .0224546
1013.218 .0224579
1013.811 .0224607
1014.404 .0224637
1014.997 .0224662
1015.589 .0224688
1016.181 .0224713
1016.773 .0224736
1017.365 .0224760
1017.956 .0224779
1018.547 .0224798
1019.138 .0224809
1019.728 .0224822
1020.319 .0224831
1020.909 .0224843
1021.499 .0224861
1022.088 .0224887
1022.678 .0224916
1023.267 .0224950
1023.856 .0224985
1024.445 .0225017
1025.033 .0225044
1025.621 .0225062
1026.209 .0225073
1026.797 .0225074
1027.385 .0225060
1027.972 .0225039
1028.560 .0225010
1029.147 .0224980
1029.734 .0224948
1030.320 .0224920
1030.907 .0224902
1031.493 .0224901
1032.079 .0224912
1032.665 .0224940
1033.250 .0224982
1033.836 .0225031
1034.421 .0225075
1035.006 .0225110
1035.591 .0225126
1036.176 .0225118
1036.761 .0225089
1037.345 .0225040
1037.929 .0224978
1038.514 .0224907
1039.097 .0224830
1039.681 .0224756
1040.265 .0224685
1040.848 .0224612
1041.432 .0224528
1042.015 .0224440
1042.598 .0224348
1043.181 .0224252
1043.764 .0224159
1044.346 .0224082
1044.929 .0224032
1045.511 .0224013
1046.094 .0224021
1046.676 .0224059
1047.258 .0224114
1047.840 .0224181
1048.422 .0224245
1049.003 .0224307
1049.585 .0224365
1050.166 .0224423
1050.748 .0224478
1051.329 .0224542
1051.910 .0224613
1052.491 .0224691
1053.072 .0224771
1053.653 .0224845
1054.234 .0224902
1054.815 .0224932
1055.396 .0224939
1055.976 .0224923
1056.557 .0224885
1057.138 .0224846
1057.718 .0224806
1058.298 .0224770
1058.879 .0224739
1059.459 .0224713
1060.039 .0224694
1060.620 .0224681
1061.200 .0224667
1061.780 .0224648
1062.360 .0224623
1062.940 .0224595
1063.520 .0224559
1064.101 .0224515
1064.681 .0224457
1065.261 .0224387
1065.841 .0224295
1066.421 .0224198
1067.001 .0224089
1067.581 .0223980
1068.161 .0223879
1068.741 .0223795
1069.321 .0223720
1069.901 .0223653
1070.482 .0223592
1071.062 .0223541
1071.642 .0223480
1072.222 .0223417
1072.803 .0223341
1073.383 .0223258
1073.963 .0223181
1074.544 .0223129
1075.124 .0223097
1075.705 .0223098
1076.286 .0223125
1076.866 .0223173
1077.447 .0223231
1078.028 .0223285
1078.609 .0223310
1079.190 .0223307
1079.771 .0223272
1080.352 .0223213
1080.934 .0223138
1081.515 .0223079
1082.097 .0223043
1082.679 .0223043
1083.260 .0223069
1083.842 .0223124
1084.424 .0223187
1085.007 .0223261
1085.589 .0223323
1086.172 .0223376
1086.754 .0223410
1087.337 .0223440
1087.920 .0223470
1088.503 .0223513
1089.087 .0223567
1089.670 .0223637
1090.254 .0223689
1090.838 .0223724
1091.422 .0223729
1092.006 .0223707
1092.590 .0223645
1093.175 .0223563
1093.760 .0223445
1094.345 .0223332
1094.930 .0223205
1095.516 .0223089
1096.102 .0222979
1096.688 .0222890
1097.274 .0222798
1097.860 .0222695
1098.447 .0222581
1099.034 .0222466
1099.622 .0222333
1100.209 .0222223
1100.797 .0222112
1101.385 .0222032
1101.973 .0221971
1102.562 .0221941
1103.151 .0221950
1103.740 .0221997
1104.330 .0222055
1104.920 .0222133
1105.510 .0222210
1106.101 .0222300
1106.691 .0222375
1107.283 .0222459
1107.874 .0222553
1108.466 .0222660
1109.058 .0222770
1109.651 .0222897
1110.244 .0223033
1110.837 .0223188
1111.431 .0223342
1112.025 .0223499
1112.620 .0223635
1113.215 .0223758
1113.810 .0223862
1114.406 .0223959
1115.002 .0224025
1115.599 .0224074
1116.196 .0224067
1116.793 .0224019
1117.391 .0223902
1117.989 .0223730
1118.588 .0223524
1119.187 .0223292
1119.787 .0223050
1120.387 .0222816
1120.988 .0222593
1121.589 .0222391
1122.190 .0222194
1122.793 .0222021
1123.395 .0221833
1123.998 .0221654
1124.602 .0221486
1125.206 .0221361
1125.811 .0221302
1126.416 .0221316
1127.022 .0221414
1127.628 .0221589
1128.235 .0221821
1128.843 .0222083
1129.451 .0222356
1130.059 .0222640
1130.669 .0222898
1131.278 .0223149
1131.889 .0223380
1132.500 .0223594
1133.112 .0223829
1133.724 .0224113
1134.337 .0224439
1134.950 .0224800
1135.564 .0225197
1136.179 .0225634
1136.795 .0226119
1137.411 .0226661
1138.028 .0227256
1138.645 .0227907
1139.263 .0228614
1139.882 .0229369
1140.502 .0230246
1141.122 .0231159
1141.743 .0232207
1142.365 .0233335
1142.987 .0233523
1143.611 .0237199
1144.235 .0235970
1144.859 .0238942
1145.485 .0240133
