Measurement Sequence started on: 10-20-44-796
Integration time: 35
Scans to Average: 2 
>>>>>Begin Spectral Data<<<<<
432.953 .0533817
433.882 .0467679
434.810 .0435420
435.737 .0419218
436.662 .0392026
437.586 .0402234
438.509 .0392028
439.431 .0386410
440.351 .0383341
441.269 .0381780
442.187 .0381474
443.103 .0381732
444.018 .0381880
444.932 .0382139
445.844 .0382604
446.756 .0383054
447.666 .0383560
448.575 .0383990
449.482 .0384377
450.388 .0384746
451.294 .0384905
452.198 .0384829
453.100 .0384436
454.002 .0383997
454.902 .0383487
455.801 .0382903
456.699 .0382459
457.596 .0382103
458.492 .0381794
459.387 .0381542
460.280 .0381312
461.172 .0381050
462.064 .0380726
462.954 .0380345
463.843 .0379903
464.730 .0379421
465.617 .0378934
466.503 .0378457
467.387 .0377908
468.271 .0377345
469.153 .0376663
470.035 .0375849
470.915 .0374990
471.794 .0374051
472.673 .0373073
473.550 .0372132
474.426 .0371290
475.301 .0370564
476.175 .0369953
477.048 .0369462
477.920 .0369015
478.791 .0368607
479.661 .0368217
480.530 .0367848
481.398 .0367520
482.266 .0367286
483.132 .0367126
483.997 .0367061
484.861 .0367102
485.724 .0367193
486.587 .0367312
487.448 .0367411
488.308 .0367425
489.168 .0367357
490.026 .0367167
490.884 .0366909
491.741 .0366579
492.597 .0366219
493.452 .0365839
494.306 .0365436
495.159 .0365021
496.011 .0364559
496.862 .0364055
497.713 .0363488
498.562 .0362808
499.411 .0362038
500.259 .0361165
501.106 .0360223
501.952 .0359220
502.798 .0358217
503.642 .0357189
504.486 .0356183
505.329 .0355164
506.171 .0354131
507.012 .0353102
507.852 .0352043
508.692 .0350977
509.531 .0349864
510.369 .0348739
511.206 .0347631
512.043 .0346534
512.878 .0345518
513.713 .0344522
514.547 .0343596
515.381 .0342709
516.213 .0341828
517.045 .0340946
517.876 .0340028
518.706 .0339080
519.536 .0338109
520.365 .0337113
521.193 .0336093
522.020 .0335107
522.847 .0334068
523.673 .0332971
524.498 .0331817
525.323 .0330531
526.146 .0329137
526.969 .0327628
527.792 .0326023
528.614 .0324345
529.435 .0322680
530.255 .0321098
531.075 .0319508
531.894 .0318067
532.712 .0316634
533.530 .0315188
534.347 .0313795
535.163 .0312361
535.979 .0310938
536.794 .0309630
537.608 .0308431
538.422 .0307386
539.235 .0306534
540.048 .0305851
540.860 .0305254
541.671 .0304813
542.481 .0304432
543.292 .0304030
544.101 .0303694
544.910 .0303449
545.718 .0303235
546.526 .0303206
547.333 .0303351
548.139 .0303650
548.945 .0304127
549.750 .0304680
550.555 .0305243
551.359 .0305854
552.162 .0306450
552.965 .0307011
553.768 .0307514
554.569 .0308056
555.371 .0308560
556.171 .0309083
556.972 .0309626
557.771 .0310204
558.570 .0310765
559.369 .0311373
560.167 .0311973
560.964 .0312608
561.761 .0313257
562.558 .0313943
563.354 .0314645
564.149 .0315357
564.944 .0316081
565.738 .0316823
566.532 .0317548
567.325 .0318332
568.118 .0319095
568.910 .0319906
569.702 .0320758
570.494 .0321652
571.285 .0322534
572.075 .0323424
572.865 .0324244
573.654 .0324973
574.443 .0325607
575.232 .0326153
576.020 .0326616
576.807 .0327032
577.594 .0327431
578.381 .0327833
579.167 .0328241
579.952 .0328688
580.738 .0329144
581.522 .0329605
582.307 .0330031
583.091 .0330414
583.874 .0330736
584.657 .0330970
585.440 .0331156
586.222 .0331290
587.004 .0331383
587.785 .0331434
588.566 .0331477
589.346 .0331501
590.126 .0331530
590.906 .0331557
591.685 .0331567
592.464 .0331567
593.242 .0331554
594.020 .0331508
594.797 .0331450
595.575 .0331386
596.351 .0331323
597.128 .0331260
597.904 .0331220
598.679 .0331184
599.454 .0331153
600.229 .0331123
601.004 .0331088
601.778 .0331039
602.551 .0330971
603.325 .0330879
604.097 .0330774
604.870 .0330652
605.642 .0330524
606.414 .0330389
607.185 .0330257
607.956 .0330126
608.727 .0329997
609.497 .0329858
610.267 .0329711
611.037 .0329550
611.806 .0329366
612.575 .0329163
613.344 .0328947
614.112 .0328718
614.880 .0328485
615.647 .0328256
616.414 .0328034
617.181 .0327813
617.948 .0327600
618.714 .0327383
619.480 .0327159
620.245 .0326925
621.011 .0326673
621.775 .0326411
622.540 .0326144
623.304 .0325876
624.068 .0325609
624.832 .0325353
625.595 .0325114
626.358 .0324888
627.120 .0324672
627.883 .0324457
628.645 .0324245
629.406 .0324025
630.168 .0323793
630.929 .0323549
631.689 .0323296
632.450 .0323041
633.210 .0322783
633.970 .0322534
634.729 .0322291
635.489 .0322055
636.248 .0321826
637.006 .0321596
637.765 .0321364
638.523 .0321119
639.280 .0320867
640.038 .0320608
640.795 .0320347
641.552 .0320090
642.309 .0319838
643.065 .0319603
643.821 .0319387
644.577 .0319182
645.332 .0318980
646.088 .0318781
646.843 .0318577
647.597 .0318359
648.352 .0318127
649.106 .0317889
649.860 .0317644
650.613 .0317398
651.367 .0317166
652.120 .0316943
652.872 .0316730
653.625 .0316527
654.377 .0316327
655.129 .0316129
655.881 .0315927
656.632 .0315721
657.384 .0315512
658.135 .0315306
658.885 .0315107
659.636 .0314909
660.386 .0314721
661.136 .0314539
661.885 .0314361
662.635 .0314190
663.384 .0314021
664.133 .0313851
664.881 .0313685
665.630 .0313526
666.378 .0313372
667.126 .0313216
667.874 .0313055
668.621 .0312890
669.368 .0312715
670.115 .0312533
670.862 .0312347
671.608 .0312161
672.354 .0311982
673.100 .0311812
673.846 .0311651
674.591 .0311499
675.337 .0311358
676.082 .0311225
676.826 .0311092
677.571 .0310953
678.315 .0310805
679.059 .0310650
679.803 .0310499
680.547 .0310350
681.290 .0310204
682.033 .0310063
682.776 .0309928
683.518 .0309793
684.261 .0309649
685.003 .0309500
685.745 .0309341
686.487 .0309170
687.228 .0308988
687.969 .0308797
688.710 .0308594
689.451 .0308385
690.192 .0308170
690.932 .0307947
691.672 .0307709
692.412 .0307460
693.152 .0307206
693.891 .0306946
694.630 .0306687
695.369 .0306425
696.108 .0306167
696.846 .0305917
697.585 .0305666
698.323 .0305414
699.061 .0305164
699.798 .0304919
700.536 .0304677
701.273 .0304442
702.010 .0304221
702.746 .0304011
703.483 .0303813
704.219 .0303631
704.955 .0303453
705.691 .0303274
706.427 .0303095
707.162 .0302905
707.897 .0302705
708.632 .0302494
709.367 .0302272
710.101 .0302049
710.835 .0301828
711.569 .0301613
712.303 .0301400
713.037 .0301193
713.770 .0300987
714.503 .0300773
715.236 .0300555
715.969 .0300334
716.702 .0300111
717.434 .0299892
718.166 .0299680
718.898 .0299475
719.629 .0299276
720.361 .0299087
721.092 .0298901
721.823 .0298717
722.554 .0298523
723.284 .0298323
724.014 .0298109
724.744 .0297882
725.474 .0297645
726.204 .0297403
726.933 .0297164
727.662 .0296928
728.391 .0296693
729.120 .0296462
729.849 .0296233
730.577 .0296010
731.305 .0295784
732.033 .0295564
732.760 .0295346
733.488 .0295130
734.215 .0294922
734.942 .0294725
735.669 .0294540
736.395 .0294373
737.122 .0294220
737.848 .0294071
738.573 .0293924
739.299 .0293774
740.024 .0293616
740.750 .0293452
741.474 .0293275
742.199 .0293087
742.924 .0292891
743.648 .0292694
744.372 .0292496
745.096 .0292308
745.819 .0292131
746.543 .0291963
747.266 .0291806
747.989 .0291660
748.711 .0291526
749.434 .0291410
750.156 .0291311
750.878 .0291228
751.599 .0291167
752.321 .0291124
753.042 .0291093
753.763 .0291079
754.484 .0291067
755.205 .0291053
755.925 .0291037
756.645 .0291010
757.365 .0290966
758.085 .0290905
758.804 .0290821
759.523 .0290710
760.242 .0290573
760.961 .0290411
761.679 .0290224
762.397 .0290017
763.115 .0289796
763.833 .0289556
764.551 .0289310
765.268 .0289063
765.985 .0288814
766.702 .0288574
767.418 .0288341
768.134 .0288117
768.850 .0287906
769.566 .0287712
770.282 .0287536
770.997 .0287378
771.712 .0287241
772.427 .0287116
773.142 .0286995
773.856 .0286874
774.570 .0286748
775.284 .0286612
775.998 .0286466
776.711 .0286313
777.424 .0286154
778.137 .0285995
778.849 .0285834
779.562 .0285677
780.274 .0285520
780.986 .0285366
781.697 .0285213
782.409 .0285055
783.120 .0284899
783.831 .0284747
784.541 .0284604
785.252 .0284478
785.962 .0284366
786.671 .0284266
787.381 .0284176
788.090 .0284091
788.799 .0284000
789.508 .0283897
790.217 .0283783
790.925 .0283662
791.633 .0283528
792.341 .0283390
793.048 .0283247
793.755 .0283103
794.462 .0282961
795.169 .0282813
795.875 .0282660
796.581 .0282499
797.287 .0282329
797.993 .0282153
798.698 .0281980
799.403 .0281812
800.108 .0281654
800.812 .0281507
801.517 .0281371
802.221 .0281242
802.924 .0281118
803.628 .0280997
804.331 .0280878
805.034 .0280759
805.736 .0280640
806.439 .0280519
807.141 .0280403
807.843 .0280286
808.544 .0280168
809.245 .0280046
809.946 .0279918
810.647 .0279779
811.347 .0279633
812.047 .0279483
812.747 .0279332
813.447 .0279180
814.146 .0279029
814.845 .0278878
815.543 .0278733
816.242 .0278594
816.940 .0278460
817.638 .0278327
818.335 .0278200
819.032 .0278070
819.729 .0277944
820.426 .0277816
821.122 .0277688
821.818 .0277558
822.514 .0277427
823.209 .0277292
823.905 .0277152
824.599 .0277006
825.294 .0276859
825.988 .0276708
826.682 .0276553
827.376 .0276386
828.069 .0276215
828.762 .0276032
829.455 .0275846
830.147 .0275656
830.840 .0275470
831.531 .0275290
832.223 .0275122
832.914 .0274964
833.605 .0274815
834.296 .0274677
834.986 .0274544
835.676 .0274411
836.366 .0274283
837.055 .0274150
837.744 .0274022
838.433 .0273898
839.121 .0273781
839.809 .0273668
840.497 .0273563
841.185 .0273461
841.872 .0273355
842.559 .0273245
843.245 .0273126
843.932 .0272993
844.617 .0272854
845.303 .0272705
845.988 .0272550
846.673 .0272396
847.358 .0272245
848.042 .0272100
848.726 .0271965
849.410 .0271837
850.093 .0271714
850.776 .0271597
851.459 .0271481
852.141 .0271360
852.823 .0271234
853.505 .0271107
854.186 .0270976
854.867 .0270847
855.548 .0270719
856.228 .0270594
856.908 .0270478
857.588 .0270366
858.267 .0270257
858.946 .0270155
859.625 .0270051
860.303 .0269951
860.981 .0269852
861.659 .0269755
862.336 .0269657
863.013 .0269563
863.690 .0269468
864.366 .0269375
865.042 .0269279
865.718 .0269185
866.393 .0269091
867.068 .0269000
867.743 .0268908
868.417 .0268813
869.091 .0268720
869.765 .0268629
870.438 .0268532
871.111 .0268439
871.783 .0268342
872.456 .0268241
873.127 .0268136
873.799 .0268027
874.470 .0267912
875.141 .0267794
875.811 .0267673
876.481 .0267546
877.151 .0267417
877.820 .0267288
878.489 .0267156
879.158 .0267025
879.826 .0266899
880.494 .0266769
881.162 .0266639
881.829 .0266513
882.496 .0266385
883.163 .0266255
883.829 .0266126
884.495 .0265996
885.160 .0265868
885.825 .0265751
886.490 .0265648
887.154 .0265558
887.818 .0265488
888.482 .0265432
889.145 .0265383
889.808 .0265343
890.471 .0265307
891.133 .0265268
891.795 .0265230
892.456 .0265190
893.117 .0265152
893.778 .0265121
894.439 .0265102
895.099 .0265093
895.758 .0265091
896.417 .0265093
897.076 .0265089
897.735 .0265076
898.393 .0265056
899.051 .0265027
899.708 .0264983
900.365 .0264928
901.022 .0264863
901.678 .0264792
902.334 .0264714
902.990 .0264636
903.645 .0264554
904.300 .0264469
904.954 .0264378
905.608 .0264278
906.262 .0264170
906.915 .0264061
907.568 .0263951
908.221 .0263839
908.873 .0263732
909.525 .0263631
910.176 .0263538
910.828 .0263457
911.478 .0263389
912.129 .0263330
912.778 .0263275
913.428 .0263224
914.077 .0263169
914.726 .0263108
915.375 .0263038
916.023 .0262959
916.670 .0262873
917.318 .0262779
917.964 .0262680
918.611 .0262573
919.257 .0262463
919.903 .0262348
920.548 .0262224
921.193 .0262094
921.838 .0261960
922.482 .0261822
923.126 .0261682
923.770 .0261545
924.413 .0261414
925.056 .0261286
925.698 .0261167
926.340 .0261057
926.982 .0260955
927.623 .0260856
928.264 .0260763
928.904 .0260672
929.544 .0260580
930.184 .0260488
930.823 .0260394
931.462 .0260296
932.101 .0260194
932.739 .0260086
933.377 .0259973
934.014 .0259852
934.651 .0259727
935.288 .0259596
935.924 .0259462
936.560 .0259328
937.196 .0259187
937.831 .0259047
938.466 .0258907
939.100 .0258765
939.734 .0258618
940.368 .0258466
941.001 .0258310
941.634 .0258146
942.266 .0257973
942.899 .0257797
943.530 .0257612
944.162 .0257423
944.793 .0257230
945.423 .0257034
946.053 .0256834
946.683 .0256635
947.313 .0256432
947.942 .0256223
948.571 .0256003
949.199 .0255774
949.827 .0255529
950.455 .0255280
951.082 .0255031
951.709 .0254786
952.335 .0254556
952.961 .0254349
953.587 .0254161
954.212 .0253993
954.837 .0253841
955.462 .0253701
956.086 .0253570
956.710 .0253451
957.334 .0253341
957.957 .0253241
958.579 .0253159
959.202 .0253095
959.824 .0253041
960.445 .0253005
961.067 .0252981
961.688 .0252961
962.308 .0252940
962.928 .0252912
963.548 .0252871
964.168 .0252813
964.787 .0252736
965.406 .0252641
966.024 .0252530
966.642 .0252407
967.260 .0252268
967.877 .0252119
968.494 .0251964
969.110 .0251801
969.727 .0251626
970.342 .0251449
970.958 .0251263
971.573 .0251072
972.188 .0250881
972.802 .0250695
973.416 .0250518
974.030 .0250351
974.643 .0250195
975.256 .0250057
975.869 .0249935
976.481 .0249828
977.093 .0249733
977.705 .0249653
978.316 .0249581
978.927 .0249515
979.538 .0249449
980.148 .0249388
980.758 .0249329
981.367 .0249274
981.977 .0249218
982.586 .0249165
983.194 .0249115
983.802 .0249064
984.410 .0249009
985.018 .0248949
985.625 .0248882
986.232 .0248816
986.838 .0248745
987.445 .0248673
988.050 .0248598
988.656 .0248525
989.261 .0248449
989.866 .0248368
990.471 .0248279
991.075 .0248190
991.679 .0248098
992.282 .0248012
992.886 .0247935
993.489 .0247873
994.091 .0247829
994.694 .0247801
995.296 .0247785
995.897 .0247775
996.499 .0247757
997.100 .0247735
997.701 .0247699
998.301 .0247663
998.901 .0247625
999.501 .0247590
1000.101 .0247573
1000.700 .0247576
1001.299 .0247592
1001.898 .0247615
1002.496 .0247640
1003.094 .0247654
1003.692 .0247639
1004.289 .0247601
1004.887 .0247538
1005.484 .0247462
1006.080 .0247384
1006.677 .0247315
1007.273 .0247258
1007.868 .0247227
1008.464 .0247208
1009.059 .0247195
1009.654 .0247193
1010.249 .0247183
1010.843 .0247158
1011.437 .0247124
1012.031 .0247087
1012.625 .0247054
1013.218 .0247027
1013.811 .0247019
1014.404 .0247023
1014.997 .0247049
1015.589 .0247082
1016.181 .0247114
1016.773 .0247147
1017.365 .0247175
1017.956 .0247190
1018.547 .0247196
1019.138 .0247201
1019.728 .0247201
1020.319 .0247212
1020.909 .0247232
1021.499 .0247255
1022.088 .0247278
1022.678 .0247289
1023.267 .0247286
1023.856 .0247264
1024.445 .0247221
1025.033 .0247160
1025.621 .0247090
1026.209 .0247016
1026.797 .0246938
1027.385 .0246867
1027.972 .0246802
1028.560 .0246739
1029.147 .0246672
1029.734 .0246611
1030.320 .0246543
1030.907 .0246480
1031.493 .0246419
1032.079 .0246363
1032.665 .0246319
1033.250 .0246286
1033.836 .0246261
1034.421 .0246245
1035.006 .0246241
1035.591 .0246247
1036.176 .0246256
1036.761 .0246275
1037.345 .0246290
1037.929 .0246301
1038.514 .0246313
1039.097 .0246323
1039.681 .0246318
1040.265 .0246308
1040.848 .0246290
1041.432 .0246267
1042.015 .0246240
1042.598 .0246211
1043.181 .0246183
1043.764 .0246161
1044.346 .0246146
1044.929 .0246127
1045.511 .0246111
1046.094 .0246111
1046.676 .0246111
1047.258 .0246119
1047.840 .0246131
1048.422 .0246142
1049.003 .0246151
1049.585 .0246154
1050.166 .0246151
1050.748 .0246142
1051.329 .0246130
1051.910 .0246114
1052.491 .0246100
1053.072 .0246094
1053.653 .0246090
1054.234 .0246090
1054.815 .0246096
1055.396 .0246097
1055.976 .0246087
1056.557 .0246057
1057.138 .0246012
1057.718 .0245951
1058.298 .0245878
1058.879 .0245799
1059.459 .0245721
1060.039 .0245642
1060.620 .0245561
1061.200 .0245484
1061.780 .0245406
1062.360 .0245314
1062.940 .0245209
1063.520 .0245089
1064.101 .0244957
1064.681 .0244814
1065.261 .0244666
1065.841 .0244514
1066.421 .0244361
1067.001 .0244211
1067.581 .0244060
1068.161 .0243921
1068.741 .0243797
1069.321 .0243690
1069.901 .0243610
1070.482 .0243552
1071.062 .0243506
1071.642 .0243474
1072.222 .0243461
1072.803 .0243464
1073.383 .0243473
1073.963 .0243490
1074.544 .0243504
1075.124 .0243510
1075.705 .0243493
1076.286 .0243459
1076.866 .0243406
1077.447 .0243337
1078.028 .0243245
1078.609 .0243138
1079.190 .0243020
1079.771 .0242898
1080.352 .0242776
1080.934 .0242663
1081.515 .0242564
1082.097 .0242490
1082.679 .0242429
1083.260 .0242393
1083.842 .0242381
1084.424 .0242392
1085.007 .0242415
1085.589 .0242449
1086.172 .0242484
1086.754 .0242517
1087.337 .0242558
1087.920 .0242608
1088.503 .0242656
1089.087 .0242714
1089.670 .0242766
1090.254 .0242793
1090.838 .0242795
1091.422 .0242763
1092.006 .0242699
1092.590 .0242616
1093.175 .0242523
1093.760 .0242423
1094.345 .0242331
1094.930 .0242251
1095.516 .0242194
1096.102 .0242161
1096.688 .0242147
1097.274 .0242132
1097.860 .0242113
1098.447 .0242083
1099.034 .0242046
1099.622 .0241986
1100.209 .0241930
1100.797 .0241869
1101.385 .0241794
1101.973 .0241701
1102.562 .0241588
1103.151 .0241461
1103.740 .0241317
1104.330 .0241170
1104.920 .0241048
1105.510 .0240951
1106.101 .0240917
1106.691 .0240918
1107.283 .0240982
1107.874 .0241095
1108.466 .0241227
1109.058 .0241385
1109.651 .0241552
1110.244 .0241717
1110.837 .0241871
1111.431 .0242029
1112.025 .0242207
1112.620 .0242399
1113.215 .0242618
1113.810 .0242858
1114.406 .0243139
1115.002 .0243416
1115.599 .0243674
1116.196 .0243896
1116.793 .0244085
1117.391 .0244204
1117.989 .0244258
1118.588 .0244279
1119.187 .0244274
1119.787 .0244279
1120.387 .0244309
1120.988 .0244392
1121.589 .0244547
1122.190 .0244745
1122.793 .0244967
1123.395 .0245180
1123.998 .0245402
1124.602 .0245590
1125.206 .0245774
1125.811 .0245971
1126.416 .0246166
1127.022 .0246379
1127.628 .0246599
1128.235 .0246820
1128.843 .0247038
1129.451 .0247239
1130.059 .0247397
1130.669 .0247516
1131.278 .0247627
1131.889 .0247728
1132.500 .0247854
1133.112 .0248054
1133.724 .0248336
1134.337 .0248661
1134.950 .0249029
1135.564 .0249397
1136.179 .0249788
1136.795 .0250236
1137.411 .0250722
1138.028 .0251256
1138.645 .0251903
1139.263 .0252685
1139.882 .0253557
1140.502 .0254553
1141.122 .0255620
1141.743 .0256830
1142.365 .0258106
1142.987 .0258884
1143.611 .0260831
1144.235 .0260566
1144.859 .0264517
1145.485 .0265572
