Measurement Sequence started on: 10-20-44-796
Integration time: 35
Scans to Average: 2 
>>>>>Begin Spectral Data<<<<<
432.953 .0317539
433.882 .0372915
434.810 .0353181
435.737 .0324857
436.662 .0328438
437.586 .0331916
438.509 .0330112
439.431 .0327379
440.351 .0325806
441.269 .0325175
442.187 .0324551
443.103 .0323966
444.018 .0323579
444.932 .0323158
445.844 .0322621
446.756 .0322042
447.666 .0321443
448.575 .0320769
449.482 .0320015
450.388 .0319285
451.294 .0318587
452.198 .0317859
453.100 .0317158
454.002 .0316650
454.902 .0316194
455.801 .0315811
456.699 .0315604
457.596 .0315518
458.492 .0315647
459.387 .0315965
460.280 .0316339
461.172 .0316639
462.064 .0316874
462.954 .0316954
463.843 .0316902
464.730 .0316763
465.617 .0316574
466.503 .0316356
467.387 .0316215
468.271 .0316123
469.153 .0316059
470.035 .0316015
470.915 .0315968
471.794 .0315818
472.673 .0315586
473.550 .0315231
474.426 .0314809
475.301 .0314401
476.175 .0314040
477.048 .0313764
477.920 .0313591
478.791 .0313531
479.661 .0313572
480.530 .0313661
481.398 .0313789
482.266 .0313908
483.132 .0314028
483.997 .0314112
484.861 .0314150
485.724 .0314162
486.587 .0314163
487.448 .0314140
488.308 .0314081
489.168 .0313957
490.026 .0313785
490.884 .0313577
491.741 .0313299
492.597 .0312965
493.452 .0312595
494.306 .0312168
495.159 .0311716
496.011 .0311227
496.862 .0310737
497.713 .0310228
498.562 .0309732
499.411 .0309230
500.259 .0308734
501.106 .0308231
501.952 .0307716
502.798 .0307185
503.642 .0306678
504.486 .0306144
505.329 .0305562
506.171 .0304995
507.012 .0304426
507.852 .0303840
508.692 .0303241
509.531 .0302602
510.369 .0301894
511.206 .0301108
512.043 .0300214
512.878 .0299135
513.713 .0297929
514.547 .0296608
515.381 .0295160
516.213 .0293653
517.045 .0292114
517.876 .0290527
518.706 .0288867
519.536 .0287186
520.365 .0285348
521.193 .0283412
522.020 .0281405
522.847 .0279306
523.673 .0277191
524.498 .0275111
525.323 .0273050
526.146 .0271057
526.969 .0269212
527.792 .0267480
528.614 .0265773
529.435 .0264169
530.255 .0262631
531.075 .0261173
531.894 .0259847
532.712 .0258703
533.530 .0257721
534.347 .0256983
535.163 .0256397
535.979 .0255913
536.794 .0255552
537.608 .0255234
538.422 .0254922
539.235 .0254628
540.048 .0254374
540.860 .0254203
541.671 .0254149
542.481 .0254302
543.292 .0254608
544.101 .0255054
544.910 .0255563
545.718 .0256087
546.526 .0256589
547.333 .0257032
548.139 .0257398
548.945 .0257729
549.750 .0258056
550.555 .0258405
551.359 .0258771
552.162 .0259183
552.965 .0259625
553.768 .0260076
554.569 .0260492
555.371 .0260859
556.171 .0261165
556.972 .0261424
557.771 .0261632
558.570 .0261808
559.369 .0261997
560.167 .0262262
560.964 .0262624
561.761 .0263113
562.558 .0263740
563.354 .0264484
564.149 .0265299
564.944 .0266146
565.738 .0267004
566.532 .0267869
567.325 .0268722
568.118 .0269578
568.910 .0270415
569.702 .0271268
570.494 .0272140
571.285 .0273025
572.075 .0273911
572.865 .0274804
573.654 .0275639
574.443 .0276394
575.232 .0277060
576.020 .0277663
576.807 .0278218
577.594 .0278763
578.381 .0279293
579.167 .0279841
579.952 .0280432
580.738 .0281078
581.522 .0281740
582.307 .0282450
583.091 .0283172
583.874 .0283883
584.657 .0284570
585.440 .0285239
586.222 .0285871
587.004 .0286478
587.785 .0287048
588.566 .0287565
589.346 .0288028
590.126 .0288424
590.906 .0288749
591.685 .0289028
592.464 .0289245
593.242 .0289412
594.020 .0289522
594.797 .0289603
595.575 .0289641
596.351 .0289652
597.128 .0289636
597.904 .0289606
598.679 .0289563
599.454 .0289499
600.229 .0289409
601.004 .0289314
601.778 .0289204
602.551 .0289083
603.325 .0288954
604.097 .0288824
604.870 .0288698
605.642 .0288585
606.414 .0288474
607.185 .0288376
607.956 .0288285
608.727 .0288186
609.497 .0288073
610.267 .0287946
611.037 .0287796
611.806 .0287625
612.575 .0287437
613.344 .0287242
614.112 .0287033
614.880 .0286830
615.647 .0286629
616.414 .0286444
617.181 .0286278
617.948 .0286116
618.714 .0285971
619.480 .0285836
620.245 .0285701
621.011 .0285564
621.775 .0285430
622.540 .0285294
623.304 .0285162
624.068 .0285036
624.832 .0284916
625.595 .0284813
626.358 .0284727
627.120 .0284653
627.883 .0284593
628.645 .0284541
629.406 .0284487
630.168 .0284421
630.929 .0284350
631.689 .0284256
632.450 .0284151
633.210 .0284034
633.970 .0283909
634.729 .0283775
635.489 .0283639
636.248 .0283487
637.006 .0283326
637.765 .0283147
638.523 .0282946
639.280 .0282729
640.038 .0282506
640.795 .0282272
641.552 .0282038
642.309 .0281813
643.065 .0281596
643.821 .0281383
644.577 .0281177
645.332 .0280970
646.088 .0280766
646.843 .0280564
647.597 .0280369
648.352 .0280191
649.106 .0280041
649.860 .0279916
650.613 .0279818
651.367 .0279746
652.120 .0279688
652.872 .0279631
653.625 .0279574
654.377 .0279508
655.129 .0279428
655.881 .0279336
656.632 .0279239
657.384 .0279137
658.135 .0279034
658.885 .0278926
659.636 .0278812
660.386 .0278688
661.136 .0278550
661.885 .0278388
662.635 .0278216
663.384 .0278032
664.133 .0277844
664.881 .0277656
665.630 .0277480
666.378 .0277310
667.126 .0277146
667.874 .0276982
668.621 .0276819
669.368 .0276652
670.115 .0276486
670.862 .0276313
671.608 .0276144
672.354 .0275984
673.100 .0275828
673.846 .0275684
674.591 .0275549
675.337 .0275411
676.082 .0275277
676.826 .0275134
677.571 .0274987
678.315 .0274829
679.059 .0274672
679.803 .0274515
680.547 .0274363
681.290 .0274218
682.033 .0274073
682.776 .0273929
683.518 .0273784
684.261 .0273632
685.003 .0273472
685.745 .0273305
686.487 .0273129
687.228 .0272948
687.969 .0272771
688.710 .0272591
689.451 .0272421
690.192 .0272258
690.932 .0272106
691.672 .0271951
692.412 .0271794
693.152 .0271632
693.891 .0271459
694.630 .0271280
695.369 .0271092
696.108 .0270898
696.846 .0270705
697.585 .0270510
698.323 .0270323
699.061 .0270141
699.798 .0269968
700.536 .0269800
701.273 .0269637
702.010 .0269481
702.746 .0269325
703.483 .0269173
704.219 .0269028
704.955 .0268893
705.691 .0268768
706.427 .0268647
707.162 .0268533
707.897 .0268424
708.632 .0268318
709.367 .0268214
710.101 .0268109
710.835 .0268004
711.569 .0267898
712.303 .0267792
713.037 .0267686
713.770 .0267581
714.503 .0267473
715.236 .0267363
715.969 .0267249
716.702 .0267129
717.434 .0267003
718.166 .0266871
718.898 .0266743
719.629 .0266614
720.361 .0266491
721.092 .0266372
721.823 .0266257
722.554 .0266145
723.284 .0266030
724.014 .0265909
724.744 .0265778
725.474 .0265635
726.204 .0265479
726.933 .0265311
727.662 .0265135
728.391 .0264953
729.120 .0264771
729.849 .0264593
730.577 .0264425
731.305 .0264267
732.033 .0264120
732.760 .0263979
733.488 .0263842
734.215 .0263709
734.942 .0263579
735.669 .0263453
736.395 .0263329
737.122 .0263210
737.848 .0263096
738.573 .0262984
739.299 .0262879
740.024 .0262777
740.750 .0262676
741.474 .0262578
742.199 .0262479
742.924 .0262374
743.648 .0262266
744.372 .0262158
745.096 .0262056
745.819 .0261953
746.543 .0261850
747.266 .0261744
747.989 .0261638
748.711 .0261537
749.434 .0261434
750.156 .0261337
750.878 .0261256
751.599 .0261193
752.321 .0261148
753.042 .0261123
753.763 .0261113
754.484 .0261111
755.205 .0261115
755.925 .0261114
756.645 .0261099
757.365 .0261071
758.085 .0261035
758.804 .0260990
759.523 .0260942
760.242 .0260892
760.961 .0260835
761.679 .0260779
762.397 .0260711
763.115 .0260621
763.833 .0260505
764.551 .0260363
765.268 .0260192
765.985 .0259998
766.702 .0259781
767.418 .0259549
768.134 .0259312
768.850 .0259077
769.566 .0258845
770.282 .0258619
770.997 .0258405
771.712 .0258199
772.427 .0258003
773.142 .0257823
773.856 .0257652
774.570 .0257497
775.284 .0257355
775.998 .0257219
776.711 .0257089
777.424 .0256957
778.137 .0256826
778.849 .0256693
779.562 .0256562
780.274 .0256431
780.986 .0256301
781.697 .0256172
782.409 .0256044
783.120 .0255914
783.831 .0255787
784.541 .0255655
785.252 .0255518
785.962 .0255375
786.671 .0255223
787.381 .0255067
788.090 .0254906
788.799 .0254744
789.508 .0254580
790.217 .0254415
790.925 .0254249
791.633 .0254080
792.341 .0253911
793.048 .0253738
793.755 .0253560
794.462 .0253378
795.169 .0253190
795.875 .0253002
796.581 .0252817
797.287 .0252637
797.993 .0252462
798.698 .0252299
799.403 .0252142
800.108 .0251990
800.812 .0251845
801.517 .0251705
802.221 .0251571
802.924 .0251445
803.628 .0251325
804.331 .0251211
805.034 .0251110
805.736 .0251016
806.439 .0250923
807.141 .0250833
807.843 .0250735
808.544 .0250631
809.245 .0250516
809.946 .0250391
810.647 .0250254
811.347 .0250114
812.047 .0249975
812.747 .0249837
813.447 .0249704
814.146 .0249577
814.845 .0249456
815.543 .0249340
816.242 .0249226
816.940 .0249114
817.638 .0249005
818.335 .0248898
819.032 .0248793
819.729 .0248686
820.426 .0248575
821.122 .0248462
821.818 .0248338
822.514 .0248208
823.209 .0248073
823.905 .0247929
824.599 .0247778
825.294 .0247623
825.988 .0247462
826.682 .0247294
827.376 .0247124
828.069 .0246952
828.762 .0246775
829.455 .0246595
830.147 .0246418
830.840 .0246242
831.531 .0246072
832.223 .0245912
832.914 .0245760
833.605 .0245620
834.296 .0245491
834.986 .0245370
835.676 .0245262
836.366 .0245165
837.055 .0245077
837.744 .0244993
838.433 .0244912
839.121 .0244834
839.809 .0244755
840.497 .0244676
841.185 .0244601
841.872 .0244531
842.559 .0244467
843.245 .0244408
843.932 .0244359
844.617 .0244314
845.303 .0244275
845.988 .0244235
846.673 .0244189
847.358 .0244138
848.042 .0244081
848.726 .0244014
849.410 .0243941
850.093 .0243865
850.776 .0243783
851.459 .0243701
852.141 .0243615
852.823 .0243525
853.505 .0243435
854.186 .0243340
854.867 .0243245
855.548 .0243143
856.228 .0243041
856.908 .0242937
857.588 .0242834
858.267 .0242736
858.946 .0242640
859.625 .0242554
860.303 .0242477
860.981 .0242410
861.659 .0242351
862.336 .0242298
863.013 .0242245
863.690 .0242195
864.366 .0242143
865.042 .0242088
865.718 .0242037
866.393 .0241990
867.068 .0241950
867.743 .0241917
868.417 .0241891
869.091 .0241867
869.765 .0241842
870.438 .0241815
871.111 .0241779
871.783 .0241736
872.456 .0241688
873.127 .0241633
873.799 .0241575
874.470 .0241516
875.141 .0241458
875.811 .0241399
876.481 .0241333
877.151 .0241261
877.820 .0241179
878.489 .0241092
879.158 .0240996
879.826 .0240896
880.494 .0240796
881.162 .0240694
881.829 .0240595
882.496 .0240497
883.163 .0240399
883.829 .0240310
884.495 .0240227
885.160 .0240157
885.825 .0240102
886.490 .0240063
887.154 .0240041
887.818 .0240036
888.482 .0240042
889.145 .0240050
889.808 .0240060
890.471 .0240071
891.133 .0240082
891.795 .0240093
892.456 .0240107
893.117 .0240122
893.778 .0240142
894.439 .0240162
895.099 .0240177
895.758 .0240193
896.417 .0240204
897.076 .0240209
897.735 .0240211
898.393 .0240205
899.051 .0240197
899.708 .0240187
900.365 .0240178
901.022 .0240165
901.678 .0240147
902.334 .0240129
902.990 .0240103
903.645 .0240077
904.300 .0240057
904.954 .0240037
905.608 .0240024
906.262 .0240016
906.915 .0240009
907.568 .0240000
908.221 .0239991
908.873 .0239977
909.525 .0239956
910.176 .0239930
910.828 .0239904
911.478 .0239879
912.129 .0239862
912.778 .0239853
913.428 .0239848
914.077 .0239843
914.726 .0239836
915.375 .0239816
916.023 .0239787
916.670 .0239744
917.318 .0239688
917.964 .0239618
918.611 .0239540
919.257 .0239450
919.903 .0239352
920.548 .0239246
921.193 .0239136
921.838 .0239018
922.482 .0238900
923.126 .0238782
923.770 .0238669
924.413 .0238564
925.056 .0238470
925.698 .0238390
926.340 .0238325
926.982 .0238272
927.623 .0238228
928.264 .0238188
928.904 .0238152
929.544 .0238111
930.184 .0238065
930.823 .0238015
931.462 .0237963
932.101 .0237903
932.739 .0237837
933.377 .0237764
934.014 .0237681
934.651 .0237587
935.288 .0237477
935.924 .0237353
936.560 .0237215
937.196 .0237064
937.831 .0236900
938.466 .0236725
939.100 .0236550
939.734 .0236370
940.368 .0236192
941.001 .0236019
941.634 .0235846
942.266 .0235679
942.899 .0235513
943.530 .0235346
944.162 .0235173
944.793 .0234996
945.423 .0234810
946.053 .0234614
946.683 .0234413
947.313 .0234204
947.942 .0233991
948.571 .0233780
949.199 .0233563
949.827 .0233341
950.455 .0233114
951.082 .0232889
951.709 .0232658
952.335 .0232425
952.961 .0232187
953.587 .0231951
954.212 .0231718
954.837 .0231493
955.462 .0231273
956.086 .0231065
956.710 .0230869
957.334 .0230684
957.957 .0230505
958.579 .0230331
959.202 .0230160
959.824 .0229994
960.445 .0229826
961.067 .0229664
961.688 .0229503
962.308 .0229350
962.928 .0229204
963.548 .0229062
964.168 .0228924
964.787 .0228786
965.406 .0228642
966.024 .0228494
966.642 .0228343
967.260 .0228194
967.877 .0228045
968.494 .0227903
969.110 .0227774
969.727 .0227653
970.342 .0227543
970.958 .0227441
971.573 .0227337
972.188 .0227231
972.802 .0227117
973.416 .0226995
974.030 .0226869
974.643 .0226741
975.256 .0226613
975.869 .0226492
976.481 .0226377
977.093 .0226269
977.705 .0226171
978.316 .0226087
978.927 .0226011
979.538 .0225935
980.148 .0225863
980.758 .0225784
981.367 .0225702
981.977 .0225623
982.586 .0225533
983.194 .0225439
983.802 .0225346
984.410 .0225248
985.018 .0225147
985.625 .0225044
986.232 .0224944
986.838 .0224842
987.445 .0224737
988.050 .0224623
988.656 .0224492
989.261 .0224352
989.866 .0224201
990.471 .0224035
991.075 .0223865
991.679 .0223695
992.282 .0223526
992.886 .0223374
993.489 .0223243
994.091 .0223136
994.694 .0223051
995.296 .0222993
995.897 .0222949
996.499 .0222913
997.100 .0222879
997.701 .0222844
998.301 .0222805
998.901 .0222767
999.501 .0222728
1000.101 .0222691
1000.700 .0222665
1001.299 .0222646
1001.898 .0222631
1002.496 .0222624
1003.094 .0222614
1003.692 .0222598
1004.289 .0222567
1004.887 .0222525
1005.484 .0222461
1006.080 .0222382
1006.677 .0222298
1007.273 .0222211
1007.868 .0222130
1008.464 .0222058
1009.059 .0222002
1009.654 .0221959
1010.249 .0221927
1010.843 .0221902
1011.437 .0221878
1012.031 .0221856
1012.625 .0221824
1013.218 .0221790
1013.811 .0221754
1014.404 .0221720
1014.997 .0221693
1015.589 .0221677
1016.181 .0221675
1016.773 .0221671
1017.365 .0221667
1017.956 .0221655
1018.547 .0221633
1019.138 .0221596
1019.728 .0221544
1020.319 .0221488
1020.909 .0221430
1021.499 .0221376
1022.088 .0221326
1022.678 .0221288
1023.267 .0221262
1023.856 .0221241
1024.445 .0221219
1025.033 .0221192
1025.621 .0221156
1026.209 .0221108
1026.797 .0221053
1027.385 .0220995
1027.972 .0220933
1028.560 .0220878
1029.147 .0220830
1029.734 .0220785
1030.320 .0220743
1030.907 .0220699
1031.493 .0220656
1032.079 .0220618
1032.665 .0220584
1033.250 .0220549
1033.836 .0220522
1034.421 .0220511
1035.006 .0220507
1035.591 .0220507
1036.176 .0220515
1036.761 .0220526
1037.345 .0220539
1037.929 .0220556
1038.514 .0220577
1039.097 .0220610
1039.681 .0220670
1040.265 .0220750
1040.848 .0220846
1041.432 .0220954
1042.015 .0221067
1042.598 .0221174
1043.181 .0221274
1043.764 .0221364
1044.346 .0221434
1044.929 .0221496
1045.511 .0221552
1046.094 .0221599
1046.676 .0221640
1047.258 .0221671
1047.840 .0221693
1048.422 .0221698
1049.003 .0221682
1049.585 .0221638
1050.166 .0221580
1050.748 .0221510
1051.329 .0221436
1051.910 .0221360
1052.491 .0221290
1053.072 .0221227
1053.653 .0221180
1054.234 .0221143
1054.815 .0221114
1055.396 .0221105
1055.976 .0221110
1056.557 .0221122
1057.138 .0221158
1057.718 .0221204
1058.298 .0221262
1058.879 .0221339
1059.459 .0221431
1060.039 .0221527
1060.620 .0221637
1061.200 .0221750
1061.780 .0221849
1062.360 .0221933
1062.940 .0222000
1063.520 .0222027
1064.101 .0222011
1064.681 .0221957
1065.261 .0221858
1065.841 .0221737
1066.421 .0221604
1067.001 .0221441
1067.581 .0221278
1068.161 .0221123
1068.741 .0220965
1069.321 .0220804
1069.901 .0220647
1070.482 .0220494
1071.062 .0220346
1071.642 .0220213
1072.222 .0220085
1072.803 .0219975
1073.383 .0219904
1073.963 .0219855
1074.544 .0219829
1075.124 .0219837
1075.705 .0219865
1076.286 .0219933
1076.866 .0220049
1077.447 .0220194
1078.028 .0220354
1078.609 .0220535
1079.190 .0220716
1079.771 .0220889
1080.352 .0221045
1080.934 .0221183
1081.515 .0221314
1082.097 .0221478
1082.679 .0221664
1083.260 .0221886
1083.842 .0222166
1084.424 .0222502
1085.007 .0222859
1085.589 .0223213
1086.172 .0223531
1086.754 .0223801
1087.337 .0224016
1087.920 .0224177
1088.503 .0224291
1089.087 .0224379
1089.670 .0224445
1090.254 .0224495
1090.838 .0224520
1091.422 .0224533
1092.006 .0224493
1092.590 .0224406
1093.175 .0224268
1093.760 .0224088
1094.345 .0223863
1094.930 .0223613
1095.516 .0223380
1096.102 .0223171
1096.688 .0222994
1097.274 .0222857
1097.860 .0222749
1098.447 .0222669
1099.034 .0222612
1099.622 .0222560
1100.209 .0222519
1100.797 .0222506
1101.385 .0222507
1101.973 .0222534
1102.562 .0222599
1103.151 .0222685
1103.740 .0222786
1104.330 .0222901
1104.920 .0223018
1105.510 .0223101
1106.101 .0223163
1106.691 .0223178
1107.283 .0223157
1107.874 .0223122
1108.466 .0223063
1109.058 .0222982
1109.651 .0222918
1110.244 .0222875
1110.837 .0222849
1111.431 .0222857
1112.025 .0222894
1112.620 .0222937
1113.215 .0223007
1113.810 .0223073
1114.406 .0223153
1115.002 .0223261
1115.599 .0223402
1116.196 .0223525
1116.793 .0223659
1117.391 .0223793
1117.989 .0223880
1118.588 .0223931
1119.187 .0223942
1119.787 .0223875
1120.387 .0223749
1120.988 .0223578
1121.589 .0223362
1122.190 .0223139
1122.793 .0222937
1123.395 .0222740
1123.998 .0222600
1124.602 .0222519
1125.206 .0222476
1125.811 .0222486
1126.416 .0222567
1127.022 .0222700
1127.628 .0222853
1128.235 .0223090
1128.843 .0223369
1129.451 .0223724
1130.059 .0224165
1130.669 .0224668
1131.278 .0225261
1131.889 .0225895
1132.500 .0226528
1133.112 .0227166
1133.724 .0227797
1134.337 .0228394
1134.950 .0228909
1135.564 .0229401
1136.179 .0229835
1136.795 .0230251
1137.411 .0230666
1138.028 .0231105
1138.645 .0231607
1139.263 .0232146
1139.882 .0232671
1140.502 .0233248
1141.122 .0233786
1141.743 .0234392
1142.365 .0235069
1142.987 .0234508
1143.611 .0236536
1144.235 .0235246
1144.859 .0238604
1145.485 .0241133
