Measurement Sequence started on: 10-20-44-796
Integration time: 35
Scans to Average: 2 
>>>>>Begin Spectral Data<<<<<
432.953 .0411466
433.882 .0376179
434.810 .0345438
435.737 .0330426
436.662 .0316281
437.586 .0326647
438.509 .0319989
439.431 .0316041
440.351 .0313904
441.269 .0312732
442.187 .0312223
443.103 .0311932
444.018 .0312092
444.932 .0312351
445.844 .0312567
446.756 .0312870
447.666 .0313069
448.575 .0313109
449.482 .0312969
450.388 .0312783
451.294 .0312528
452.198 .0312339
453.100 .0312206
454.002 .0312277
454.902 .0312500
455.801 .0312792
456.699 .0313044
457.596 .0313264
458.492 .0313376
459.387 .0313314
460.280 .0313123
461.172 .0312851
462.064 .0312486
462.954 .0312111
463.843 .0311785
464.730 .0311579
465.617 .0311445
466.503 .0311382
467.387 .0311299
468.271 .0311155
469.153 .0310921
470.035 .0310558
470.915 .0310116
471.794 .0309633
472.673 .0309138
473.550 .0308702
474.426 .0308381
475.301 .0308197
476.175 .0308143
477.048 .0308197
477.920 .0308311
478.791 .0308437
479.661 .0308521
480.530 .0308543
481.398 .0308497
482.266 .0308430
483.132 .0308358
483.997 .0308280
484.861 .0308196
485.724 .0308118
486.587 .0308060
487.448 .0307987
488.308 .0307866
489.168 .0307726
490.026 .0307539
490.884 .0307321
491.741 .0307086
492.597 .0306842
493.452 .0306601
494.306 .0306362
495.159 .0306098
496.011 .0305769
496.862 .0305354
497.713 .0304846
498.562 .0304225
499.411 .0303561
500.259 .0302846
501.106 .0302103
501.952 .0301367
502.798 .0300647
503.642 .0299912
504.486 .0299156
505.329 .0298339
506.171 .0297456
507.012 .0296515
507.852 .0295519
508.692 .0294498
509.531 .0293476
510.369 .0292517
511.206 .0291665
512.043 .0290886
512.878 .0290151
513.713 .0289417
514.547 .0288680
515.381 .0287827
516.213 .0286831
517.045 .0285700
517.876 .0284387
518.706 .0282918
519.536 .0281333
520.365 .0279612
521.193 .0277821
522.020 .0275974
522.847 .0274036
523.673 .0272052
524.498 .0270044
525.323 .0267916
526.146 .0265772
526.969 .0263717
527.792 .0261755
528.614 .0259823
529.435 .0258107
530.255 .0256605
531.075 .0255299
531.894 .0254215
532.712 .0253318
533.530 .0252538
534.347 .0251924
535.163 .0251319
535.979 .0250790
536.794 .0250367
537.608 .0250107
538.422 .0249910
539.235 .0249826
540.048 .0249826
540.860 .0249867
541.671 .0249922
542.481 .0250086
543.292 .0250240
544.101 .0250455
544.910 .0250692
545.718 .0250995
546.526 .0251358
547.333 .0251817
548.139 .0252318
548.945 .0252852
549.750 .0253388
550.555 .0253913
551.359 .0254409
552.162 .0254915
552.965 .0255425
553.768 .0255905
554.569 .0256360
555.371 .0256765
556.171 .0257082
556.972 .0257385
557.771 .0257659
558.570 .0257940
559.369 .0258253
560.167 .0258620
560.964 .0259035
561.761 .0259487
562.558 .0260037
563.354 .0260635
564.149 .0261287
564.944 .0261977
565.738 .0262686
566.532 .0263419
567.325 .0264163
568.118 .0264932
568.910 .0265724
569.702 .0266574
570.494 .0267466
571.285 .0268368
572.075 .0269329
572.865 .0270290
573.654 .0271273
574.443 .0272250
575.232 .0273206
576.020 .0274090
576.807 .0274912
577.594 .0275660
578.381 .0276342
579.167 .0276950
579.952 .0277529
580.738 .0278100
581.522 .0278685
582.307 .0279295
583.091 .0279924
583.874 .0280576
584.657 .0281235
585.440 .0281857
586.222 .0282440
587.004 .0282953
587.785 .0283415
588.566 .0283821
589.346 .0284172
590.126 .0284486
590.906 .0284762
591.685 .0285014
592.464 .0285236
593.242 .0285423
594.020 .0285565
594.797 .0285667
595.575 .0285724
596.351 .0285742
597.128 .0285718
597.904 .0285664
598.679 .0285598
599.454 .0285523
600.229 .0285448
601.004 .0285376
601.778 .0285308
602.551 .0285249
603.325 .0285197
604.097 .0285156
604.870 .0285117
605.642 .0285085
606.414 .0285058
607.185 .0285030
607.956 .0285010
608.727 .0284995
609.497 .0284982
610.267 .0284967
611.037 .0284949
611.806 .0284917
612.575 .0284870
613.344 .0284805
614.112 .0284722
614.880 .0284620
615.647 .0284506
616.414 .0284372
617.181 .0284230
617.948 .0284081
618.714 .0283927
619.480 .0283771
620.245 .0283618
621.011 .0283460
621.775 .0283300
622.540 .0283145
623.304 .0282997
624.068 .0282854
624.832 .0282724
625.595 .0282606
626.358 .0282500
627.120 .0282401
627.883 .0282299
628.645 .0282194
629.406 .0282094
630.168 .0281985
630.929 .0281872
631.689 .0281758
632.450 .0281640
633.210 .0281522
633.970 .0281396
634.729 .0281265
635.489 .0281122
636.248 .0280962
637.006 .0280784
637.765 .0280580
638.523 .0280360
639.280 .0280122
640.038 .0279875
640.795 .0279630
641.552 .0279383
642.309 .0279139
643.065 .0278900
643.821 .0278667
644.577 .0278434
645.332 .0278197
646.088 .0277955
646.843 .0277718
647.597 .0277483
648.352 .0277253
649.106 .0277042
649.860 .0276858
650.613 .0276702
651.367 .0276564
652.120 .0276448
652.872 .0276348
653.625 .0276261
654.377 .0276183
655.129 .0276106
655.881 .0276036
656.632 .0275973
657.384 .0275915
658.135 .0275863
658.885 .0275814
659.636 .0275763
660.386 .0275706
661.136 .0275643
661.885 .0275568
662.635 .0275485
663.384 .0275402
664.133 .0275321
664.881 .0275243
665.630 .0275167
666.378 .0275091
667.126 .0275016
667.874 .0274937
668.621 .0274848
669.368 .0274745
670.115 .0274636
670.862 .0274529
671.608 .0274429
672.354 .0274342
673.100 .0274272
673.846 .0274224
674.591 .0274193
675.337 .0274168
676.082 .0274140
676.826 .0274108
677.571 .0274064
678.315 .0274006
679.059 .0273936
679.803 .0273860
680.547 .0273785
681.290 .0273715
682.033 .0273648
682.776 .0273587
683.518 .0273529
684.261 .0273464
685.003 .0273395
685.745 .0273316
686.487 .0273220
687.228 .0273109
687.969 .0272983
688.710 .0272836
689.451 .0272675
690.192 .0272500
690.932 .0272313
691.672 .0272119
692.412 .0271925
693.152 .0271731
693.891 .0271542
694.630 .0271364
695.369 .0271190
696.108 .0271021
696.846 .0270861
697.585 .0270697
698.323 .0270531
699.061 .0270366
699.798 .0270202
700.536 .0270038
701.273 .0269881
702.010 .0269734
702.746 .0269593
703.483 .0269464
704.219 .0269345
704.955 .0269225
705.691 .0269104
706.427 .0268979
707.162 .0268847
707.897 .0268707
708.632 .0268558
709.367 .0268399
710.101 .0268234
710.835 .0268064
711.569 .0267882
712.303 .0267687
713.037 .0267487
713.770 .0267284
714.503 .0267076
715.236 .0266871
715.969 .0266668
716.702 .0266467
717.434 .0266271
718.166 .0266077
718.898 .0265876
719.629 .0265669
720.361 .0265458
721.092 .0265239
721.823 .0265018
722.554 .0264800
723.284 .0264590
724.014 .0264393
724.744 .0264211
725.474 .0264031
726.204 .0263853
726.933 .0263679
727.662 .0263498
728.391 .0263311
729.120 .0263117
729.849 .0262915
730.577 .0262715
731.305 .0262517
732.033 .0262326
732.760 .0262143
733.488 .0261969
734.215 .0261795
734.942 .0261619
735.669 .0261439
736.395 .0261250
737.122 .0261058
737.848 .0260871
738.573 .0260689
739.299 .0260514
740.024 .0260352
740.750 .0260205
741.474 .0260075
742.199 .0259958
742.924 .0259846
743.648 .0259743
744.372 .0259642
745.096 .0259544
745.819 .0259445
746.543 .0259353
747.266 .0259272
747.989 .0259201
748.711 .0259140
749.434 .0259085
750.156 .0259035
750.878 .0258991
751.599 .0258946
752.321 .0258906
753.042 .0258870
753.763 .0258838
754.484 .0258813
755.205 .0258794
755.925 .0258781
756.645 .0258771
757.365 .0258757
758.085 .0258736
758.804 .0258698
759.523 .0258642
760.242 .0258566
760.961 .0258474
761.679 .0258371
762.397 .0258259
763.115 .0258142
763.833 .0258021
764.551 .0257898
765.268 .0257770
765.985 .0257634
766.702 .0257489
767.418 .0257333
768.134 .0257165
768.850 .0256981
769.566 .0256790
770.282 .0256596
770.997 .0256406
771.712 .0256222
772.427 .0256047
773.142 .0255885
773.856 .0255736
774.570 .0255593
775.284 .0255453
775.998 .0255315
776.711 .0255174
777.424 .0255025
778.137 .0254869
778.849 .0254707
779.562 .0254547
780.274 .0254394
780.986 .0254252
781.697 .0254117
782.409 .0253999
783.120 .0253894
783.831 .0253798
784.541 .0253711
785.252 .0253628
785.962 .0253550
786.671 .0253478
787.381 .0253408
788.090 .0253343
788.799 .0253283
789.508 .0253227
790.217 .0253166
790.925 .0253102
791.633 .0253033
792.341 .0252957
793.048 .0252878
793.755 .0252799
794.462 .0252720
795.169 .0252642
795.875 .0252567
796.581 .0252491
797.287 .0252411
797.993 .0252322
798.698 .0252223
799.403 .0252113
800.108 .0251991
800.812 .0251863
801.517 .0251733
802.221 .0251605
802.924 .0251485
803.628 .0251369
804.331 .0251259
805.034 .0251151
805.736 .0251044
806.439 .0250930
807.141 .0250811
807.843 .0250689
808.544 .0250559
809.245 .0250423
809.946 .0250279
810.647 .0250132
811.347 .0249981
812.047 .0249827
812.747 .0249669
813.447 .0249507
814.146 .0249346
814.845 .0249189
815.543 .0249032
816.242 .0248879
816.940 .0248727
817.638 .0248580
818.335 .0248429
819.032 .0248273
819.729 .0248111
820.426 .0247945
821.122 .0247774
821.818 .0247600
822.514 .0247422
823.209 .0247248
823.905 .0247077
824.599 .0246904
825.294 .0246733
825.988 .0246562
826.682 .0246387
827.376 .0246208
828.069 .0246019
828.762 .0245823
829.455 .0245615
830.147 .0245405
830.840 .0245190
831.531 .0244975
832.223 .0244766
832.914 .0244567
833.605 .0244376
834.296 .0244200
834.986 .0244034
835.676 .0243880
836.366 .0243734
837.055 .0243593
837.744 .0243449
838.433 .0243298
839.121 .0243144
839.809 .0242986
840.497 .0242819
841.185 .0242656
841.872 .0242496
842.559 .0242345
843.245 .0242205
843.932 .0242074
844.617 .0241952
845.303 .0241841
845.988 .0241728
846.673 .0241605
847.358 .0241477
848.042 .0241345
848.726 .0241209
849.410 .0241072
850.093 .0240942
850.776 .0240817
851.459 .0240706
852.141 .0240607
852.823 .0240512
853.505 .0240425
854.186 .0240336
854.867 .0240241
855.548 .0240139
856.228 .0240025
856.908 .0239904
857.588 .0239781
858.267 .0239662
858.946 .0239545
859.625 .0239435
860.303 .0239336
860.981 .0239247
861.659 .0239166
862.336 .0239088
863.013 .0239011
863.690 .0238935
864.366 .0238858
865.042 .0238772
865.718 .0238685
866.393 .0238594
867.068 .0238502
867.743 .0238413
868.417 .0238326
869.091 .0238245
869.765 .0238165
870.438 .0238087
871.111 .0238010
871.783 .0237927
872.456 .0237840
873.127 .0237745
873.799 .0237646
874.470 .0237543
875.141 .0237434
875.811 .0237324
876.481 .0237218
877.151 .0237116
877.820 .0237019
878.489 .0236922
879.158 .0236828
879.826 .0236736
880.494 .0236645
881.162 .0236555
881.829 .0236467
882.496 .0236382
883.163 .0236302
883.829 .0236226
884.495 .0236159
885.160 .0236108
885.825 .0236074
886.490 .0236060
887.154 .0236066
887.818 .0236087
888.482 .0236120
889.145 .0236159
889.808 .0236200
890.471 .0236239
891.133 .0236269
891.795 .0236285
892.456 .0236291
893.117 .0236289
893.778 .0236279
894.439 .0236264
895.099 .0236245
895.758 .0236222
896.417 .0236189
897.076 .0236148
897.735 .0236101
898.393 .0236048
899.051 .0235994
899.708 .0235938
900.365 .0235887
901.022 .0235844
901.678 .0235808
902.334 .0235780
902.990 .0235761
903.645 .0235745
904.300 .0235732
904.954 .0235722
905.608 .0235712
906.262 .0235704
906.915 .0235698
907.568 .0235691
908.221 .0235682
908.873 .0235670
909.525 .0235651
910.176 .0235623
910.828 .0235590
911.478 .0235550
912.129 .0235501
912.778 .0235451
913.428 .0235398
914.077 .0235344
914.726 .0235287
915.375 .0235231
916.023 .0235175
916.670 .0235123
917.318 .0235068
917.964 .0235013
918.611 .0234960
919.257 .0234905
919.903 .0234848
920.548 .0234788
921.193 .0234730
921.838 .0234673
922.482 .0234618
923.126 .0234569
923.770 .0234526
924.413 .0234490
925.056 .0234461
925.698 .0234441
926.340 .0234425
926.982 .0234410
927.623 .0234392
928.264 .0234371
928.904 .0234343
929.544 .0234308
930.184 .0234267
930.823 .0234218
931.462 .0234160
932.101 .0234092
932.739 .0234013
933.377 .0233924
934.014 .0233822
934.651 .0233708
935.288 .0233581
935.924 .0233445
936.560 .0233302
937.196 .0233155
937.831 .0233005
938.466 .0232855
939.100 .0232707
939.734 .0232559
940.368 .0232411
941.001 .0232264
941.634 .0232120
942.266 .0231977
942.899 .0231838
943.530 .0231694
944.162 .0231549
944.793 .0231405
945.423 .0231254
946.053 .0231099
946.683 .0230944
947.313 .0230781
947.942 .0230612
948.571 .0230434
949.199 .0230243
949.827 .0230040
950.455 .0229827
951.082 .0229604
951.709 .0229373
952.335 .0229140
952.961 .0228908
953.587 .0228681
954.212 .0228470
954.837 .0228269
955.462 .0228078
956.086 .0227907
956.710 .0227750
957.334 .0227599
957.957 .0227458
958.579 .0227319
959.202 .0227179
959.824 .0227036
960.445 .0226888
961.067 .0226739
961.688 .0226589
962.308 .0226443
962.928 .0226295
963.548 .0226149
964.168 .0226005
964.787 .0225854
965.406 .0225700
966.024 .0225538
966.642 .0225363
967.260 .0225179
967.877 .0224987
968.494 .0224793
969.110 .0224595
969.727 .0224401
970.342 .0224214
970.958 .0224038
971.573 .0223872
972.188 .0223720
972.802 .0223579
973.416 .0223451
974.030 .0223331
974.643 .0223215
975.256 .0223100
975.869 .0222989
976.481 .0222879
977.093 .0222769
977.705 .0222666
978.316 .0222580
978.927 .0222502
979.538 .0222445
980.148 .0222402
980.758 .0222369
981.367 .0222340
981.977 .0222311
982.586 .0222276
983.194 .0222233
983.802 .0222182
984.410 .0222119
985.018 .0222050
985.625 .0221987
986.232 .0221923
986.838 .0221866
987.445 .0221819
988.050 .0221771
988.656 .0221717
989.261 .0221657
989.866 .0221581
990.471 .0221494
991.075 .0221397
991.679 .0221291
992.282 .0221180
992.886 .0221069
993.489 .0220962
994.091 .0220860
994.694 .0220763
995.296 .0220663
995.897 .0220552
996.499 .0220431
997.100 .0220294
997.701 .0220146
998.301 .0219996
998.901 .0219847
999.501 .0219703
1000.101 .0219573
1000.700 .0219463
1001.299 .0219371
1001.898 .0219297
1002.496 .0219234
1003.094 .0219181
1003.692 .0219133
1004.289 .0219086
1004.887 .0219042
1005.484 .0219006
1006.080 .0218975
1006.677 .0218952
1007.273 .0218936
1007.868 .0218932
1008.464 .0218934
1009.059 .0218943
1009.654 .0218954
1010.249 .0218965
1010.843 .0218972
1011.437 .0218979
1012.031 .0218983
1012.625 .0218992
1013.218 .0218999
1013.811 .0219011
1014.404 .0219030
1014.997 .0219057
1015.589 .0219088
1016.181 .0219126
1016.773 .0219168
1017.365 .0219217
1017.956 .0219257
1018.547 .0219291
1019.138 .0219314
1019.728 .0219328
1020.319 .0219330
1020.909 .0219322
1021.499 .0219304
1022.088 .0219284
1022.678 .0219254
1023.267 .0219224
1023.856 .0219192
1024.445 .0219159
1025.033 .0219120
1025.621 .0219079
1026.209 .0219034
1026.797 .0218985
1027.385 .0218928
1027.972 .0218880
1028.560 .0218841
1029.147 .0218817
1029.734 .0218808
1030.320 .0218818
1030.907 .0218848
1031.493 .0218888
1032.079 .0218938
1032.665 .0218997
1033.250 .0219056
1033.836 .0219114
1034.421 .0219157
1035.006 .0219190
1035.591 .0219216
1036.176 .0219232
1036.761 .0219242
1037.345 .0219246
1037.929 .0219248
1038.514 .0219242
1039.097 .0219240
1039.681 .0219247
1040.265 .0219265
1040.848 .0219291
1041.432 .0219327
1042.015 .0219362
1042.598 .0219400
1043.181 .0219440
1043.764 .0219475
1044.346 .0219516
1044.929 .0219561
1045.511 .0219607
1046.094 .0219659
1046.676 .0219718
1047.258 .0219785
1047.840 .0219854
1048.422 .0219923
1049.003 .0219973
1049.585 .0219999
1050.166 .0220006
1050.748 .0219993
1051.329 .0219962
1051.910 .0219923
1052.491 .0219884
1053.072 .0219852
1053.653 .0219834
1054.234 .0219831
1054.815 .0219852
1055.396 .0219903
1055.976 .0219974
1056.557 .0220062
1057.138 .0220152
1057.718 .0220249
1058.298 .0220347
1058.879 .0220445
1059.459 .0220538
1060.039 .0220626
1060.620 .0220699
1061.200 .0220768
1061.780 .0220827
1062.360 .0220868
1062.940 .0220891
1063.520 .0220897
1064.101 .0220879
1064.681 .0220831
1065.261 .0220746
1065.841 .0220642
1066.421 .0220523
1067.001 .0220404
1067.581 .0220277
1068.161 .0220157
1068.741 .0220058
1069.321 .0219987
1069.901 .0219939
1070.482 .0219911
1071.062 .0219902
1071.642 .0219912
1072.222 .0219926
1072.803 .0219933
1073.383 .0219933
1073.963 .0219938
1074.544 .0219948
1075.124 .0219965
1075.705 .0219983
1076.286 .0220011
1076.866 .0220056
1077.447 .0220105
1078.028 .0220144
1078.609 .0220175
1079.190 .0220193
1079.771 .0220181
1080.352 .0220151
1080.934 .0220113
1081.515 .0220070
1082.097 .0220054
1082.679 .0220082
1083.260 .0220144
1083.842 .0220243
1084.424 .0220364
1085.007 .0220504
1085.589 .0220644
1086.172 .0220772
1086.754 .0220879
1087.337 .0220973
1087.920 .0221086
1088.503 .0221203
1089.087 .0221341
1089.670 .0221517
1090.254 .0221725
1090.838 .0221942
1091.422 .0222156
1092.006 .0222355
1092.590 .0222520
1093.175 .0222654
1093.760 .0222749
1094.345 .0222815
1094.930 .0222856
1095.516 .0222882
1096.102 .0222895
1096.688 .0222893
1097.274 .0222878
1097.860 .0222810
1098.447 .0222723
1099.034 .0222600
1099.622 .0222434
1100.209 .0222248
1100.797 .0222051
1101.385 .0221852
1101.973 .0221643
1102.562 .0221433
1103.151 .0221212
1103.740 .0220979
1104.330 .0220745
1104.920 .0220487
1105.510 .0220242
1106.101 .0220033
1106.691 .0219874
1107.283 .0219775
1107.874 .0219764
1108.466 .0219820
1109.058 .0219925
1109.651 .0220090
1110.244 .0220295
1110.837 .0220512
1111.431 .0220750
1112.025 .0220998
1112.620 .0221270
1113.215 .0221553
1113.810 .0221869
1114.406 .0222202
1115.002 .0222562
1115.599 .0222896
1116.196 .0223170
1116.793 .0223345
1117.391 .0223432
1117.989 .0223407
1118.588 .0223296
1119.187 .0223106
1119.787 .0222865
1120.387 .0222559
1120.988 .0222227
1121.589 .0221875
1122.190 .0221497
1122.793 .0221077
1123.395 .0220656
1123.998 .0220209
1124.602 .0219785
1125.206 .0219398
1125.811 .0219124
1126.416 .0218965
1127.022 .0218939
1127.628 .0219015
1128.235 .0219171
1128.843 .0219381
1129.451 .0219621
1130.059 .0219845
1130.669 .0220074
1131.278 .0220314
1131.889 .0220555
1132.500 .0220815
1133.112 .0221169
1133.724 .0221615
1134.337 .0222157
1134.950 .0222749
1135.564 .0223392
1136.179 .0223988
1136.795 .0224523
1137.411 .0224999
1138.028 .0225401
1138.645 .0225800
1139.263 .0226226
1139.882 .0226660
1140.502 .0227233
1141.122 .0227808
1141.743 .0228366
1142.365 .0228995
1142.987 .0229607
1143.611 .0232540
1144.235 .0229738
1144.859 .0228293
1145.485 .0232711
