Measurement Sequence started on: 10-20-44-796
Integration time: 35
Scans to Average: 2 
>>>>>Begin Spectral Data<<<<<
432.953 .0475362
433.882 .0414166
434.810 .0397852
435.737 .0403166
436.662 .0399532
437.586 .0396570
438.509 .0391106
439.431 .0388271
440.351 .0386295
441.269 .0384615
442.187 .0383419
443.103 .0382658
444.018 .0382122
444.932 .0381574
445.844 .0380988
446.756 .0380230
447.666 .0379422
448.575 .0378574
449.482 .0377720
450.388 .0376978
451.294 .0376337
452.198 .0375784
453.100 .0375253
454.002 .0374877
454.902 .0374413
455.801 .0374006
456.699 .0373677
457.596 .0373434
458.492 .0373167
459.387 .0372977
460.280 .0372756
461.172 .0372500
462.064 .0372264
462.954 .0371950
463.843 .0371603
464.730 .0371318
465.617 .0371055
466.503 .0370755
467.387 .0370426
468.271 .0370025
469.153 .0369519
470.035 .0368885
470.915 .0368106
471.794 .0367155
472.673 .0366131
473.550 .0365079
474.426 .0364016
475.301 .0363027
476.175 .0362148
477.048 .0361342
477.920 .0360628
478.791 .0359931
479.661 .0359196
480.530 .0358439
481.398 .0357655
482.266 .0356874
483.132 .0356130
483.997 .0355399
484.861 .0354765
485.724 .0354265
486.587 .0353883
487.448 .0353579
488.308 .0353356
489.168 .0353202
490.026 .0353038
490.884 .0352866
491.741 .0352675
492.597 .0352464
493.452 .0352257
494.306 .0352082
495.159 .0351930
496.011 .0351827
496.862 .0351730
497.713 .0351615
498.562 .0351482
499.411 .0351266
500.259 .0350944
501.106 .0350506
501.952 .0349973
502.798 .0349343
503.642 .0348592
504.486 .0347762
505.329 .0346852
506.171 .0345873
507.012 .0344809
507.852 .0343680
508.692 .0342477
509.531 .0341182
510.369 .0339837
511.206 .0338494
512.043 .0337180
512.878 .0335900
513.713 .0334664
514.547 .0333458
515.381 .0332255
516.213 .0331025
517.045 .0329693
517.876 .0328324
518.706 .0326898
519.536 .0325445
520.365 .0323992
521.193 .0322601
522.020 .0321285
522.847 .0320049
523.673 .0318894
524.498 .0317730
525.323 .0316446
526.146 .0315030
526.969 .0313468
527.792 .0311808
528.614 .0310009
529.435 .0308182
530.255 .0306398
531.075 .0304756
531.894 .0303236
532.712 .0301851
533.530 .0300585
534.347 .0299383
535.163 .0298182
535.979 .0296994
536.794 .0295811
537.608 .0294722
538.422 .0293804
539.235 .0293125
540.048 .0292614
540.860 .0292313
541.671 .0292150
542.481 .0292125
543.292 .0292194
544.101 .0292301
544.910 .0292427
545.718 .0292681
546.526 .0293097
547.333 .0293644
548.139 .0294335
548.945 .0295213
549.750 .0296097
550.555 .0296939
551.359 .0297675
552.162 .0298207
552.965 .0298593
553.768 .0298874
554.569 .0299085
555.371 .0299291
556.171 .0299591
556.972 .0299996
557.771 .0300500
558.570 .0301134
559.369 .0301779
560.167 .0302385
560.964 .0302972
561.761 .0303492
562.558 .0303970
563.354 .0304503
564.149 .0305112
564.944 .0305822
565.738 .0306685
566.532 .0307645
567.325 .0308685
568.118 .0309760
568.910 .0310828
569.702 .0311826
570.494 .0312749
571.285 .0313583
572.075 .0314321
572.865 .0314996
573.654 .0315608
574.443 .0316150
575.232 .0316658
576.020 .0317113
576.807 .0317543
577.594 .0317945
578.381 .0318339
579.167 .0318718
579.952 .0319108
580.738 .0319508
581.522 .0319911
582.307 .0320322
583.091 .0320744
583.874 .0321164
584.657 .0321579
585.440 .0321995
586.222 .0322404
587.004 .0322807
587.785 .0323210
588.566 .0323598
589.346 .0323965
590.126 .0324296
590.906 .0324573
591.685 .0324795
592.464 .0324950
593.242 .0325049
594.020 .0325087
594.797 .0325086
595.575 .0325056
596.351 .0325006
597.128 .0324937
597.904 .0324860
598.679 .0324768
599.454 .0324657
600.229 .0324528
601.004 .0324383
601.778 .0324223
602.551 .0324051
603.325 .0323872
604.097 .0323695
604.870 .0323511
605.642 .0323335
606.414 .0323148
607.185 .0322966
607.956 .0322781
608.727 .0322584
609.497 .0322385
610.267 .0322191
611.037 .0321992
611.806 .0321794
612.575 .0321589
613.344 .0321374
614.112 .0321141
614.880 .0320888
615.647 .0320608
616.414 .0320309
617.181 .0320003
617.948 .0319696
618.714 .0319395
619.480 .0319117
620.245 .0318847
621.011 .0318589
621.775 .0318343
622.540 .0318095
623.304 .0317851
624.068 .0317609
624.832 .0317368
625.595 .0317137
626.358 .0316923
627.120 .0316729
627.883 .0316555
628.645 .0316407
629.406 .0316275
630.168 .0316145
630.929 .0316023
631.689 .0315896
632.450 .0315759
633.210 .0315626
633.970 .0315494
634.729 .0315362
635.489 .0315225
636.248 .0315084
637.006 .0314933
637.765 .0314773
638.523 .0314605
639.280 .0314424
640.038 .0314234
640.795 .0314041
641.552 .0313841
642.309 .0313641
643.065 .0313450
643.821 .0313270
644.577 .0313097
645.332 .0312936
646.088 .0312780
646.843 .0312629
647.597 .0312481
648.352 .0312339
649.106 .0312196
649.860 .0312046
650.613 .0311891
651.367 .0311730
652.120 .0311565
652.872 .0311399
653.625 .0311234
654.377 .0311078
655.129 .0310931
655.881 .0310786
656.632 .0310632
657.384 .0310475
658.135 .0310308
658.885 .0310119
659.636 .0309913
660.386 .0309695
661.136 .0309470
661.885 .0309243
662.635 .0309026
663.384 .0308821
664.133 .0308631
664.881 .0308456
665.630 .0308286
666.378 .0308118
667.126 .0307942
667.874 .0307750
668.621 .0307548
669.368 .0307335
670.115 .0307119
670.862 .0306904
671.608 .0306704
672.354 .0306522
673.100 .0306355
673.846 .0306199
674.591 .0306053
675.337 .0305911
676.082 .0305767
676.826 .0305609
677.571 .0305442
678.315 .0305264
679.059 .0305079
679.803 .0304890
680.547 .0304705
681.290 .0304519
682.033 .0304338
682.776 .0304153
683.518 .0303969
684.261 .0303782
685.003 .0303589
685.745 .0303388
686.487 .0303186
687.228 .0302977
687.969 .0302766
688.710 .0302554
689.451 .0302346
690.192 .0302137
690.932 .0301934
691.672 .0301732
692.412 .0301534
693.152 .0301340
693.891 .0301151
694.630 .0300958
695.369 .0300766
696.108 .0300562
696.846 .0300352
697.585 .0300135
698.323 .0299914
699.061 .0299689
699.798 .0299461
700.536 .0299237
701.273 .0299017
702.010 .0298802
702.746 .0298589
703.483 .0298376
704.219 .0298163
704.955 .0297941
705.691 .0297717
706.427 .0297485
707.162 .0297255
707.897 .0297031
708.632 .0296811
709.367 .0296592
710.101 .0296371
710.835 .0296148
711.569 .0295923
712.303 .0295686
713.037 .0295440
713.770 .0295179
714.503 .0294917
715.236 .0294649
715.969 .0294382
716.702 .0294122
717.434 .0293876
718.166 .0293633
718.898 .0293398
719.629 .0293161
720.361 .0292930
721.092 .0292702
721.823 .0292475
722.554 .0292248
723.284 .0292024
724.014 .0291794
724.744 .0291569
725.474 .0291336
726.204 .0291108
726.933 .0290875
727.662 .0290646
728.391 .0290418
729.120 .0290190
729.849 .0289968
730.577 .0289755
731.305 .0289552
732.033 .0289356
732.760 .0289158
733.488 .0288963
734.215 .0288772
734.942 .0288587
735.669 .0288404
736.395 .0288231
737.122 .0288064
737.848 .0287906
738.573 .0287750
739.299 .0287597
740.024 .0287443
740.750 .0287289
741.474 .0287133
742.199 .0286967
742.924 .0286795
743.648 .0286623
744.372 .0286454
745.096 .0286295
745.819 .0286140
746.543 .0285993
747.266 .0285856
747.989 .0285729
748.711 .0285605
749.434 .0285488
750.156 .0285381
750.878 .0285282
751.599 .0285195
752.321 .0285122
753.042 .0285060
753.763 .0285013
754.484 .0284977
755.205 .0284945
755.925 .0284913
756.645 .0284878
757.365 .0284827
758.085 .0284764
758.804 .0284686
759.523 .0284592
760.242 .0284484
760.961 .0284370
761.679 .0284246
762.397 .0284116
763.115 .0283980
763.833 .0283831
764.551 .0283669
765.268 .0283494
765.985 .0283299
766.702 .0283084
767.418 .0282855
768.134 .0282617
768.850 .0282372
769.566 .0282133
770.282 .0281898
770.997 .0281669
771.712 .0281452
772.427 .0281242
773.142 .0281040
773.856 .0280847
774.570 .0280659
775.284 .0280477
775.998 .0280302
776.711 .0280131
777.424 .0279969
778.137 .0279815
778.849 .0279672
779.562 .0279535
780.274 .0279404
780.986 .0279280
781.697 .0279161
782.409 .0279048
783.120 .0278939
783.831 .0278833
784.541 .0278727
785.252 .0278622
785.962 .0278516
786.671 .0278406
787.381 .0278288
788.090 .0278167
788.799 .0278040
789.508 .0277908
790.217 .0277776
790.925 .0277647
791.633 .0277525
792.341 .0277407
793.048 .0277290
793.755 .0277173
794.462 .0277056
795.169 .0276942
795.875 .0276822
796.581 .0276705
797.287 .0276590
797.993 .0276476
798.698 .0276368
799.403 .0276269
800.108 .0276174
800.812 .0276082
801.517 .0275989
802.221 .0275890
802.924 .0275781
803.628 .0275665
804.331 .0275539
805.034 .0275410
805.736 .0275278
806.439 .0275145
807.141 .0275012
807.843 .0274880
808.544 .0274746
809.245 .0274608
809.946 .0274463
810.647 .0274310
811.347 .0274153
812.047 .0273996
812.747 .0273842
813.447 .0273696
814.146 .0273557
814.845 .0273430
815.543 .0273310
816.242 .0273195
816.940 .0273085
817.638 .0272972
818.335 .0272857
819.032 .0272732
819.729 .0272602
820.426 .0272463
821.122 .0272313
821.818 .0272152
822.514 .0271984
823.209 .0271807
823.905 .0271621
824.599 .0271428
825.294 .0271230
825.988 .0271022
826.682 .0270807
827.376 .0270582
828.069 .0270354
828.762 .0270117
829.455 .0269876
830.147 .0269629
830.840 .0269382
831.531 .0269131
832.223 .0268885
832.914 .0268644
833.605 .0268411
834.296 .0268184
834.986 .0267966
835.676 .0267760
836.366 .0267565
837.055 .0267380
837.744 .0267211
838.433 .0267053
839.121 .0266911
839.809 .0266777
840.497 .0266660
841.185 .0266559
841.872 .0266469
842.559 .0266386
843.245 .0266312
843.932 .0266239
844.617 .0266167
845.303 .0266093
845.988 .0266016
846.673 .0265931
847.358 .0265839
848.042 .0265736
848.726 .0265622
849.410 .0265498
850.093 .0265363
850.776 .0265216
851.459 .0265061
852.141 .0264891
852.823 .0264708
853.505 .0264519
854.186 .0264324
854.867 .0264128
855.548 .0263933
856.228 .0263747
856.908 .0263568
857.588 .0263403
858.267 .0263249
858.946 .0263101
859.625 .0262961
860.303 .0262830
860.981 .0262702
861.659 .0262582
862.336 .0262469
863.013 .0262362
863.690 .0262264
864.366 .0262173
865.042 .0262083
865.718 .0261997
866.393 .0261913
867.068 .0261825
867.743 .0261728
868.417 .0261626
869.091 .0261515
869.765 .0261397
870.438 .0261270
871.111 .0261136
871.783 .0260994
872.456 .0260844
873.127 .0260687
873.799 .0260531
874.470 .0260371
875.141 .0260215
875.811 .0260061
876.481 .0259913
877.151 .0259770
877.820 .0259632
878.489 .0259499
879.158 .0259373
879.826 .0259253
880.494 .0259140
881.162 .0259035
881.829 .0258945
882.496 .0258867
883.163 .0258801
883.829 .0258747
884.495 .0258701
885.160 .0258661
885.825 .0258626
886.490 .0258590
887.154 .0258554
887.818 .0258521
888.482 .0258488
889.145 .0258452
889.808 .0258421
890.471 .0258389
891.133 .0258354
891.795 .0258318
892.456 .0258279
893.117 .0258233
893.778 .0258187
894.439 .0258138
895.099 .0258085
895.758 .0258030
896.417 .0257968
897.076 .0257897
897.735 .0257816
898.393 .0257725
899.051 .0257619
899.708 .0257503
900.365 .0257382
901.022 .0257254
901.678 .0257134
902.334 .0257018
902.990 .0256910
903.645 .0256812
904.300 .0256725
904.954 .0256644
905.608 .0256562
906.262 .0256484
906.915 .0256409
907.568 .0256333
908.221 .0256261
908.873 .0256192
909.525 .0256131
910.176 .0256077
910.828 .0256030
911.478 .0255989
912.129 .0255954
912.778 .0255918
913.428 .0255879
914.077 .0255829
914.726 .0255767
915.375 .0255687
916.023 .0255591
916.670 .0255487
917.318 .0255373
917.964 .0255253
918.611 .0255134
919.257 .0255022
919.903 .0254915
920.548 .0254811
921.193 .0254714
921.838 .0254622
922.482 .0254532
923.126 .0254447
923.770 .0254362
924.413 .0254282
925.056 .0254211
925.698 .0254146
926.340 .0254094
926.982 .0254057
927.623 .0254024
928.264 .0253994
928.904 .0253961
929.544 .0253919
930.184 .0253862
930.823 .0253792
931.462 .0253712
932.101 .0253619
932.739 .0253521
933.377 .0253418
934.014 .0253310
934.651 .0253207
935.288 .0253104
935.924 .0253000
936.560 .0252897
937.196 .0252796
937.831 .0252692
938.466 .0252590
939.100 .0252492
939.734 .0252393
940.368 .0252291
941.001 .0252185
941.634 .0252070
942.266 .0251945
942.899 .0251809
943.530 .0251662
944.162 .0251508
944.793 .0251349
945.423 .0251180
946.053 .0251004
946.683 .0250821
947.313 .0250627
947.942 .0250414
948.571 .0250183
949.199 .0249933
949.827 .0249664
950.455 .0249386
951.082 .0249108
951.709 .0248841
952.335 .0248590
952.961 .0248359
953.587 .0248148
954.212 .0247951
954.837 .0247766
955.462 .0247585
956.086 .0247412
956.710 .0247246
957.334 .0247091
957.957 .0246956
958.579 .0246844
959.202 .0246757
959.824 .0246692
960.445 .0246647
961.067 .0246616
961.688 .0246591
962.308 .0246571
962.928 .0246551
963.548 .0246531
964.168 .0246509
964.787 .0246481
965.406 .0246448
966.024 .0246406
966.642 .0246347
967.260 .0246268
967.877 .0246167
968.494 .0246042
969.110 .0245895
969.727 .0245728
970.342 .0245551
970.958 .0245369
971.573 .0245187
972.188 .0245007
972.802 .0244831
973.416 .0244655
974.030 .0244479
974.643 .0244305
975.256 .0244134
975.869 .0243968
976.481 .0243816
977.093 .0243679
977.705 .0243566
978.316 .0243469
978.927 .0243396
979.538 .0243340
980.148 .0243296
980.758 .0243258
981.367 .0243221
981.977 .0243182
982.586 .0243147
983.194 .0243112
983.802 .0243085
984.410 .0243060
985.018 .0243043
985.625 .0243028
986.232 .0243013
986.838 .0242992
987.445 .0242968
988.050 .0242932
988.656 .0242893
989.261 .0242839
989.866 .0242777
990.471 .0242713
991.075 .0242647
991.679 .0242582
992.282 .0242517
992.886 .0242454
993.489 .0242394
994.091 .0242330
994.694 .0242270
995.296 .0242208
995.897 .0242146
996.499 .0242081
997.100 .0242014
997.701 .0241948
998.301 .0241885
998.901 .0241829
999.501 .0241783
1000.101 .0241748
1000.700 .0241720
1001.299 .0241700
1001.898 .0241682
1002.496 .0241671
1003.094 .0241658
1003.692 .0241647
1004.289 .0241635
1004.887 .0241627
1005.484 .0241623
1006.080 .0241626
1006.677 .0241639
1007.273 .0241655
1007.868 .0241671
1008.464 .0241684
1009.059 .0241686
1009.654 .0241680
1010.249 .0241662
1010.843 .0241638
1011.437 .0241605
1012.031 .0241570
1012.625 .0241532
1013.218 .0241492
1013.811 .0241450
1014.404 .0241407
1014.997 .0241353
1015.589 .0241293
1016.181 .0241221
1016.773 .0241149
1017.365 .0241086
1017.956 .0241034
1018.547 .0241004
1019.138 .0241000
1019.728 .0241021
1020.319 .0241070
1020.909 .0241138
1021.499 .0241222
1022.088 .0241311
1022.678 .0241398
1023.267 .0241474
1023.856 .0241535
1024.445 .0241588
1025.033 .0241627
1025.621 .0241658
1026.209 .0241686
1026.797 .0241702
1027.385 .0241704
1027.972 .0241694
1028.560 .0241668
1029.147 .0241629
1029.734 .0241578
1030.320 .0241508
1030.907 .0241420
1031.493 .0241324
1032.079 .0241219
1032.665 .0241112
1033.250 .0241012
1033.836 .0240923
1034.421 .0240841
1035.006 .0240773
1035.591 .0240714
1036.176 .0240659
1036.761 .0240618
1037.345 .0240580
1037.929 .0240537
1038.514 .0240489
1039.097 .0240431
1039.681 .0240369
1040.265 .0240307
1040.848 .0240248
1041.432 .0240192
1042.015 .0240144
1042.598 .0240102
1043.181 .0240069
1043.764 .0240046
1044.346 .0240039
1044.929 .0240041
1045.511 .0240057
1046.094 .0240082
1046.676 .0240114
1047.258 .0240149
1047.840 .0240186
1048.422 .0240213
1049.003 .0240230
1049.585 .0240228
1050.166 .0240205
1050.748 .0240165
1051.329 .0240117
1051.910 .0240062
1052.491 .0240004
1053.072 .0239941
1053.653 .0239872
1054.234 .0239797
1054.815 .0239714
1055.396 .0239623
1055.976 .0239522
1056.557 .0239414
1057.138 .0239308
1057.718 .0239207
1058.298 .0239114
1058.879 .0239036
1059.459 .0238962
1060.039 .0238892
1060.620 .0238806
1061.200 .0238711
1061.780 .0238596
1062.360 .0238471
1062.940 .0238343
1063.520 .0238212
1064.101 .0238092
1064.681 .0237992
1065.261 .0237897
1065.841 .0237820
1066.421 .0237749
1067.001 .0237676
1067.581 .0237592
1068.161 .0237511
1068.741 .0237424
1069.321 .0237348
1069.901 .0237291
1070.482 .0237272
1071.062 .0237276
1071.642 .0237314
1072.222 .0237372
1072.803 .0237432
1073.383 .0237491
1073.963 .0237529
1074.544 .0237548
1075.124 .0237555
1075.705 .0237535
1076.286 .0237500
1076.866 .0237446
1077.447 .0237396
1078.028 .0237342
1078.609 .0237286
1079.190 .0237227
1079.771 .0237171
1080.352 .0237119
1080.934 .0237065
1081.515 .0237019
1082.097 .0236988
1082.679 .0236971
1083.260 .0236970
1083.842 .0236973
1084.424 .0236982
1085.007 .0236985
1085.589 .0237005
1086.172 .0237033
1086.754 .0237079
1087.337 .0237137
1087.920 .0237212
1088.503 .0237303
1089.087 .0237410
1089.670 .0237505
1090.254 .0237589
1090.838 .0237644
1091.422 .0237684
1092.006 .0237683
1092.590 .0237663
1093.175 .0237625
1093.760 .0237581
1094.345 .0237532
1094.930 .0237495
1095.516 .0237442
1096.102 .0237405
1096.688 .0237377
1097.274 .0237363
1097.860 .0237363
1098.447 .0237390
1099.034 .0237419
1099.622 .0237470
1100.209 .0237524
1100.797 .0237578
1101.385 .0237610
1101.973 .0237661
1102.562 .0237701
1103.151 .0237742
1103.740 .0237784
1104.330 .0237825
1104.920 .0237851
1105.510 .0237880
1106.101 .0237883
1106.691 .0237857
1107.283 .0237799
1107.874 .0237699
1108.466 .0237541
1109.058 .0237354
1109.651 .0237145
1110.244 .0236935
1110.837 .0236740
1111.431 .0236587
1112.025 .0236467
1112.620 .0236407
1113.215 .0236405
1113.810 .0236463
1114.406 .0236575
1115.002 .0236727
1115.599 .0236892
1116.196 .0237036
1116.793 .0237141
1117.391 .0237211
1117.989 .0237233
1118.588 .0237227
1119.187 .0237196
1119.787 .0237153
1120.387 .0237100
1120.988 .0237074
1121.589 .0237077
1122.190 .0237083
1122.793 .0237112
1123.395 .0237156
1123.998 .0237188
1124.602 .0237242
1125.206 .0237291
1125.811 .0237350
1126.416 .0237422
1127.022 .0237502
1127.628 .0237564
1128.235 .0237640
1128.843 .0237760
1129.451 .0237923
1130.059 .0238154
1130.669 .0238507
1131.278 .0238952
1131.889 .0239468
1132.500 .0240081
1133.112 .0240723
1133.724 .0241359
1134.337 .0241990
1134.950 .0242545
1135.564 .0243071
1136.179 .0243601
1136.795 .0244157
1137.411 .0244792
1138.028 .0245561
1138.645 .0246495
1139.263 .0247538
1139.882 .0248641
1140.502 .0249750
1141.122 .0250782
1141.743 .0251747
1142.365 .0252598
1142.987 .0252938
1143.611 .0253400
1144.235 .0253924
1144.859 .0255285
1145.485 .0256451
