Measurement Sequence started on: 10-20-44-796
Integration time: 35
Scans to Average: 2 
>>>>>Begin Spectral Data<<<<<
432.953 .0271480
433.882 .0416489
434.810 .0380987
435.737 .0362180
436.662 .0373847
437.586 .0358622
438.509 .0357078
439.431 .0351448
440.351 .0347589
441.269 .0344530
442.187 .0341535
443.103 .0339107
444.018 .0337126
444.932 .0335131
445.844 .0333528
446.756 .0332049
447.666 .0331078
448.575 .0330495
449.482 .0330364
450.388 .0330653
451.294 .0331334
452.198 .0332085
453.100 .0332841
454.002 .0333476
454.902 .0334049
455.801 .0334414
456.699 .0334747
457.596 .0335020
458.492 .0335383
459.387 .0335654
460.280 .0335871
461.172 .0335911
462.064 .0335817
462.954 .0335529
463.843 .0335114
464.730 .0334553
465.617 .0333980
466.503 .0333359
467.387 .0332781
468.271 .0332229
469.153 .0331684
470.035 .0331011
470.915 .0330298
471.794 .0329457
472.673 .0328529
473.550 .0327574
474.426 .0326749
475.301 .0326084
476.175 .0325655
477.048 .0325383
477.920 .0325266
478.791 .0325254
479.661 .0325295
480.530 .0325338
481.398 .0325374
482.266 .0325432
483.132 .0325533
483.997 .0325666
484.861 .0325849
485.724 .0326090
486.587 .0326382
487.448 .0326670
488.308 .0326905
489.168 .0327056
490.026 .0327083
490.884 .0327002
491.741 .0326833
492.597 .0326555
493.452 .0326171
494.306 .0325738
495.159 .0325223
496.011 .0324641
496.862 .0323969
497.713 .0323201
498.562 .0322337
499.411 .0321421
500.259 .0320407
501.106 .0319316
501.952 .0318213
502.798 .0317076
503.642 .0315883
504.486 .0314635
505.329 .0313359
506.171 .0312039
507.012 .0310705
507.852 .0309390
508.692 .0308043
509.531 .0306683
510.369 .0305325
511.206 .0303967
512.043 .0302554
512.878 .0301104
513.713 .0299626
514.547 .0298133
515.381 .0296637
516.213 .0295160
517.045 .0293750
517.876 .0292429
518.706 .0291228
519.536 .0290140
520.365 .0289173
521.193 .0288368
522.020 .0287615
522.847 .0286892
523.673 .0286257
524.498 .0285660
525.323 .0285017
526.146 .0284435
526.969 .0283952
527.792 .0283535
528.614 .0283040
529.435 .0282503
530.255 .0281768
531.075 .0280819
531.894 .0279599
532.712 .0278088
533.530 .0276343
534.347 .0274548
535.163 .0272603
535.979 .0270794
536.794 .0269152
537.608 .0267703
538.422 .0266439
539.235 .0265427
540.048 .0264588
540.860 .0263881
541.671 .0263245
542.481 .0262910
543.292 .0262736
544.101 .0262822
544.910 .0263104
545.718 .0263641
546.526 .0264446
547.333 .0265358
548.139 .0266297
548.945 .0267236
549.750 .0268087
550.555 .0268840
551.359 .0269368
552.162 .0269801
552.965 .0270139
553.768 .0270391
554.569 .0270651
555.371 .0270925
556.171 .0271232
556.972 .0271642
557.771 .0272132
558.570 .0272712
559.369 .0273371
560.167 .0274070
560.964 .0274796
561.761 .0275527
562.558 .0276210
563.354 .0276854
564.149 .0277463
564.944 .0278086
565.738 .0278677
566.532 .0279287
567.325 .0279964
568.118 .0280614
568.910 .0281293
569.702 .0281968
570.494 .0282667
571.285 .0283424
572.075 .0284218
572.865 .0285079
573.654 .0285980
574.443 .0286896
575.232 .0287780
576.020 .0288629
576.807 .0289450
577.594 .0290223
578.381 .0290972
579.167 .0291697
579.952 .0292401
580.738 .0293118
581.522 .0293857
582.307 .0294606
583.091 .0295343
583.874 .0296036
584.657 .0296654
585.440 .0297211
586.222 .0297687
587.004 .0298090
587.785 .0298453
588.566 .0298769
589.346 .0299051
590.126 .0299295
590.906 .0299506
591.685 .0299681
592.464 .0299812
593.242 .0299905
594.020 .0299955
594.797 .0299974
595.575 .0299975
596.351 .0299957
597.128 .0299933
597.904 .0299895
598.679 .0299849
599.454 .0299796
600.229 .0299726
601.004 .0299629
601.778 .0299507
602.551 .0299354
603.325 .0299180
604.097 .0298975
604.870 .0298754
605.642 .0298532
606.414 .0298306
607.185 .0298077
607.956 .0297861
608.727 .0297660
609.497 .0297471
610.267 .0297296
611.037 .0297134
611.806 .0296975
612.575 .0296814
613.344 .0296646
614.112 .0296472
614.880 .0296307
615.647 .0296149
616.414 .0296002
617.181 .0295879
617.948 .0295780
618.714 .0295684
619.480 .0295592
620.245 .0295493
621.011 .0295374
621.775 .0295223
622.540 .0295039
623.304 .0294822
624.068 .0294591
624.832 .0294336
625.595 .0294074
626.358 .0293817
627.120 .0293569
627.883 .0293323
628.645 .0293084
629.406 .0292854
630.168 .0292636
630.929 .0292426
631.689 .0292233
632.450 .0292050
633.210 .0291895
633.970 .0291748
634.729 .0291619
635.489 .0291504
636.248 .0291395
637.006 .0291284
637.765 .0291172
638.523 .0291046
639.280 .0290916
640.038 .0290776
640.795 .0290638
641.552 .0290496
642.309 .0290352
643.065 .0290201
643.821 .0290038
644.577 .0289865
645.332 .0289675
646.088 .0289472
646.843 .0289271
647.597 .0289058
648.352 .0288854
649.106 .0288667
649.860 .0288498
650.613 .0288360
651.367 .0288244
652.120 .0288152
652.872 .0288074
653.625 .0288001
654.377 .0287921
655.129 .0287826
655.881 .0287720
656.632 .0287590
657.384 .0287437
658.135 .0287284
658.885 .0287123
659.636 .0286963
660.386 .0286816
661.136 .0286672
661.885 .0286531
662.635 .0286398
663.384 .0286267
664.133 .0286136
664.881 .0286006
665.630 .0285886
666.378 .0285773
667.126 .0285674
667.874 .0285582
668.621 .0285492
669.368 .0285411
670.115 .0285336
670.862 .0285257
671.608 .0285182
672.354 .0285113
673.100 .0285048
673.846 .0284987
674.591 .0284924
675.337 .0284851
676.082 .0284768
676.826 .0284674
677.571 .0284559
678.315 .0284425
679.059 .0284275
679.803 .0284119
680.547 .0283968
681.290 .0283820
682.033 .0283681
682.776 .0283552
683.518 .0283430
684.261 .0283296
685.003 .0283149
685.745 .0282988
686.487 .0282807
687.228 .0282616
687.969 .0282411
688.710 .0282202
689.451 .0282003
690.192 .0281808
690.932 .0281625
691.672 .0281455
692.412 .0281297
693.152 .0281138
693.891 .0280976
694.630 .0280808
695.369 .0280629
696.108 .0280440
696.846 .0280242
697.585 .0280036
698.323 .0279833
699.061 .0279634
699.798 .0279444
700.536 .0279268
701.273 .0279102
702.010 .0278942
702.746 .0278785
703.483 .0278621
704.219 .0278445
704.955 .0278259
705.691 .0278065
706.427 .0277868
707.162 .0277677
707.897 .0277500
708.632 .0277340
709.367 .0277201
710.101 .0277075
710.835 .0276958
711.569 .0276842
712.303 .0276716
713.037 .0276572
713.770 .0276413
714.503 .0276235
715.236 .0276050
715.969 .0275862
716.702 .0275680
717.434 .0275502
718.166 .0275329
718.898 .0275159
719.629 .0274988
720.361 .0274807
721.092 .0274616
721.823 .0274415
722.554 .0274204
723.284 .0273984
724.014 .0273755
724.744 .0273523
725.474 .0273292
726.204 .0273059
726.933 .0272825
727.662 .0272588
728.391 .0272353
729.120 .0272117
729.849 .0271880
730.577 .0271653
731.305 .0271430
732.033 .0271220
732.760 .0271026
733.488 .0270840
734.215 .0270658
734.942 .0270484
735.669 .0270308
736.395 .0270133
737.122 .0269958
737.848 .0269783
738.573 .0269610
739.299 .0269445
740.024 .0269284
740.750 .0269124
741.474 .0268966
742.199 .0268810
742.924 .0268648
743.648 .0268492
744.372 .0268334
745.096 .0268177
745.819 .0268031
746.543 .0267898
747.266 .0267780
747.989 .0267681
748.711 .0267596
749.434 .0267531
750.156 .0267482
750.878 .0267446
751.599 .0267419
752.321 .0267399
753.042 .0267386
753.763 .0267373
754.484 .0267357
755.205 .0267339
755.925 .0267324
756.645 .0267309
757.365 .0267289
758.085 .0267267
758.804 .0267239
759.523 .0267200
760.242 .0267152
760.961 .0267089
761.679 .0267012
762.397 .0266917
763.115 .0266800
763.833 .0266664
764.551 .0266517
765.268 .0266357
765.985 .0266185
766.702 .0266010
767.418 .0265839
768.134 .0265666
768.850 .0265494
769.566 .0265323
770.282 .0265154
770.997 .0264984
771.712 .0264808
772.427 .0264630
773.142 .0264454
773.856 .0264277
774.570 .0264106
775.284 .0263941
775.998 .0263786
776.711 .0263635
777.424 .0263492
778.137 .0263355
778.849 .0263215
779.562 .0263063
780.274 .0262901
780.986 .0262730
781.697 .0262551
782.409 .0262369
783.120 .0262196
783.831 .0262039
784.541 .0261907
785.252 .0261796
785.962 .0261706
786.671 .0261639
787.381 .0261584
788.090 .0261532
788.799 .0261484
789.508 .0261435
790.217 .0261385
790.925 .0261335
791.633 .0261283
792.341 .0261226
793.048 .0261162
793.755 .0261091
794.462 .0261001
795.169 .0260894
795.875 .0260777
796.581 .0260641
797.287 .0260498
797.993 .0260348
798.698 .0260194
799.403 .0260043
800.108 .0259897
800.812 .0259754
801.517 .0259613
802.221 .0259479
802.924 .0259355
803.628 .0259240
804.331 .0259148
805.034 .0259067
805.736 .0259001
806.439 .0258956
807.141 .0258921
807.843 .0258891
808.544 .0258861
809.245 .0258819
809.946 .0258768
810.647 .0258699
811.347 .0258615
812.047 .0258515
812.747 .0258410
813.447 .0258299
814.146 .0258180
814.845 .0258061
815.543 .0257943
816.242 .0257824
816.940 .0257709
817.638 .0257587
818.335 .0257457
819.032 .0257320
819.729 .0257171
820.426 .0257011
821.122 .0256845
821.818 .0256676
822.514 .0256511
823.209 .0256346
823.905 .0256195
824.599 .0256046
825.294 .0255903
825.988 .0255764
826.682 .0255623
827.376 .0255480
828.069 .0255328
828.762 .0255163
829.455 .0254992
830.147 .0254810
830.840 .0254626
831.531 .0254435
832.223 .0254248
832.914 .0254066
833.605 .0253890
834.296 .0253719
834.986 .0253557
835.676 .0253398
836.366 .0253251
837.055 .0253104
837.744 .0252962
838.433 .0252817
839.121 .0252681
839.809 .0252548
840.497 .0252426
841.185 .0252312
841.872 .0252213
842.559 .0252120
843.245 .0252041
843.932 .0251962
844.617 .0251889
845.303 .0251810
845.988 .0251731
846.673 .0251644
847.358 .0251559
848.042 .0251472
848.726 .0251386
849.410 .0251307
850.093 .0251233
850.776 .0251153
851.459 .0251071
852.141 .0250978
852.823 .0250881
853.505 .0250772
854.186 .0250657
854.867 .0250538
855.548 .0250423
856.228 .0250307
856.908 .0250192
857.588 .0250076
858.267 .0249952
858.946 .0249814
859.625 .0249664
860.303 .0249501
860.981 .0249327
861.659 .0249148
862.336 .0248966
863.013 .0248783
863.690 .0248604
864.366 .0248424
865.042 .0248247
865.718 .0248076
866.393 .0247910
867.068 .0247748
867.743 .0247593
868.417 .0247453
869.091 .0247324
869.765 .0247211
870.438 .0247114
871.111 .0247025
871.783 .0246939
872.456 .0246853
873.127 .0246764
873.799 .0246673
874.470 .0246584
875.141 .0246497
875.811 .0246411
876.481 .0246332
877.151 .0246258
877.820 .0246184
878.489 .0246115
879.158 .0246044
879.826 .0245968
880.494 .0245890
881.162 .0245806
881.829 .0245719
882.496 .0245632
883.163 .0245551
883.829 .0245469
884.495 .0245395
885.160 .0245330
885.825 .0245270
886.490 .0245219
887.154 .0245175
887.818 .0245132
888.482 .0245089
889.145 .0245041
889.808 .0244988
890.471 .0244928
891.133 .0244867
891.795 .0244800
892.456 .0244735
893.117 .0244681
893.778 .0244633
894.439 .0244589
895.099 .0244552
895.758 .0244515
896.417 .0244471
897.076 .0244422
897.735 .0244366
898.393 .0244307
899.051 .0244246
899.708 .0244188
900.365 .0244132
901.022 .0244080
901.678 .0244033
902.334 .0243984
902.990 .0243933
903.645 .0243879
904.300 .0243817
904.954 .0243752
905.608 .0243689
906.262 .0243631
906.915 .0243581
907.568 .0243538
908.221 .0243498
908.873 .0243454
909.525 .0243405
910.176 .0243351
910.828 .0243291
911.478 .0243225
912.129 .0243159
912.778 .0243091
913.428 .0243028
914.077 .0242970
914.726 .0242916
915.375 .0242863
916.023 .0242806
916.670 .0242744
917.318 .0242674
917.964 .0242597
918.611 .0242519
919.257 .0242446
919.903 .0242383
920.548 .0242328
921.193 .0242282
921.838 .0242239
922.482 .0242200
923.126 .0242159
923.770 .0242110
924.413 .0242058
925.056 .0242002
925.698 .0241947
926.340 .0241893
926.982 .0241845
927.623 .0241799
928.264 .0241752
928.904 .0241704
929.544 .0241642
930.184 .0241565
930.823 .0241474
931.462 .0241368
932.101 .0241254
932.739 .0241139
933.377 .0241029
934.014 .0240923
934.651 .0240832
935.288 .0240746
935.924 .0240668
936.560 .0240586
937.196 .0240500
937.831 .0240402
938.466 .0240294
939.100 .0240177
939.734 .0240047
940.368 .0239916
941.001 .0239786
941.634 .0239657
942.266 .0239532
942.899 .0239404
943.530 .0239275
944.162 .0239133
944.793 .0238985
945.423 .0238820
946.053 .0238644
946.683 .0238461
947.313 .0238270
947.942 .0238075
948.571 .0237874
949.199 .0237670
949.827 .0237465
950.455 .0237262
951.082 .0237063
951.709 .0236872
952.335 .0236691
952.961 .0236521
953.587 .0236363
954.212 .0236213
954.837 .0236074
955.462 .0235943
956.086 .0235820
956.710 .0235701
957.334 .0235585
957.957 .0235480
958.579 .0235381
959.202 .0235294
959.824 .0235211
960.445 .0235128
961.067 .0235043
961.688 .0234950
962.308 .0234845
962.928 .0234731
963.548 .0234606
964.168 .0234475
964.787 .0234332
965.406 .0234185
966.024 .0234030
966.642 .0233869
967.260 .0233703
967.877 .0233536
968.494 .0233366
969.110 .0233198
969.727 .0233043
970.342 .0232907
970.958 .0232799
971.573 .0232720
972.188 .0232666
972.802 .0232640
973.416 .0232630
974.030 .0232629
974.643 .0232627
975.256 .0232630
975.869 .0232630
976.481 .0232630
977.093 .0232636
977.705 .0232652
978.316 .0232676
978.927 .0232713
979.538 .0232752
980.148 .0232782
980.758 .0232800
981.367 .0232791
981.977 .0232763
982.586 .0232720
983.194 .0232657
983.802 .0232587
984.410 .0232516
985.018 .0232457
985.625 .0232401
986.232 .0232362
986.838 .0232335
987.445 .0232317
988.050 .0232302
988.656 .0232284
989.261 .0232253
989.866 .0232210
990.471 .0232151
991.075 .0232077
991.679 .0231987
992.282 .0231887
992.886 .0231779
993.489 .0231678
994.091 .0231583
994.694 .0231503
995.296 .0231422
995.897 .0231350
996.499 .0231270
997.100 .0231174
997.701 .0231059
998.301 .0230933
998.901 .0230792
999.501 .0230645
1000.101 .0230500
1000.700 .0230370
1001.299 .0230255
1001.898 .0230168
1002.496 .0230097
1003.094 .0230046
1003.692 .0230004
1004.289 .0229971
1004.887 .0229943
1005.484 .0229928
1006.080 .0229921
1006.677 .0229922
1007.273 .0229931
1007.868 .0229952
1008.464 .0229976
1009.059 .0230009
1009.654 .0230046
1010.249 .0230092
1010.843 .0230144
1011.437 .0230198
1012.031 .0230249
1012.625 .0230298
1013.218 .0230335
1013.811 .0230353
1014.404 .0230353
1014.997 .0230335
1015.589 .0230302
1016.181 .0230266
1016.773 .0230234
1017.365 .0230218
1017.956 .0230216
1018.547 .0230231
1019.138 .0230245
1019.728 .0230268
1020.319 .0230291
1020.909 .0230301
1021.499 .0230311
1022.088 .0230321
1022.678 .0230328
1023.267 .0230337
1023.856 .0230352
1024.445 .0230364
1025.033 .0230369
1025.621 .0230370
1026.209 .0230348
1026.797 .0230308
1027.385 .0230255
1027.972 .0230189
1028.560 .0230121
1029.147 .0230068
1029.734 .0230027
1030.320 .0229990
1030.907 .0229969
1031.493 .0229951
1032.079 .0229929
1032.665 .0229903
1033.250 .0229873
1033.836 .0229839
1034.421 .0229809
1035.006 .0229785
1035.591 .0229761
1036.176 .0229745
1036.761 .0229744
1037.345 .0229742
1037.929 .0229731
1038.514 .0229711
1039.097 .0229683
1039.681 .0229644
1040.265 .0229611
1040.848 .0229577
1041.432 .0229544
1042.015 .0229530
1042.598 .0229520
1043.181 .0229516
1043.764 .0229515
1044.346 .0229525
1044.929 .0229530
1045.511 .0229540
1046.094 .0229554
1046.676 .0229559
1047.258 .0229569
1047.840 .0229594
1048.422 .0229612
1049.003 .0229636
1049.585 .0229654
1050.166 .0229677
1050.748 .0229690
1051.329 .0229717
1051.910 .0229745
1052.491 .0229790
1053.072 .0229843
1053.653 .0229911
1054.234 .0229975
1054.815 .0230044
1055.396 .0230105
1055.976 .0230147
1056.557 .0230167
1057.138 .0230174
1057.718 .0230151
1058.298 .0230122
1058.879 .0230074
1059.459 .0230021
1060.039 .0229936
1060.620 .0229837
1061.200 .0229711
1061.780 .0229564
1062.360 .0229395
1062.940 .0229233
1063.520 .0229075
1064.101 .0228929
1064.681 .0228798
1065.261 .0228693
1065.841 .0228601
1066.421 .0228529
1067.001 .0228458
1067.581 .0228391
1068.161 .0228312
1068.741 .0228247
1069.321 .0228180
1069.901 .0228143
1070.482 .0228136
1071.062 .0228149
1071.642 .0228175
1072.222 .0228218
1072.803 .0228253
1073.383 .0228282
1073.963 .0228312
1074.544 .0228339
1075.124 .0228348
1075.705 .0228361
1076.286 .0228381
1076.866 .0228408
1077.447 .0228464
1078.028 .0228546
1078.609 .0228651
1079.190 .0228770
1079.771 .0228904
1080.352 .0229046
1080.934 .0229223
1081.515 .0229415
1082.097 .0229631
1082.679 .0229864
1083.260 .0230106
1083.842 .0230317
1084.424 .0230514
1085.007 .0230677
1085.589 .0230810
1086.172 .0230871
1086.754 .0230892
1087.337 .0230851
1087.920 .0230781
1088.503 .0230682
1089.087 .0230582
1089.670 .0230488
1090.254 .0230406
1090.838 .0230299
1091.422 .0230182
1092.006 .0230026
1092.590 .0229841
1093.175 .0229621
1093.760 .0229387
1094.345 .0229148
1094.930 .0228918
1095.516 .0228741
1096.102 .0228635
1096.688 .0228585
1097.274 .0228581
1097.860 .0228575
1098.447 .0228565
1099.034 .0228513
1099.622 .0228398
1100.209 .0228243
1100.797 .0228052
1101.385 .0227865
1101.973 .0227684
1102.562 .0227559
1103.151 .0227470
1103.740 .0227431
1104.330 .0227425
1104.920 .0227457
1105.510 .0227463
1106.101 .0227450
1106.691 .0227418
1107.283 .0227378
1107.874 .0227335
1108.466 .0227284
1109.058 .0227262
1109.651 .0227290
1110.244 .0227383
1110.837 .0227533
1111.431 .0227695
1112.025 .0227922
1112.620 .0228125
1113.215 .0228309
1113.810 .0228476
1114.406 .0228594
1115.002 .0228689
1115.599 .0228754
1116.196 .0228831
1116.793 .0228866
1117.391 .0228926
1117.989 .0229009
1118.588 .0229101
1119.187 .0229213
1119.787 .0229333
1120.387 .0229392
1120.988 .0229423
1121.589 .0229421
1122.190 .0229329
1122.793 .0229200
1123.395 .0229051
1123.998 .0228863
1124.602 .0228703
1125.206 .0228547
1125.811 .0228437
1126.416 .0228330
1127.022 .0228306
1127.628 .0228274
1128.235 .0228215
1128.843 .0228177
1129.451 .0228122
1130.059 .0228094
1130.669 .0228111
1131.278 .0228179
1131.889 .0228321
1132.500 .0228527
1133.112 .0228774
1133.724 .0229044
1134.337 .0229335
1134.950 .0229617
1135.564 .0229841
1136.179 .0230046
1136.795 .0230303
1137.411 .0230613
1138.028 .0231016
1138.645 .0231590
1139.263 .0232235
1139.882 .0232990
1140.502 .0233837
1141.122 .0234790
1141.743 .0235882
1142.365 .0237291
1142.987 .0236526
1143.611 .0239001
1144.235 .0241190
1144.859 .0244387
1145.485 .0250673
