Measurement Sequence started on: 10-20-44-796
Integration time: 35
Scans to Average: 2 
>>>>>Begin Spectral Data<<<<<
432.953 .0509200
433.882 .0375008
434.810 .0313025
435.737 .0293386
436.662 .0293014
437.586 .0308520
438.509 .0299038
439.431 .0296612
440.351 .0297275
441.269 .0299049
442.187 .0301293
443.103 .0303831
444.018 .0306861
444.932 .0309764
445.844 .0312503
446.756 .0315216
447.666 .0317700
448.575 .0319682
449.482 .0321409
450.388 .0322819
451.294 .0323996
452.198 .0325020
453.100 .0325913
454.002 .0326635
454.902 .0327225
455.801 .0327613
456.699 .0327832
457.596 .0327949
458.492 .0328027
459.387 .0328020
460.280 .0327986
461.172 .0327898
462.064 .0327667
462.954 .0327369
463.843 .0327003
464.730 .0326505
465.617 .0326010
466.503 .0325451
467.387 .0324852
468.271 .0324234
469.153 .0323647
470.035 .0323037
470.915 .0322403
471.794 .0321699
472.673 .0320902
473.550 .0320065
474.426 .0319222
475.301 .0318363
476.175 .0317597
477.048 .0316918
477.920 .0316342
478.791 .0315868
479.661 .0315498
480.530 .0315202
481.398 .0314980
482.266 .0314794
483.132 .0314651
483.997 .0314529
484.861 .0314440
485.724 .0314399
486.587 .0314432
487.448 .0314507
488.308 .0314600
489.168 .0314729
490.026 .0314869
490.884 .0315013
491.741 .0315161
492.597 .0315283
493.452 .0315379
494.306 .0315433
495.159 .0315400
496.011 .0315281
496.862 .0315068
497.713 .0314741
498.562 .0314269
499.411 .0313714
500.259 .0313078
501.106 .0312368
501.952 .0311623
502.798 .0310849
503.642 .0310046
504.486 .0309230
505.329 .0308371
506.171 .0307476
507.012 .0306564
507.852 .0305643
508.692 .0304715
509.531 .0303784
510.369 .0302867
511.206 .0301969
512.043 .0301109
512.878 .0300279
513.713 .0299451
514.547 .0298632
515.381 .0297826
516.213 .0296974
517.045 .0296044
517.876 .0294965
518.706 .0293735
519.536 .0292331
520.365 .0290747
521.193 .0288957
522.020 .0286989
522.847 .0284868
523.673 .0282640
524.498 .0280331
525.323 .0277991
526.146 .0275675
526.969 .0273421
527.792 .0271199
528.614 .0268979
529.435 .0266821
530.255 .0264779
531.075 .0262838
531.894 .0261095
532.712 .0259555
533.530 .0258197
534.347 .0257083
535.163 .0256189
535.979 .0255555
536.794 .0255159
537.608 .0254979
538.422 .0254916
539.235 .0254965
540.048 .0255074
540.860 .0255190
541.671 .0255312
542.481 .0255462
543.292 .0255554
544.101 .0255627
544.910 .0255723
545.718 .0255873
546.526 .0256104
547.333 .0256461
548.139 .0256884
548.945 .0257342
549.750 .0257770
550.555 .0258153
551.359 .0258455
552.162 .0258739
552.965 .0258979
553.768 .0259221
554.569 .0259537
555.371 .0259936
556.171 .0260457
556.972 .0261130
557.771 .0261981
558.570 .0262939
559.369 .0263994
560.167 .0265121
560.964 .0266259
561.761 .0267414
562.558 .0268582
563.354 .0269730
564.149 .0270875
564.944 .0272002
565.738 .0273128
566.532 .0274226
567.325 .0275314
568.118 .0276367
568.910 .0277369
569.702 .0278284
570.494 .0279134
571.285 .0279872
572.075 .0280558
572.865 .0281169
573.654 .0281749
574.443 .0282336
575.232 .0282955
576.020 .0283636
576.807 .0284381
577.594 .0285174
578.381 .0286003
579.167 .0286820
579.952 .0287631
580.738 .0288399
581.522 .0289128
582.307 .0289802
583.091 .0290419
583.874 .0290983
584.657 .0291477
585.440 .0291914
586.222 .0292302
587.004 .0292636
587.785 .0292916
588.566 .0293153
589.346 .0293344
590.126 .0293499
590.906 .0293617
591.685 .0293713
592.464 .0293777
593.242 .0293823
594.020 .0293843
594.797 .0293849
595.575 .0293851
596.351 .0293856
597.128 .0293856
597.904 .0293868
598.679 .0293879
599.454 .0293883
600.229 .0293880
601.004 .0293870
601.778 .0293850
602.551 .0293830
603.325 .0293807
604.097 .0293785
604.870 .0293767
605.642 .0293755
606.414 .0293745
607.185 .0293726
607.956 .0293696
608.727 .0293650
609.497 .0293589
610.267 .0293510
611.037 .0293409
611.806 .0293296
612.575 .0293168
613.344 .0293026
614.112 .0292866
614.880 .0292685
615.647 .0292488
616.414 .0292277
617.181 .0292054
617.948 .0291822
618.714 .0291588
619.480 .0291353
620.245 .0291124
621.011 .0290900
621.775 .0290679
622.540 .0290460
623.304 .0290250
624.068 .0290054
624.832 .0289873
625.595 .0289717
626.358 .0289583
627.120 .0289469
627.883 .0289367
628.645 .0289272
629.406 .0289175
630.168 .0289075
630.929 .0288960
631.689 .0288836
632.450 .0288700
633.210 .0288561
633.970 .0288419
634.729 .0288280
635.489 .0288139
636.248 .0287995
637.006 .0287838
637.765 .0287667
638.523 .0287479
639.280 .0287278
640.038 .0287069
640.795 .0286868
641.552 .0286672
642.309 .0286486
643.065 .0286319
643.821 .0286170
644.577 .0286029
645.332 .0285896
646.088 .0285763
646.843 .0285626
647.597 .0285489
648.352 .0285348
649.106 .0285208
649.860 .0285073
650.613 .0284945
651.367 .0284823
652.120 .0284708
652.872 .0284598
653.625 .0284493
654.377 .0284394
655.129 .0284300
655.881 .0284204
656.632 .0284110
657.384 .0284017
658.135 .0283926
658.885 .0283840
659.636 .0283759
660.386 .0283677
661.136 .0283596
661.885 .0283513
662.635 .0283433
663.384 .0283352
664.133 .0283271
664.881 .0283188
665.630 .0283107
666.378 .0283020
667.126 .0282921
667.874 .0282813
668.621 .0282695
669.368 .0282564
670.115 .0282421
670.862 .0282267
671.608 .0282113
672.354 .0281959
673.100 .0281808
673.846 .0281663
674.591 .0281526
675.337 .0281390
676.082 .0281257
676.826 .0281126
677.571 .0280997
678.315 .0280868
679.059 .0280737
679.803 .0280605
680.547 .0280471
681.290 .0280331
682.033 .0280182
682.776 .0280024
683.518 .0279859
684.261 .0279686
685.003 .0279506
685.745 .0279325
686.487 .0279142
687.228 .0278961
687.969 .0278779
688.710 .0278595
689.451 .0278406
690.192 .0278215
690.932 .0278022
691.672 .0277828
692.412 .0277636
693.152 .0277453
693.891 .0277284
694.630 .0277131
695.369 .0276996
696.108 .0276873
696.846 .0276754
697.585 .0276640
698.323 .0276521
699.061 .0276402
699.798 .0276282
700.536 .0276164
701.273 .0276046
702.010 .0275935
702.746 .0275820
703.483 .0275702
704.219 .0275577
704.955 .0275445
705.691 .0275298
706.427 .0275137
707.162 .0274965
707.897 .0274783
708.632 .0274597
709.367 .0274410
710.101 .0274218
710.835 .0274029
711.569 .0273836
712.303 .0273640
713.037 .0273439
713.770 .0273239
714.503 .0273039
715.236 .0272843
715.969 .0272653
716.702 .0272470
717.434 .0272293
718.166 .0272125
718.898 .0271960
719.629 .0271799
720.361 .0271643
721.092 .0271490
721.823 .0271337
722.554 .0271187
723.284 .0271039
724.014 .0270891
724.744 .0270739
725.474 .0270582
726.204 .0270416
726.933 .0270243
727.662 .0270059
728.391 .0269868
729.120 .0269675
729.849 .0269486
730.577 .0269301
731.305 .0269121
732.033 .0268946
732.760 .0268775
733.488 .0268607
734.215 .0268439
734.942 .0268269
735.669 .0268095
736.395 .0267921
737.122 .0267741
737.848 .0267562
738.573 .0267385
739.299 .0267209
740.024 .0267041
740.750 .0266881
741.474 .0266728
742.199 .0266580
742.924 .0266435
743.648 .0266296
744.372 .0266154
745.096 .0266010
745.819 .0265857
746.543 .0265697
747.266 .0265536
747.989 .0265375
748.711 .0265220
749.434 .0265082
750.156 .0264967
750.878 .0264876
751.599 .0264809
752.321 .0264764
753.042 .0264731
753.763 .0264708
754.484 .0264684
755.205 .0264651
755.925 .0264612
756.645 .0264566
757.365 .0264514
758.085 .0264464
758.804 .0264417
759.523 .0264363
760.242 .0264303
760.961 .0264229
761.679 .0264134
762.397 .0264007
763.115 .0263851
763.833 .0263664
764.551 .0263448
765.268 .0263210
765.985 .0262959
766.702 .0262699
767.418 .0262441
768.134 .0262185
768.850 .0261930
769.566 .0261681
770.282 .0261437
770.997 .0261195
771.712 .0260965
772.427 .0260748
773.142 .0260542
773.856 .0260348
774.570 .0260170
775.284 .0260005
775.998 .0259849
776.711 .0259703
777.424 .0259562
778.137 .0259424
778.849 .0259291
779.562 .0259155
780.274 .0259020
780.986 .0258887
781.697 .0258758
782.409 .0258629
783.120 .0258507
783.831 .0258391
784.541 .0258283
785.252 .0258189
785.962 .0258105
786.671 .0258026
787.381 .0257954
788.090 .0257879
788.799 .0257796
789.508 .0257703
790.217 .0257598
790.925 .0257477
791.633 .0257350
792.341 .0257212
793.048 .0257067
793.755 .0256917
794.462 .0256764
795.169 .0256610
795.875 .0256455
796.581 .0256293
797.287 .0256123
797.993 .0255948
798.698 .0255768
799.403 .0255583
800.108 .0255400
800.812 .0255221
801.517 .0255051
802.221 .0254891
802.924 .0254744
803.628 .0254613
804.331 .0254505
805.034 .0254411
805.736 .0254329
806.439 .0254254
807.141 .0254183
807.843 .0254113
808.544 .0254042
809.245 .0253968
809.946 .0253894
810.647 .0253822
811.347 .0253753
812.047 .0253691
812.747 .0253637
813.447 .0253586
814.146 .0253539
814.845 .0253491
815.543 .0253439
816.242 .0253378
816.940 .0253311
817.638 .0253235
818.335 .0253154
819.032 .0253070
819.729 .0252978
820.426 .0252884
821.122 .0252787
821.818 .0252678
822.514 .0252557
823.209 .0252425
823.905 .0252286
824.599 .0252135
825.294 .0251975
825.988 .0251807
826.682 .0251635
827.376 .0251461
828.069 .0251286
828.762 .0251113
829.455 .0250943
830.147 .0250777
830.840 .0250616
831.531 .0250461
832.223 .0250316
832.914 .0250180
833.605 .0250054
834.296 .0249937
834.986 .0249825
835.676 .0249709
836.366 .0249588
837.055 .0249464
837.744 .0249332
838.433 .0249187
839.121 .0249036
839.809 .0248879
840.497 .0248719
841.185 .0248563
841.872 .0248409
842.559 .0248262
843.245 .0248122
843.932 .0247984
844.617 .0247842
845.303 .0247704
845.988 .0247568
846.673 .0247436
847.358 .0247317
848.042 .0247215
848.726 .0247132
849.410 .0247069
850.093 .0247027
850.776 .0247002
851.459 .0246985
852.141 .0246970
852.823 .0246945
853.505 .0246914
854.186 .0246865
854.867 .0246804
855.548 .0246732
856.228 .0246654
856.908 .0246573
857.588 .0246493
858.267 .0246413
858.946 .0246331
859.625 .0246242
860.303 .0246151
860.981 .0246054
861.659 .0245953
862.336 .0245844
863.013 .0245734
863.690 .0245620
864.366 .0245504
865.042 .0245382
865.718 .0245257
866.393 .0245129
867.068 .0244998
867.743 .0244860
868.417 .0244717
869.091 .0244573
869.765 .0244423
870.438 .0244272
871.111 .0244119
871.783 .0243958
872.456 .0243791
873.127 .0243621
873.799 .0243446
874.470 .0243271
875.141 .0243099
875.811 .0242932
876.481 .0242771
877.151 .0242627
877.820 .0242494
878.489 .0242373
879.158 .0242266
879.826 .0242169
880.494 .0242074
881.162 .0241985
881.829 .0241895
882.496 .0241805
883.163 .0241717
883.829 .0241630
884.495 .0241541
885.160 .0241460
885.825 .0241388
886.490 .0241324
887.154 .0241269
887.818 .0241222
888.482 .0241174
889.145 .0241122
889.808 .0241068
890.471 .0241006
891.133 .0240936
891.795 .0240859
892.456 .0240773
893.117 .0240679
893.778 .0240585
894.439 .0240488
895.099 .0240388
895.758 .0240294
896.417 .0240195
897.076 .0240089
897.735 .0239980
898.393 .0239871
899.051 .0239762
899.708 .0239650
900.365 .0239539
901.022 .0239427
901.678 .0239318
902.334 .0239209
902.990 .0239105
903.645 .0239006
904.300 .0238912
904.954 .0238823
905.608 .0238734
906.262 .0238656
906.915 .0238583
907.568 .0238513
908.221 .0238447
908.873 .0238379
909.525 .0238306
910.176 .0238226
910.828 .0238146
911.478 .0238065
912.129 .0237978
912.778 .0237891
913.428 .0237801
914.077 .0237712
914.726 .0237624
915.375 .0237538
916.023 .0237457
916.670 .0237379
917.318 .0237300
917.964 .0237219
918.611 .0237140
919.257 .0237060
919.903 .0236980
920.548 .0236902
921.193 .0236829
921.838 .0236760
922.482 .0236697
923.126 .0236642
923.770 .0236591
924.413 .0236544
925.056 .0236493
925.698 .0236441
926.340 .0236383
926.982 .0236317
927.623 .0236247
928.264 .0236168
928.904 .0236082
929.544 .0235988
930.184 .0235886
930.823 .0235777
931.462 .0235665
932.101 .0235546
932.739 .0235423
933.377 .0235304
934.014 .0235188
934.651 .0235078
935.288 .0234979
935.924 .0234889
936.560 .0234805
937.196 .0234728
937.831 .0234655
938.466 .0234577
939.100 .0234498
939.734 .0234412
940.368 .0234317
941.001 .0234217
941.634 .0234116
942.266 .0234009
942.899 .0233900
943.530 .0233787
944.162 .0233662
944.793 .0233525
945.423 .0233377
946.053 .0233218
946.683 .0233050
947.313 .0232874
947.942 .0232693
948.571 .0232509
949.199 .0232330
949.827 .0232150
950.455 .0231974
951.082 .0231803
951.709 .0231641
952.335 .0231481
952.961 .0231325
953.587 .0231172
954.212 .0231026
954.837 .0230881
955.462 .0230737
956.086 .0230595
956.710 .0230456
957.334 .0230319
957.957 .0230188
958.579 .0230065
959.202 .0229956
959.824 .0229859
960.445 .0229777
961.067 .0229708
961.688 .0229654
962.308 .0229605
962.928 .0229560
963.548 .0229513
964.168 .0229460
964.787 .0229395
965.406 .0229322
966.024 .0229249
966.642 .0229177
967.260 .0229110
967.877 .0229052
968.494 .0229000
969.110 .0228957
969.727 .0228911
970.342 .0228866
970.958 .0228814
971.573 .0228758
972.188 .0228696
972.802 .0228634
973.416 .0228580
974.030 .0228536
974.643 .0228504
975.256 .0228489
975.869 .0228488
976.481 .0228498
977.093 .0228516
977.705 .0228544
978.316 .0228580
978.927 .0228617
979.538 .0228651
980.148 .0228680
980.758 .0228694
981.367 .0228702
981.977 .0228697
982.586 .0228686
983.194 .0228676
983.802 .0228665
984.410 .0228655
985.018 .0228652
985.625 .0228653
986.232 .0228657
986.838 .0228655
987.445 .0228649
988.050 .0228627
988.656 .0228589
989.261 .0228537
989.866 .0228468
990.471 .0228392
991.075 .0228310
991.679 .0228222
992.282 .0228136
992.886 .0228054
993.489 .0227981
994.091 .0227916
994.694 .0227858
995.296 .0227806
995.897 .0227750
996.499 .0227689
997.100 .0227620
997.701 .0227542
998.301 .0227462
998.901 .0227385
999.501 .0227323
1000.101 .0227274
1000.700 .0227246
1001.299 .0227245
1001.898 .0227264
1002.496 .0227298
1003.094 .0227337
1003.692 .0227372
1004.289 .0227399
1004.887 .0227418
1005.484 .0227432
1006.080 .0227449
1006.677 .0227476
1007.273 .0227513
1007.868 .0227561
1008.464 .0227615
1009.059 .0227670
1009.654 .0227715
1010.249 .0227751
1010.843 .0227775
1011.437 .0227787
1012.031 .0227787
1012.625 .0227781
1013.218 .0227768
1013.811 .0227747
1014.404 .0227718
1014.997 .0227688
1015.589 .0227647
1016.181 .0227599
1016.773 .0227553
1017.365 .0227516
1017.956 .0227482
1018.547 .0227460
1019.138 .0227439
1019.728 .0227423
1020.319 .0227408
1020.909 .0227386
1021.499 .0227356
1022.088 .0227328
1022.678 .0227303
1023.267 .0227278
1023.856 .0227260
1024.445 .0227250
1025.033 .0227242
1025.621 .0227239
1026.209 .0227238
1026.797 .0227224
1027.385 .0227206
1027.972 .0227185
1028.560 .0227165
1029.147 .0227149
1029.734 .0227141
1030.320 .0227140
1030.907 .0227147
1031.493 .0227158
1032.079 .0227163
1032.665 .0227167
1033.250 .0227171
1033.836 .0227168
1034.421 .0227163
1035.006 .0227156
1035.591 .0227147
1036.176 .0227135
1036.761 .0227114
1037.345 .0227077
1037.929 .0227020
1038.514 .0226945
1039.097 .0226856
1039.681 .0226770
1040.265 .0226692
1040.848 .0226631
1041.432 .0226584
1042.015 .0226560
1042.598 .0226550
1043.181 .0226548
1043.764 .0226548
1044.346 .0226548
1044.929 .0226539
1045.511 .0226516
1046.094 .0226484
1046.676 .0226454
1047.258 .0226421
1047.840 .0226394
1048.422 .0226357
1049.003 .0226319
1049.585 .0226278
1050.166 .0226234
1050.748 .0226180
1051.329 .0226132
1051.910 .0226085
1052.491 .0226038
1053.072 .0225996
1053.653 .0225965
1054.234 .0225947
1054.815 .0225943
1055.396 .0225958
1055.976 .0225985
1056.557 .0226009
1057.138 .0226046
1057.718 .0226086
1058.298 .0226136
1058.879 .0226189
1059.459 .0226230
1060.039 .0226256
1060.620 .0226268
1061.200 .0226258
1061.780 .0226206
1062.360 .0226124
1062.940 .0226024
1063.520 .0225888
1064.101 .0225719
1064.681 .0225535
1065.261 .0225325
1065.841 .0225110
1066.421 .0224893
1067.001 .0224659
1067.581 .0224418
1068.161 .0224181
1068.741 .0223940
1069.321 .0223708
1069.901 .0223500
1070.482 .0223314
1071.062 .0223143
1071.642 .0223015
1072.222 .0222907
1072.803 .0222805
1073.383 .0222728
1073.963 .0222666
1074.544 .0222602
1075.124 .0222559
1075.705 .0222525
1076.286 .0222512
1076.866 .0222537
1077.447 .0222590
1078.028 .0222667
1078.609 .0222766
1079.190 .0222874
1079.771 .0222957
1080.352 .0223013
1080.934 .0223048
1081.515 .0223046
1082.097 .0223037
1082.679 .0223035
1083.260 .0223040
1083.842 .0223067
1084.424 .0223117
1085.007 .0223172
1085.589 .0223218
1086.172 .0223246
1086.754 .0223238
1087.337 .0223191
1087.920 .0223104
1088.503 .0222981
1089.087 .0222834
1089.670 .0222689
1090.254 .0222540
1090.838 .0222389
1091.422 .0222240
1092.006 .0222095
1092.590 .0221932
1093.175 .0221755
1093.760 .0221570
1094.345 .0221379
1094.930 .0221196
1095.516 .0221021
1096.102 .0220864
1096.688 .0220749
1097.274 .0220665
1097.860 .0220604
1098.447 .0220549
1099.034 .0220493
1099.622 .0220410
1100.209 .0220300
1100.797 .0220167
1101.385 .0220005
1101.973 .0219820
1102.562 .0219660
1103.151 .0219530
1103.740 .0219446
1104.330 .0219413
1104.920 .0219409
1105.510 .0219442
1106.101 .0219481
1106.691 .0219472
1107.283 .0219425
1107.874 .0219333
1108.466 .0219196
1109.058 .0219036
1109.651 .0218893
1110.244 .0218799
1110.837 .0218759
1111.431 .0218777
1112.025 .0218821
1112.620 .0218866
1113.215 .0218889
1113.810 .0218849
1114.406 .0218781
1115.002 .0218707
1115.599 .0218608
1116.196 .0218536
1116.793 .0218526
1117.391 .0218598
1117.989 .0218749
1118.588 .0218968
1119.187 .0219213
1119.787 .0219454
1120.387 .0219655
1120.988 .0219806
1121.589 .0219908
1122.190 .0219971
1122.793 .0219984
1123.395 .0219972
1123.998 .0219959
1124.602 .0219914
1125.206 .0219848
1125.811 .0219783
1126.416 .0219703
1127.022 .0219610
1127.628 .0219476
1128.235 .0219358
1128.843 .0219304
1129.451 .0219319
1130.059 .0219401
1130.669 .0219542
1131.278 .0219785
1131.889 .0220048
1132.500 .0220306
1133.112 .0220568
1133.724 .0220817
1134.337 .0221075
1134.950 .0221327
1135.564 .0221586
1136.179 .0221915
1136.795 .0222303
1137.411 .0222758
1138.028 .0223248
1138.645 .0223751
1139.263 .0224250
1139.882 .0224644
1140.502 .0225155
1141.122 .0225734
1141.743 .0226412
1142.365 .0227234
1142.987 .0224987
1143.611 .0230757
1144.235 .0231728
1144.859 .0232190
1145.485 .0232928
