Measurement Sequence started on: 10-20-44-796
Integration time: 35
Scans to Average: 2 
>>>>>Begin Spectral Data<<<<<
432.953 .0323537
433.882 .0330107
434.810 .0277574
435.737 .0284187
436.662 .0316244
437.586 .0305462
438.509 .0304235
439.431 .0302709
440.351 .0302165
441.269 .0301231
442.187 .0299856
443.103 .0299308
444.018 .0299309
444.932 .0299908
445.844 .0300952
446.756 .0301956
447.666 .0302761
448.575 .0303542
449.482 .0304377
450.388 .0305445
451.294 .0306768
452.198 .0308358
453.100 .0310001
454.002 .0311712
454.902 .0313175
455.801 .0314289
456.699 .0314932
457.596 .0315206
458.492 .0315112
459.387 .0314738
460.280 .0314221
461.172 .0313660
462.064 .0313210
462.954 .0312925
463.843 .0312669
464.730 .0312476
465.617 .0312370
466.503 .0312232
467.387 .0312059
468.271 .0311850
469.153 .0311561
470.035 .0311235
470.915 .0310964
471.794 .0310732
472.673 .0310532
473.550 .0310384
474.426 .0310296
475.301 .0310229
476.175 .0310204
477.048 .0310128
477.920 .0310003
478.791 .0309819
479.661 .0309564
480.530 .0309221
481.398 .0308868
482.266 .0308508
483.132 .0308230
483.997 .0308055
484.861 .0308014
485.724 .0308068
486.587 .0308220
487.448 .0308418
488.308 .0308611
489.168 .0308719
490.026 .0308733
490.884 .0308630
491.741 .0308440
492.597 .0308161
493.452 .0307834
494.306 .0307470
495.159 .0307085
496.011 .0306636
496.862 .0306122
497.713 .0305493
498.562 .0304713
499.411 .0303767
500.259 .0302678
501.106 .0301502
501.952 .0300277
502.798 .0299091
503.642 .0297951
504.486 .0296870
505.329 .0295835
506.171 .0294807
507.012 .0293797
507.852 .0292819
508.692 .0291803
509.531 .0290792
510.369 .0289814
511.206 .0288910
512.043 .0288043
512.878 .0287243
513.713 .0286463
514.547 .0285692
515.381 .0284849
516.213 .0283937
517.045 .0282889
517.876 .0281757
518.706 .0280517
519.536 .0279178
520.365 .0277735
521.193 .0276163
522.020 .0274432
522.847 .0272616
523.673 .0270658
524.498 .0268628
525.323 .0266543
526.146 .0264482
526.969 .0262533
527.792 .0260636
528.614 .0258882
529.435 .0257277
530.255 .0255745
531.075 .0254236
531.894 .0252819
532.712 .0251474
533.530 .0250205
534.347 .0249127
535.163 .0248169
535.979 .0247374
536.794 .0246682
537.608 .0246029
538.422 .0245484
539.235 .0245021
540.048 .0244593
540.860 .0244095
541.671 .0243746
542.481 .0243489
543.292 .0243263
544.101 .0243164
544.910 .0243161
545.718 .0243206
546.526 .0243232
547.333 .0243194
548.139 .0243152
548.945 .0243149
549.750 .0243175
550.555 .0243309
551.359 .0243561
552.162 .0243922
552.965 .0244398
553.768 .0244952
554.569 .0245615
555.371 .0246239
556.171 .0246820
556.972 .0247390
557.771 .0247919
558.570 .0248477
559.369 .0249077
560.167 .0249858
560.964 .0250807
561.761 .0251848
562.558 .0252982
563.354 .0254211
564.149 .0255440
564.944 .0256632
565.738 .0257736
566.532 .0258763
567.325 .0259715
568.118 .0260617
568.910 .0261506
569.702 .0262439
570.494 .0263453
571.285 .0264505
572.075 .0265600
572.865 .0266753
573.654 .0267865
574.443 .0268932
575.232 .0269933
576.020 .0270859
576.807 .0271699
577.594 .0272485
578.381 .0273226
579.167 .0273933
579.952 .0274628
580.738 .0275333
581.522 .0276021
582.307 .0276726
583.091 .0277425
583.874 .0278107
584.657 .0278764
585.440 .0279383
586.222 .0279955
587.004 .0280471
587.785 .0280944
588.566 .0281352
589.346 .0281687
590.126 .0281970
590.906 .0282176
591.685 .0282336
592.464 .0282452
593.242 .0282537
594.020 .0282596
594.797 .0282646
595.575 .0282686
596.351 .0282702
597.128 .0282705
597.904 .0282702
598.679 .0282680
599.454 .0282639
600.229 .0282579
601.004 .0282499
601.778 .0282411
602.551 .0282324
603.325 .0282223
604.097 .0282126
604.870 .0282021
605.642 .0281907
606.414 .0281780
607.185 .0281641
607.956 .0281490
608.727 .0281323
609.497 .0281151
610.267 .0280966
611.037 .0280757
611.806 .0280525
612.575 .0280268
613.344 .0279988
614.112 .0279686
614.880 .0279370
615.647 .0279055
616.414 .0278753
617.181 .0278476
617.948 .0278232
618.714 .0278018
619.480 .0277829
620.245 .0277656
621.011 .0277485
621.775 .0277313
622.540 .0277148
623.304 .0276993
624.068 .0276857
624.832 .0276743
625.595 .0276643
626.358 .0276561
627.120 .0276498
627.883 .0276441
628.645 .0276379
629.406 .0276309
630.168 .0276227
630.929 .0276120
631.689 .0276005
632.450 .0275873
633.210 .0275735
633.970 .0275594
634.729 .0275448
635.489 .0275286
636.248 .0275121
637.006 .0274961
637.765 .0274806
638.523 .0274672
639.280 .0274559
640.038 .0274459
640.795 .0274384
641.552 .0274326
642.309 .0274290
643.065 .0274263
643.821 .0274251
644.577 .0274238
645.332 .0274218
646.088 .0274191
646.843 .0274147
647.597 .0274087
648.352 .0274008
649.106 .0273900
649.860 .0273752
650.613 .0273573
651.367 .0273372
652.120 .0273150
652.872 .0272918
653.625 .0272682
654.377 .0272445
655.129 .0272202
655.881 .0271963
656.632 .0271720
657.384 .0271476
658.135 .0271242
658.885 .0271012
659.636 .0270796
660.386 .0270600
661.136 .0270424
661.885 .0270273
662.635 .0270151
663.384 .0270057
664.133 .0269976
664.881 .0269908
665.630 .0269850
666.378 .0269790
667.126 .0269726
667.874 .0269658
668.621 .0269576
669.368 .0269491
670.115 .0269396
670.862 .0269291
671.608 .0269182
672.354 .0269079
673.100 .0268972
673.846 .0268865
674.591 .0268759
675.337 .0268648
676.082 .0268529
676.826 .0268409
677.571 .0268278
678.315 .0268138
679.059 .0267992
679.803 .0267844
680.547 .0267687
681.290 .0267531
682.033 .0267364
682.776 .0267199
683.518 .0267034
684.261 .0266868
685.003 .0266695
685.745 .0266520
686.487 .0266348
687.228 .0266175
687.969 .0265997
688.710 .0265821
689.451 .0265640
690.192 .0265457
690.932 .0265267
691.672 .0265077
692.412 .0264884
693.152 .0264699
693.891 .0264523
694.630 .0264360
695.369 .0264209
696.108 .0264073
696.846 .0263946
697.585 .0263830
698.323 .0263723
699.061 .0263619
699.798 .0263515
700.536 .0263420
701.273 .0263329
702.010 .0263241
702.746 .0263167
703.483 .0263102
704.219 .0263044
704.955 .0263000
705.691 .0262960
706.427 .0262918
707.162 .0262874
707.897 .0262820
708.632 .0262748
709.367 .0262662
710.101 .0262555
710.835 .0262428
711.569 .0262288
712.303 .0262136
713.037 .0261975
713.770 .0261814
714.503 .0261659
715.236 .0261511
715.969 .0261376
716.702 .0261246
717.434 .0261115
718.166 .0260989
718.898 .0260860
719.629 .0260733
720.361 .0260610
721.092 .0260497
721.823 .0260393
722.554 .0260302
723.284 .0260225
724.014 .0260155
724.744 .0260093
725.474 .0260023
726.204 .0259935
726.933 .0259834
727.662 .0259706
728.391 .0259554
729.120 .0259389
729.849 .0259213
730.577 .0259033
731.305 .0258850
732.033 .0258667
732.760 .0258480
733.488 .0258291
734.215 .0258096
734.942 .0257892
735.669 .0257678
736.395 .0257458
737.122 .0257233
737.848 .0257012
738.573 .0256798
739.299 .0256591
740.024 .0256397
740.750 .0256211
741.474 .0256030
742.199 .0255859
742.924 .0255683
743.648 .0255518
744.372 .0255357
745.096 .0255209
745.819 .0255065
746.543 .0254928
747.266 .0254805
747.989 .0254698
748.711 .0254601
749.434 .0254512
750.156 .0254435
750.878 .0254366
751.599 .0254304
752.321 .0254247
753.042 .0254197
753.763 .0254156
754.484 .0254113
755.205 .0254067
755.925 .0254013
756.645 .0253954
757.365 .0253880
758.085 .0253795
758.804 .0253699
759.523 .0253583
760.242 .0253448
760.961 .0253297
761.679 .0253135
762.397 .0252958
763.115 .0252771
763.833 .0252571
764.551 .0252364
765.268 .0252148
765.985 .0251923
766.702 .0251696
767.418 .0251474
768.134 .0251252
768.850 .0251031
769.566 .0250810
770.282 .0250597
770.997 .0250389
771.712 .0250196
772.427 .0250011
773.142 .0249842
773.856 .0249678
774.570 .0249527
775.284 .0249388
775.998 .0249262
776.711 .0249143
777.424 .0249034
778.137 .0248922
778.849 .0248803
779.562 .0248670
780.274 .0248530
780.986 .0248379
781.697 .0248225
782.409 .0248066
783.120 .0247907
783.831 .0247752
784.541 .0247605
785.252 .0247469
785.962 .0247347
786.671 .0247232
787.381 .0247120
788.090 .0247009
788.799 .0246897
789.508 .0246784
790.217 .0246673
790.925 .0246568
791.633 .0246472
792.341 .0246387
793.048 .0246314
793.755 .0246256
794.462 .0246214
795.169 .0246188
795.875 .0246172
796.581 .0246159
797.287 .0246139
797.993 .0246111
798.698 .0246070
799.403 .0246012
800.108 .0245943
800.812 .0245865
801.517 .0245779
802.221 .0245689
802.924 .0245605
803.628 .0245526
804.331 .0245462
805.034 .0245411
805.736 .0245365
806.439 .0245326
807.141 .0245291
807.843 .0245254
808.544 .0245217
809.245 .0245180
809.946 .0245142
810.647 .0245100
811.347 .0245064
812.047 .0245027
812.747 .0244995
813.447 .0244972
814.146 .0244957
814.845 .0244946
815.543 .0244938
816.242 .0244928
816.940 .0244918
817.638 .0244902
818.335 .0244876
819.032 .0244836
819.729 .0244786
820.426 .0244730
821.122 .0244665
821.818 .0244589
822.514 .0244509
823.209 .0244424
823.905 .0244340
824.599 .0244249
825.294 .0244160
825.988 .0244070
826.682 .0243981
827.376 .0243891
828.069 .0243796
828.762 .0243699
829.455 .0243594
830.147 .0243484
830.840 .0243372
831.531 .0243255
832.223 .0243140
832.914 .0243027
833.605 .0242922
834.296 .0242823
834.986 .0242726
835.676 .0242628
836.366 .0242530
837.055 .0242427
837.744 .0242313
838.433 .0242192
839.121 .0242065
839.809 .0241933
840.497 .0241793
841.185 .0241650
841.872 .0241503
842.559 .0241352
843.245 .0241202
843.932 .0241052
844.617 .0240906
845.303 .0240770
845.988 .0240643
846.673 .0240530
847.358 .0240436
848.042 .0240358
848.726 .0240292
849.410 .0240234
850.093 .0240180
850.776 .0240122
851.459 .0240058
852.141 .0239983
852.823 .0239898
853.505 .0239807
854.186 .0239712
854.867 .0239613
855.548 .0239511
856.228 .0239412
856.908 .0239309
857.588 .0239205
858.267 .0239096
858.946 .0238976
859.625 .0238849
860.303 .0238709
860.981 .0238558
861.659 .0238396
862.336 .0238232
863.013 .0238065
863.690 .0237898
864.366 .0237738
865.042 .0237581
865.718 .0237429
866.393 .0237284
867.068 .0237138
867.743 .0236989
868.417 .0236832
869.091 .0236670
869.765 .0236493
870.438 .0236311
871.111 .0236121
871.783 .0235926
872.456 .0235729
873.127 .0235533
873.799 .0235337
874.470 .0235145
875.141 .0234962
875.811 .0234784
876.481 .0234606
877.151 .0234433
877.820 .0234261
878.489 .0234091
879.158 .0233913
879.826 .0233738
880.494 .0233561
881.162 .0233382
881.829 .0233199
882.496 .0233010
883.163 .0232823
883.829 .0232641
884.495 .0232462
885.160 .0232291
885.825 .0232126
886.490 .0231978
887.154 .0231841
887.818 .0231715
888.482 .0231595
889.145 .0231483
889.808 .0231380
890.471 .0231287
891.133 .0231204
891.795 .0231136
892.456 .0231083
893.117 .0231048
893.778 .0231022
894.439 .0230998
895.099 .0230974
895.758 .0230945
896.417 .0230896
897.076 .0230831
897.735 .0230739
898.393 .0230630
899.051 .0230506
899.708 .0230377
900.365 .0230240
901.022 .0230104
901.678 .0229976
902.334 .0229847
902.990 .0229718
903.645 .0229595
904.300 .0229472
904.954 .0229355
905.608 .0229239
906.262 .0229130
906.915 .0229032
907.568 .0228957
908.221 .0228903
908.873 .0228870
909.525 .0228858
910.176 .0228857
910.828 .0228862
911.478 .0228869
912.129 .0228869
912.778 .0228860
913.428 .0228839
914.077 .0228801
914.726 .0228749
915.375 .0228686
916.023 .0228616
916.670 .0228547
917.318 .0228480
917.964 .0228414
918.611 .0228357
919.257 .0228311
919.903 .0228271
920.548 .0228236
921.193 .0228215
921.838 .0228196
922.482 .0228184
923.126 .0228177
923.770 .0228175
924.413 .0228180
925.056 .0228194
925.698 .0228219
926.340 .0228257
926.982 .0228309
927.623 .0228368
928.264 .0228423
928.904 .0228475
929.544 .0228516
930.184 .0228538
930.823 .0228544
931.462 .0228534
932.101 .0228508
932.739 .0228475
933.377 .0228436
934.014 .0228392
934.651 .0228347
935.288 .0228300
935.924 .0228249
936.560 .0228186
937.196 .0228115
937.831 .0228029
938.466 .0227937
939.100 .0227843
939.734 .0227748
940.368 .0227650
941.001 .0227559
941.634 .0227472
942.266 .0227387
942.899 .0227301
943.530 .0227214
944.162 .0227123
944.793 .0227035
945.423 .0226943
946.053 .0226854
946.683 .0226772
947.313 .0226709
947.942 .0226653
948.571 .0226611
949.199 .0226577
949.827 .0226546
950.455 .0226512
951.082 .0226475
951.709 .0226427
952.335 .0226374
952.961 .0226315
953.587 .0226256
954.212 .0226195
954.837 .0226133
955.462 .0226066
956.086 .0226003
956.710 .0225937
957.334 .0225868
957.957 .0225787
958.579 .0225705
959.202 .0225619
959.824 .0225531
960.445 .0225440
961.067 .0225356
961.688 .0225277
962.308 .0225208
962.928 .0225148
963.548 .0225100
964.168 .0225056
964.787 .0225021
965.406 .0224988
966.024 .0224953
966.642 .0224911
967.260 .0224863
967.877 .0224806
968.494 .0224746
969.110 .0224677
969.727 .0224605
970.342 .0224540
970.958 .0224488
971.573 .0224441
972.188 .0224406
972.802 .0224384
973.416 .0224368
974.030 .0224351
974.643 .0224336
975.256 .0224320
975.869 .0224305
976.481 .0224292
977.093 .0224284
977.705 .0224283
978.316 .0224290
978.927 .0224309
979.538 .0224336
980.148 .0224364
980.758 .0224382
981.367 .0224392
981.977 .0224396
982.586 .0224389
983.194 .0224371
983.802 .0224344
984.410 .0224310
985.018 .0224272
985.625 .0224225
986.232 .0224180
986.838 .0224140
987.445 .0224104
988.050 .0224065
988.656 .0224026
989.261 .0223982
989.866 .0223930
990.471 .0223868
991.075 .0223807
991.679 .0223739
992.282 .0223667
992.886 .0223590
993.489 .0223511
994.091 .0223433
994.694 .0223351
995.296 .0223266
995.897 .0223182
996.499 .0223091
997.100 .0222999
997.701 .0222906
998.301 .0222828
998.901 .0222762
999.501 .0222709
1000.101 .0222672
1000.700 .0222643
1001.299 .0222611
1001.898 .0222575
1002.496 .0222529
1003.094 .0222469
1003.692 .0222394
1004.289 .0222303
1004.887 .0222207
1005.484 .0222112
1006.080 .0222011
1006.677 .0221914
1007.273 .0221817
1007.868 .0221728
1008.464 .0221634
1009.059 .0221544
1009.654 .0221459
1010.249 .0221375
1010.843 .0221301
1011.437 .0221236
1012.031 .0221175
1012.625 .0221121
1013.218 .0221073
1013.811 .0221028
1014.404 .0220988
1014.997 .0220959
1015.589 .0220935
1016.181 .0220915
1016.773 .0220892
1017.365 .0220856
1017.956 .0220795
1018.547 .0220711
1019.138 .0220600
1019.728 .0220454
1020.319 .0220296
1020.909 .0220133
1021.499 .0219968
1022.088 .0219808
1022.678 .0219666
1023.267 .0219538
1023.856 .0219426
1024.445 .0219321
1025.033 .0219212
1025.621 .0219095
1026.209 .0218981
1026.797 .0218864
1027.385 .0218743
1027.972 .0218632
1028.560 .0218527
1029.147 .0218424
1029.734 .0218332
1030.320 .0218245
1030.907 .0218156
1031.493 .0218071
1032.079 .0217986
1032.665 .0217894
1033.250 .0217803
1033.836 .0217714
1034.421 .0217631
1035.006 .0217552
1035.591 .0217476
1036.176 .0217400
1036.761 .0217330
1037.345 .0217271
1037.929 .0217209
1038.514 .0217150
1039.097 .0217088
1039.681 .0217032
1040.265 .0216976
1040.848 .0216923
1041.432 .0216871
1042.015 .0216810
1042.598 .0216741
1043.181 .0216659
1043.764 .0216564
1044.346 .0216458
1044.929 .0216346
1045.511 .0216234
1046.094 .0216122
1046.676 .0216023
1047.258 .0215947
1047.840 .0215898
1048.422 .0215877
1049.003 .0215886
1049.585 .0215919
1050.166 .0215963
1050.748 .0216016
1051.329 .0216062
1051.910 .0216103
1052.491 .0216134
1053.072 .0216147
1053.653 .0216149
1054.234 .0216150
1054.815 .0216158
1055.396 .0216173
1055.976 .0216201
1056.557 .0216227
1057.138 .0216240
1057.718 .0216231
1058.298 .0216198
1058.879 .0216140
1059.459 .0216051
1060.039 .0215925
1060.620 .0215773
1061.200 .0215601
1061.780 .0215426
1062.360 .0215241
1062.940 .0215065
1063.520 .0214894
1064.101 .0214722
1064.681 .0214548
1065.261 .0214361
1065.841 .0214166
1066.421 .0213980
1067.001 .0213784
1067.581 .0213590
1068.161 .0213389
1068.741 .0213193
1069.321 .0213005
1069.901 .0212834
1070.482 .0212681
1071.062 .0212554
1071.642 .0212450
1072.222 .0212382
1072.803 .0212336
1073.383 .0212315
1073.963 .0212312
1074.544 .0212324
1075.124 .0212360
1075.705 .0212408
1076.286 .0212467
1076.866 .0212564
1077.447 .0212681
1078.028 .0212841
1078.609 .0212999
1079.190 .0213144
1079.771 .0213278
1080.352 .0213380
1080.934 .0213449
1081.515 .0213496
1082.097 .0213523
1082.679 .0213547
1083.260 .0213557
1083.842 .0213583
1084.424 .0213591
1085.007 .0213588
1085.589 .0213543
1086.172 .0213454
1086.754 .0213320
1087.337 .0213161
1087.920 .0212974
1088.503 .0212811
1089.087 .0212681
1089.670 .0212585
1090.254 .0212520
1090.838 .0212489
1091.422 .0212477
1092.006 .0212461
1092.590 .0212416
1093.175 .0212356
1093.760 .0212278
1094.345 .0212221
1094.930 .0212200
1095.516 .0212235
1096.102 .0212328
1096.688 .0212456
1097.274 .0212611
1097.860 .0212749
1098.447 .0212864
1099.034 .0212933
1099.622 .0212942
1100.209 .0212895
1100.797 .0212815
1101.385 .0212701
1101.973 .0212597
1102.562 .0212507
1103.151 .0212425
1103.740 .0212358
1104.330 .0212290
1104.920 .0212203
1105.510 .0212119
1106.101 .0212021
1106.691 .0211897
1107.283 .0211748
1107.874 .0211620
1108.466 .0211495
1109.058 .0211414
1109.651 .0211384
1110.244 .0211417
1110.837 .0211516
1111.431 .0211647
1112.025 .0211799
1112.620 .0211982
1113.215 .0212183
1113.810 .0212354
1114.406 .0212518
1115.002 .0212686
1115.599 .0212850
1116.196 .0213000
1116.793 .0213158
1117.391 .0213336
1117.989 .0213515
1118.588 .0213688
1119.187 .0213852
1119.787 .0214020
1120.387 .0214183
1120.988 .0214297
1121.589 .0214440
1122.190 .0214577
1122.793 .0214739
1123.395 .0214902
1123.998 .0215084
1124.602 .0215284
1125.206 .0215478
1125.811 .0215649
1126.416 .0215838
1127.022 .0216040
1127.628 .0216224
1128.235 .0216396
1128.843 .0216608
1129.451 .0216800
1130.059 .0216952
1130.669 .0217070
1131.278 .0217185
1131.889 .0217219
1132.500 .0217249
1133.112 .0217229
1133.724 .0217254
1134.337 .0217389
1134.950 .0217554
1135.564 .0217775
1136.179 .0218076
1136.795 .0218395
1137.411 .0218673
1138.028 .0218900
1138.645 .0219093
1139.263 .0219310
1139.882 .0219514
1140.502 .0219781
1141.122 .0220116
1141.743 .0220504
1142.365 .0220783
1142.987 .0221266
1143.611 .0223003
1144.235 .0223459
1144.859 .0221625
1145.485 .0217806
