Measurement Sequence started on: 10-20-44-796
Integration time: 35
Scans to Average: 2 
>>>>>Begin Spectral Data<<<<<
432.953 .0415940
433.882 .0369793
434.810 .0356458
435.737 .0359950
436.662 .0378197
437.586 .0384125
438.509 .0386098
439.431 .0389097
440.351 .0391517
441.269 .0392955
442.187 .0393412
443.103 .0393287
444.018 .0393050
444.932 .0392784
445.844 .0392617
446.756 .0392400
447.666 .0392207
448.575 .0392273
449.482 .0392593
450.388 .0393329
451.294 .0394333
452.198 .0395557
453.100 .0396939
454.002 .0398427
454.902 .0399887
455.801 .0401185
456.699 .0402363
457.596 .0403392
458.492 .0404142
459.387 .0404729
460.280 .0405061
461.172 .0405221
462.064 .0405113
462.954 .0404776
463.843 .0404178
464.730 .0403377
465.617 .0402482
466.503 .0401469
467.387 .0400393
468.271 .0399313
469.153 .0398252
470.035 .0397195
470.915 .0396213
471.794 .0395293
472.673 .0394395
473.550 .0393575
474.426 .0392861
475.301 .0392229
476.175 .0391694
477.048 .0391267
477.920 .0390913
478.791 .0390559
479.661 .0390225
480.530 .0389818
481.398 .0389393
482.266 .0388935
483.132 .0388448
483.997 .0387955
484.861 .0387540
485.724 .0387189
486.587 .0386891
487.448 .0386662
488.308 .0386472
489.168 .0386227
490.026 .0385937
490.884 .0385566
491.741 .0385111
492.597 .0384576
493.452 .0383987
494.306 .0383341
495.159 .0382687
496.011 .0382015
496.862 .0381359
497.713 .0380715
498.562 .0380051
499.411 .0379342
500.259 .0378589
501.106 .0377801
501.952 .0376975
502.798 .0376145
503.642 .0375344
504.486 .0374570
505.329 .0373835
506.171 .0373155
507.012 .0372544
507.852 .0371996
508.692 .0371455
509.531 .0370884
510.369 .0370318
511.206 .0369689
512.043 .0368964
512.878 .0368142
513.713 .0367242
514.547 .0366238
515.381 .0365104
516.213 .0363889
517.045 .0362577
517.876 .0361178
518.706 .0359679
519.536 .0358059
520.365 .0356335
521.193 .0354496
522.020 .0352555
522.847 .0350539
523.673 .0348521
524.498 .0346437
525.323 .0344313
526.146 .0342275
526.969 .0340344
527.792 .0338426
528.614 .0336539
529.435 .0334765
530.255 .0333022
531.075 .0331301
531.894 .0329604
532.712 .0327950
533.530 .0326373
534.347 .0324870
535.163 .0323436
535.979 .0322165
536.794 .0321161
537.608 .0320306
538.422 .0319581
539.235 .0319007
540.048 .0318457
540.860 .0317924
541.671 .0317397
542.481 .0316932
543.292 .0316477
544.101 .0316040
544.910 .0315690
545.718 .0315484
546.526 .0315453
547.333 .0315524
548.139 .0315715
548.945 .0316000
549.750 .0316304
550.555 .0316644
551.359 .0317000
552.162 .0317397
552.965 .0317838
553.768 .0318278
554.569 .0318712
555.371 .0319177
556.171 .0319672
556.972 .0320175
557.771 .0320714
558.570 .0321223
559.369 .0321681
560.167 .0322088
560.964 .0322481
561.761 .0322832
562.558 .0323189
563.354 .0323595
564.149 .0323999
564.944 .0324452
565.738 .0324951
566.532 .0325472
567.325 .0326032
568.118 .0326567
568.910 .0327080
569.702 .0327540
570.494 .0327978
571.285 .0328393
572.075 .0328823
572.865 .0329295
573.654 .0329793
574.443 .0330302
575.232 .0330830
576.020 .0331347
576.807 .0331847
577.594 .0332304
578.381 .0332719
579.167 .0333106
579.952 .0333471
580.738 .0333834
581.522 .0334226
582.307 .0334626
583.091 .0335053
583.874 .0335478
584.657 .0335890
585.440 .0336262
586.222 .0336587
587.004 .0336874
587.785 .0337134
588.566 .0337372
589.346 .0337589
590.126 .0337787
590.906 .0337983
591.685 .0338155
592.464 .0338300
593.242 .0338411
594.020 .0338492
594.797 .0338543
595.575 .0338565
596.351 .0338555
597.128 .0338532
597.904 .0338505
598.679 .0338471
599.454 .0338422
600.229 .0338362
601.004 .0338286
601.778 .0338183
602.551 .0338058
603.325 .0337902
604.097 .0337713
604.870 .0337496
605.642 .0337257
606.414 .0337004
607.185 .0336738
607.956 .0336463
608.727 .0336188
609.497 .0335911
610.267 .0335629
611.037 .0335338
611.806 .0335040
612.575 .0334736
613.344 .0334427
614.112 .0334104
614.880 .0333782
615.647 .0333460
616.414 .0333144
617.181 .0332843
617.948 .0332566
618.714 .0332308
619.480 .0332069
620.245 .0331850
621.011 .0331633
621.775 .0331411
622.540 .0331180
623.304 .0330933
624.068 .0330672
624.832 .0330395
625.595 .0330107
626.358 .0329812
627.120 .0329517
627.883 .0329216
628.645 .0328910
629.406 .0328599
630.168 .0328272
630.929 .0327928
631.689 .0327562
632.450 .0327175
633.210 .0326767
633.970 .0326346
634.729 .0325920
635.489 .0325496
636.248 .0325076
637.006 .0324665
637.765 .0324268
638.523 .0323887
639.280 .0323514
640.038 .0323154
640.795 .0322805
641.552 .0322461
642.309 .0322127
643.065 .0321793
643.821 .0321459
644.577 .0321121
645.332 .0320774
646.088 .0320420
646.843 .0320065
647.597 .0319710
648.352 .0319360
649.106 .0319028
649.860 .0318706
650.613 .0318391
651.367 .0318091
652.120 .0317803
652.872 .0317522
653.625 .0317247
654.377 .0316984
655.129 .0316730
655.881 .0316497
656.632 .0316287
657.384 .0316101
658.135 .0315946
658.885 .0315814
659.636 .0315692
660.386 .0315577
661.136 .0315461
661.885 .0315340
662.635 .0315211
663.384 .0315082
664.133 .0314941
664.881 .0314796
665.630 .0314652
666.378 .0314508
667.126 .0314360
667.874 .0314214
668.621 .0314065
669.368 .0313910
670.115 .0313753
670.862 .0313599
671.608 .0313451
672.354 .0313316
673.100 .0313189
673.846 .0313073
674.591 .0312965
675.337 .0312864
676.082 .0312763
676.826 .0312666
677.571 .0312566
678.315 .0312463
679.059 .0312359
679.803 .0312257
680.547 .0312154
681.290 .0312052
682.033 .0311947
682.776 .0311837
683.518 .0311716
684.261 .0311579
685.003 .0311432
685.745 .0311278
686.487 .0311118
687.228 .0310954
687.969 .0310797
688.710 .0310646
689.451 .0310499
690.192 .0310356
690.932 .0310206
691.672 .0310046
692.412 .0309876
693.152 .0309691
693.891 .0309494
694.630 .0309283
695.369 .0309070
696.108 .0308853
696.846 .0308634
697.585 .0308414
698.323 .0308193
699.061 .0307966
699.798 .0307730
700.536 .0307476
701.273 .0307207
702.010 .0306929
702.746 .0306645
703.483 .0306362
704.219 .0306089
704.955 .0305824
705.691 .0305567
706.427 .0305320
707.162 .0305086
707.897 .0304853
708.632 .0304620
709.367 .0304389
710.101 .0304155
710.835 .0303917
711.569 .0303677
712.303 .0303436
713.037 .0303200
713.770 .0302965
714.503 .0302729
715.236 .0302493
715.969 .0302264
716.702 .0302039
717.434 .0301816
718.166 .0301596
718.898 .0301372
719.629 .0301139
720.361 .0300894
721.092 .0300632
721.823 .0300352
722.554 .0300053
723.284 .0299740
724.014 .0299414
724.744 .0299081
725.474 .0298742
726.204 .0298404
726.933 .0298066
727.662 .0297725
728.391 .0297377
729.120 .0297023
729.849 .0296663
730.577 .0296301
731.305 .0295940
732.033 .0295585
732.760 .0295238
733.488 .0294907
734.215 .0294591
734.942 .0294290
735.669 .0293999
736.395 .0293721
737.122 .0293453
737.848 .0293191
738.573 .0292930
739.299 .0292673
740.024 .0292419
740.750 .0292168
741.474 .0291919
742.199 .0291675
742.924 .0291441
743.648 .0291222
744.372 .0291013
745.096 .0290825
745.819 .0290653
746.543 .0290494
747.266 .0290348
747.989 .0290218
748.711 .0290095
749.434 .0289978
750.156 .0289869
750.878 .0289767
751.599 .0289677
752.321 .0289596
753.042 .0289524
753.763 .0289466
754.484 .0289419
755.205 .0289371
755.925 .0289321
756.645 .0289269
757.365 .0289212
758.085 .0289148
758.804 .0289079
759.523 .0289003
760.242 .0288922
760.961 .0288836
761.679 .0288745
762.397 .0288646
763.115 .0288545
763.833 .0288430
764.551 .0288306
765.268 .0288169
765.985 .0288023
766.702 .0287868
767.418 .0287710
768.134 .0287549
768.850 .0287391
769.566 .0287232
770.282 .0287087
770.997 .0286950
771.712 .0286828
772.427 .0286716
773.142 .0286615
773.856 .0286518
774.570 .0286426
775.284 .0286335
775.998 .0286247
776.711 .0286165
777.424 .0286089
778.137 .0286018
778.849 .0285954
779.562 .0285898
780.274 .0285851
780.986 .0285813
781.697 .0285786
782.409 .0285761
783.120 .0285745
783.831 .0285733
784.541 .0285725
785.252 .0285725
785.962 .0285727
786.671 .0285729
787.381 .0285728
788.090 .0285727
788.799 .0285718
789.508 .0285707
790.217 .0285691
790.925 .0285671
791.633 .0285649
792.341 .0285620
793.048 .0285578
793.755 .0285521
794.462 .0285450
795.169 .0285362
795.875 .0285260
796.581 .0285155
797.287 .0285051
797.993 .0284954
798.698 .0284869
799.403 .0284800
800.108 .0284743
800.812 .0284694
801.517 .0284650
802.221 .0284605
802.924 .0284560
803.628 .0284515
804.331 .0284472
805.034 .0284436
805.736 .0284408
806.439 .0284383
807.141 .0284358
807.843 .0284330
808.544 .0284288
809.245 .0284233
809.946 .0284159
810.647 .0284072
811.347 .0283970
812.047 .0283862
812.747 .0283752
813.447 .0283638
814.146 .0283518
814.845 .0283388
815.543 .0283247
816.242 .0283096
816.940 .0282929
817.638 .0282755
818.335 .0282579
819.032 .0282410
819.729 .0282251
820.426 .0282102
821.122 .0281965
821.818 .0281833
822.514 .0281703
823.209 .0281569
823.905 .0281427
824.599 .0281277
825.294 .0281118
825.988 .0280952
826.682 .0280780
827.376 .0280606
828.069 .0280433
828.762 .0280262
829.455 .0280094
830.147 .0279925
830.840 .0279755
831.531 .0279585
832.223 .0279414
832.914 .0279235
833.605 .0279056
834.296 .0278877
834.986 .0278698
835.676 .0278520
836.366 .0278344
837.055 .0278174
837.744 .0278008
838.433 .0277843
839.121 .0277674
839.809 .0277501
840.497 .0277326
841.185 .0277142
841.872 .0276953
842.559 .0276758
843.245 .0276562
843.932 .0276369
844.617 .0276180
845.303 .0275995
845.988 .0275819
846.673 .0275651
847.358 .0275490
848.042 .0275329
848.726 .0275169
849.410 .0275005
850.093 .0274842
850.776 .0274678
851.459 .0274511
852.141 .0274336
852.823 .0274164
853.505 .0273985
854.186 .0273802
854.867 .0273610
855.548 .0273409
856.228 .0273198
856.908 .0272983
857.588 .0272756
858.267 .0272527
858.946 .0272296
859.625 .0272073
860.303 .0271857
860.981 .0271654
861.659 .0271461
862.336 .0271278
863.013 .0271100
863.690 .0270927
864.366 .0270747
865.042 .0270563
865.718 .0270367
866.393 .0270162
867.068 .0269950
867.743 .0269732
868.417 .0269510
869.091 .0269289
869.765 .0269063
870.438 .0268838
871.111 .0268611
871.783 .0268382
872.456 .0268152
873.127 .0267922
873.799 .0267694
874.470 .0267468
875.141 .0267244
875.811 .0267027
876.481 .0266818
877.151 .0266624
877.820 .0266440
878.489 .0266269
879.158 .0266111
879.826 .0265962
880.494 .0265820
881.162 .0265677
881.829 .0265532
882.496 .0265377
883.163 .0265217
883.829 .0265051
884.495 .0264882
885.160 .0264721
885.825 .0264572
886.490 .0264444
887.154 .0264336
887.818 .0264249
888.482 .0264178
889.145 .0264119
889.808 .0264069
890.471 .0264020
891.133 .0263973
891.795 .0263930
892.456 .0263894
893.117 .0263865
893.778 .0263847
894.439 .0263833
895.099 .0263818
895.758 .0263800
896.417 .0263768
897.076 .0263723
897.735 .0263659
898.393 .0263578
899.051 .0263484
899.708 .0263378
900.365 .0263268
901.022 .0263151
901.678 .0263036
902.334 .0262919
902.990 .0262798
903.645 .0262678
904.300 .0262561
904.954 .0262446
905.608 .0262333
906.262 .0262230
906.915 .0262136
907.568 .0262049
908.221 .0261964
908.873 .0261884
909.525 .0261808
910.176 .0261734
910.828 .0261662
911.478 .0261592
912.129 .0261527
912.778 .0261467
913.428 .0261410
914.077 .0261358
914.726 .0261309
915.375 .0261262
916.023 .0261215
916.670 .0261171
917.318 .0261129
917.964 .0261088
918.611 .0261051
919.257 .0261021
919.903 .0260995
920.548 .0260972
921.193 .0260957
921.838 .0260952
922.482 .0260958
923.126 .0260971
923.770 .0260989
924.413 .0261011
925.056 .0261033
925.698 .0261055
926.340 .0261069
926.982 .0261075
927.623 .0261069
928.264 .0261052
928.904 .0261024
929.544 .0260985
930.184 .0260936
930.823 .0260882
931.462 .0260822
932.101 .0260755
932.739 .0260679
933.377 .0260597
934.014 .0260504
934.651 .0260402
935.288 .0260288
935.924 .0260166
936.560 .0260036
937.196 .0259906
937.831 .0259779
938.466 .0259664
939.100 .0259562
939.734 .0259472
940.368 .0259391
941.001 .0259325
941.634 .0259263
942.266 .0259202
942.899 .0259141
943.530 .0259074
944.162 .0259000
944.793 .0258921
945.423 .0258835
946.053 .0258747
946.683 .0258661
947.313 .0258582
947.942 .0258501
948.571 .0258424
949.199 .0258346
949.827 .0258265
950.455 .0258186
951.082 .0258109
951.709 .0258033
952.335 .0257967
952.961 .0257908
953.587 .0257855
954.212 .0257808
954.837 .0257762
955.462 .0257723
956.086 .0257687
956.710 .0257656
957.334 .0257626
957.957 .0257596
958.579 .0257571
959.202 .0257544
959.824 .0257517
960.445 .0257486
961.067 .0257447
961.688 .0257404
962.308 .0257352
962.928 .0257293
963.548 .0257226
964.168 .0257153
964.787 .0257076
965.406 .0256996
966.024 .0256916
966.642 .0256834
967.260 .0256752
967.877 .0256677
968.494 .0256602
969.110 .0256528
969.727 .0256452
970.342 .0256369
970.958 .0256286
971.573 .0256203
972.188 .0256120
972.802 .0256041
973.416 .0255974
974.030 .0255916
974.643 .0255866
975.256 .0255830
975.869 .0255805
976.481 .0255788
977.093 .0255780
977.705 .0255776
978.316 .0255777
978.927 .0255783
979.538 .0255793
980.148 .0255808
980.758 .0255831
981.367 .0255854
981.977 .0255875
982.586 .0255898
983.194 .0255922
983.802 .0255940
984.410 .0255952
985.018 .0255957
985.625 .0255956
986.232 .0255946
986.838 .0255919
987.445 .0255877
988.050 .0255823
988.656 .0255754
989.261 .0255665
989.866 .0255571
990.471 .0255475
991.075 .0255382
991.679 .0255294
992.282 .0255214
992.886 .0255139
993.489 .0255070
994.091 .0255001
994.694 .0254938
995.296 .0254876
995.897 .0254807
996.499 .0254725
997.100 .0254641
997.701 .0254551
998.301 .0254455
998.901 .0254354
999.501 .0254262
1000.101 .0254170
1000.700 .0254083
1001.299 .0254001
1001.898 .0253929
1002.496 .0253862
1003.094 .0253790
1003.692 .0253710
1004.289 .0253618
1004.887 .0253515
1005.484 .0253404
1006.080 .0253287
1006.677 .0253181
1007.273 .0253087
1007.868 .0253010
1008.464 .0252956
1009.059 .0252925
1009.654 .0252913
1010.249 .0252915
1010.843 .0252924
1011.437 .0252933
1012.031 .0252936
1012.625 .0252938
1013.218 .0252939
1013.811 .0252943
1014.404 .0252953
1014.997 .0252974
1015.589 .0253003
1016.181 .0253042
1016.773 .0253084
1017.365 .0253127
1017.956 .0253165
1018.547 .0253194
1019.138 .0253203
1019.728 .0253190
1020.319 .0253152
1020.909 .0253091
1021.499 .0253002
1022.088 .0252897
1022.678 .0252769
1023.267 .0252627
1023.856 .0252472
1024.445 .0252313
1025.033 .0252142
1025.621 .0251968
1026.209 .0251789
1026.797 .0251603
1027.385 .0251413
1027.972 .0251229
1028.560 .0251048
1029.147 .0250876
1029.734 .0250719
1030.320 .0250582
1030.907 .0250453
1031.493 .0250338
1032.079 .0250226
1032.665 .0250122
1033.250 .0250020
1033.836 .0249922
1034.421 .0249825
1035.006 .0249744
1035.591 .0249672
1036.176 .0249612
1036.761 .0249563
1037.345 .0249519
1037.929 .0249467
1038.514 .0249405
1039.097 .0249326
1039.681 .0249233
1040.265 .0249121
1040.848 .0249010
1041.432 .0248900
1042.015 .0248806
1042.598 .0248715
1043.181 .0248634
1043.764 .0248557
1044.346 .0248479
1044.929 .0248384
1045.511 .0248273
1046.094 .0248140
1046.676 .0247994
1047.258 .0247836
1047.840 .0247679
1048.422 .0247524
1049.003 .0247386
1049.585 .0247254
1050.166 .0247136
1050.748 .0247010
1051.329 .0246874
1051.910 .0246722
1052.491 .0246567
1053.072 .0246406
1053.653 .0246252
1054.234 .0246109
1054.815 .0245987
1055.396 .0245885
1055.976 .0245807
1056.557 .0245732
1057.138 .0245660
1057.718 .0245575
1058.298 .0245484
1058.879 .0245377
1059.459 .0245266
1060.039 .0245149
1060.620 .0245045
1061.200 .0244948
1061.780 .0244856
1062.360 .0244750
1062.940 .0244637
1063.520 .0244497
1064.101 .0244322
1064.681 .0244101
1065.261 .0243854
1065.841 .0243581
1066.421 .0243312
1067.001 .0243045
1067.581 .0242801
1068.161 .0242572
1068.741 .0242368
1069.321 .0242174
1069.901 .0242009
1070.482 .0241847
1071.062 .0241697
1071.642 .0241554
1072.222 .0241431
1072.803 .0241323
1073.383 .0241243
1073.963 .0241188
1074.544 .0241158
1075.124 .0241133
1075.705 .0241117
1076.286 .0241091
1076.866 .0241076
1077.447 .0241049
1078.028 .0241025
1078.609 .0240983
1079.190 .0240919
1079.771 .0240819
1080.352 .0240694
1080.934 .0240547
1081.515 .0240386
1082.097 .0240211
1082.679 .0240030
1083.260 .0239847
1083.842 .0239669
1084.424 .0239495
1085.007 .0239322
1085.589 .0239145
1086.172 .0238953
1086.754 .0238742
1087.337 .0238522
1087.920 .0238302
1088.503 .0238096
1089.087 .0237913
1089.670 .0237757
1090.254 .0237615
1090.838 .0237473
1091.422 .0237340
1092.006 .0237200
1092.590 .0237067
1093.175 .0236936
1093.760 .0236831
1094.345 .0236755
1094.930 .0236712
1095.516 .0236701
1096.102 .0236733
1096.688 .0236799
1097.274 .0236882
1097.860 .0236966
1098.447 .0237059
1099.034 .0237161
1099.622 .0237268
1100.209 .0237405
1100.797 .0237569
1101.385 .0237755
1101.973 .0237979
1102.562 .0238201
1103.151 .0238439
1103.740 .0238664
1104.330 .0238875
1104.920 .0239080
1105.510 .0239284
1106.101 .0239502
1106.691 .0239714
1107.283 .0239946
1107.874 .0240191
1108.466 .0240425
1109.058 .0240663
1109.651 .0240882
1110.244 .0241086
1110.837 .0241288
1111.431 .0241467
1112.025 .0241621
1112.620 .0241775
1113.215 .0241906
1113.810 .0242018
1114.406 .0242128
1115.002 .0242197
1115.599 .0242218
1116.196 .0242185
1116.793 .0242097
1117.391 .0241948
1117.989 .0241742
1118.588 .0241511
1119.187 .0241254
1119.787 .0241031
1120.387 .0240824
1120.988 .0240617
1121.589 .0240466
1122.190 .0240353
1122.793 .0240267
1123.395 .0240230
1123.998 .0240248
1124.602 .0240347
1125.206 .0240545
1125.811 .0240825
1126.416 .0241173
1127.022 .0241612
1127.628 .0242118
1128.235 .0242689
1128.843 .0243307
1129.451 .0243990
1130.059 .0244696
1130.669 .0245442
1131.278 .0246215
1131.889 .0246958
1132.500 .0247700
1133.112 .0248392
1133.724 .0249020
1134.337 .0249615
1134.950 .0250132
1135.564 .0250636
1136.179 .0251151
1136.795 .0251722
1137.411 .0252364
1138.028 .0253096
1138.645 .0253904
1139.263 .0254796
1139.882 .0255828
1140.502 .0256897
1141.122 .0258043
1141.743 .0259377
1142.365 .0260960
1142.987 .0262412
1143.611 .0262555
1144.235 .0264961
1144.859 .0269535
1145.485 .0274415
