Measurement Sequence started on: 10-20-44-796
Integration time: 35
Scans to Average: 2 
>>>>>Begin Spectral Data<<<<<
432.953 .0687786
433.882 .0498383
434.810 .0476573
435.737 .0430659
436.662 .0378821
437.586 .0414373
438.509 .0396246
439.431 .0387249
440.351 .0380811
441.269 .0376652
442.187 .0374076
443.103 .0371389
444.018 .0369171
444.932 .0367494
445.844 .0366543
446.756 .0366135
447.666 .0366117
448.575 .0366217
449.482 .0366546
450.388 .0366805
451.294 .0367039
452.198 .0367321
453.100 .0367696
454.002 .0368116
454.902 .0368672
455.801 .0369162
456.699 .0369602
457.596 .0369895
458.492 .0370025
459.387 .0369996
460.280 .0369910
461.172 .0369698
462.064 .0369499
462.954 .0369308
463.843 .0369120
464.730 .0368839
465.617 .0368475
466.503 .0368001
467.387 .0367356
468.271 .0366580
469.153 .0365766
470.035 .0365000
470.915 .0364426
471.794 .0363923
472.673 .0363580
473.550 .0363399
474.426 .0363358
475.301 .0363403
476.175 .0363486
477.048 .0363567
477.920 .0363646
478.791 .0363678
479.661 .0363696
480.530 .0363735
481.398 .0363806
482.266 .0363872
483.132 .0363927
483.997 .0363951
484.861 .0363905
485.724 .0363819
486.587 .0363755
487.448 .0363636
488.308 .0363452
489.168 .0363235
490.026 .0362913
490.884 .0362537
491.741 .0362118
492.597 .0361645
493.452 .0361149
494.306 .0360643
495.159 .0360108
496.011 .0359533
496.862 .0359008
497.713 .0358502
498.562 .0357952
499.411 .0357391
500.259 .0356765
501.106 .0356051
501.952 .0355302
502.798 .0354575
503.642 .0353826
504.486 .0353137
505.329 .0352527
506.171 .0351931
507.012 .0351366
507.852 .0350816
508.692 .0350276
509.531 .0349670
510.369 .0348987
511.206 .0348165
512.043 .0347197
512.878 .0346163
513.713 .0345026
514.547 .0343779
515.381 .0342473
516.213 .0341138
517.045 .0339724
517.876 .0338217
518.706 .0336675
519.536 .0335085
520.365 .0333430
521.193 .0331631
522.020 .0329747
522.847 .0327833
523.673 .0325941
524.498 .0324141
525.323 .0322464
526.146 .0320969
526.969 .0319725
527.792 .0318695
528.614 .0317775
529.435 .0317127
530.255 .0316609
531.075 .0316054
531.894 .0315530
532.712 .0314961
533.530 .0314308
534.347 .0313579
535.163 .0312941
535.979 .0312284
536.794 .0311628
537.608 .0311158
538.422 .0310724
539.235 .0310421
540.048 .0310230
540.860 .0310043
541.671 .0309860
542.481 .0309676
543.292 .0309425
544.101 .0309019
544.910 .0308644
545.718 .0308240
546.526 .0307732
547.333 .0307190
548.139 .0306721
548.945 .0306230
549.750 .0305740
550.555 .0305316
551.359 .0304914
552.162 .0304554
552.965 .0304242
553.768 .0303947
554.569 .0303688
555.371 .0303415
556.171 .0303220
556.972 .0303019
557.771 .0302951
558.570 .0302992
559.369 .0303166
560.167 .0303507
560.964 .0303983
561.761 .0304512
562.558 .0305117
563.354 .0305800
564.149 .0306467
564.944 .0307061
565.738 .0307684
566.532 .0308287
567.325 .0308919
568.118 .0309558
568.910 .0310226
569.702 .0310922
570.494 .0311691
571.285 .0312445
572.075 .0313229
572.865 .0314062
573.654 .0314884
574.443 .0315693
575.232 .0316493
576.020 .0317252
576.807 .0317990
577.594 .0318678
578.381 .0319344
579.167 .0319954
579.952 .0320560
580.738 .0321129
581.522 .0321680
582.307 .0322207
583.091 .0322702
583.874 .0323156
584.657 .0323585
585.440 .0323977
586.222 .0324352
587.004 .0324732
587.785 .0325098
588.566 .0325456
589.346 .0325834
590.126 .0326201
590.906 .0326556
591.685 .0326885
592.464 .0327173
593.242 .0327409
594.020 .0327604
594.797 .0327755
595.575 .0327870
596.351 .0327983
597.128 .0328087
597.904 .0328186
598.679 .0328280
599.454 .0328348
600.229 .0328373
601.004 .0328358
601.778 .0328288
602.551 .0328152
603.325 .0327971
604.097 .0327768
604.870 .0327547
605.642 .0327338
606.414 .0327146
607.185 .0326979
607.956 .0326822
608.727 .0326668
609.497 .0326487
610.267 .0326275
611.037 .0326021
611.806 .0325722
612.575 .0325381
613.344 .0325027
614.112 .0324659
614.880 .0324304
615.647 .0323968
616.414 .0323666
617.181 .0323380
617.948 .0323123
618.714 .0322883
619.480 .0322659
620.245 .0322433
621.011 .0322217
621.775 .0322010
622.540 .0321813
623.304 .0321620
624.068 .0321446
624.832 .0321282
625.595 .0321140
626.358 .0321013
627.120 .0320905
627.883 .0320807
628.645 .0320724
629.406 .0320641
630.168 .0320555
630.929 .0320461
631.689 .0320352
632.450 .0320215
633.210 .0320061
633.970 .0319885
634.729 .0319681
635.489 .0319462
636.248 .0319232
637.006 .0318988
637.765 .0318739
638.523 .0318483
639.280 .0318217
640.038 .0317945
640.795 .0317667
641.552 .0317379
642.309 .0317078
643.065 .0316775
643.821 .0316461
644.577 .0316149
645.332 .0315851
646.088 .0315565
646.843 .0315300
647.597 .0315068
648.352 .0314857
649.106 .0314664
649.860 .0314479
650.613 .0314300
651.367 .0314123
652.120 .0313951
652.872 .0313777
653.625 .0313609
654.377 .0313461
655.129 .0313330
655.881 .0313214
656.632 .0313125
657.384 .0313043
658.135 .0312958
658.885 .0312860
659.636 .0312740
660.386 .0312594
661.136 .0312433
661.885 .0312256
662.635 .0312074
663.384 .0311901
664.133 .0311745
664.881 .0311601
665.630 .0311485
666.378 .0311383
667.126 .0311269
667.874 .0311144
668.621 .0310994
669.368 .0310815
670.115 .0310614
670.862 .0310399
671.608 .0310180
672.354 .0309974
673.100 .0309783
673.846 .0309608
674.591 .0309458
675.337 .0309333
676.082 .0309219
676.826 .0309111
677.571 .0309005
678.315 .0308894
679.059 .0308779
679.803 .0308663
680.547 .0308542
681.290 .0308427
682.033 .0308309
682.776 .0308190
683.518 .0308061
684.261 .0307916
685.003 .0307754
685.745 .0307578
686.487 .0307389
687.228 .0307191
687.969 .0306988
688.710 .0306781
689.451 .0306569
690.192 .0306346
690.932 .0306109
691.672 .0305853
692.412 .0305587
693.152 .0305303
693.891 .0305005
694.630 .0304714
695.369 .0304427
696.108 .0304155
696.846 .0303906
697.585 .0303673
698.323 .0303460
699.061 .0303251
699.798 .0303045
700.536 .0302834
701.273 .0302621
702.010 .0302399
702.746 .0302166
703.483 .0301933
704.219 .0301695
704.955 .0301452
705.691 .0301222
706.427 .0301001
707.162 .0300782
707.897 .0300570
708.632 .0300360
709.367 .0300148
710.101 .0299936
710.835 .0299713
711.569 .0299488
712.303 .0299261
713.037 .0299032
713.770 .0298800
714.503 .0298580
715.236 .0298378
715.969 .0298187
716.702 .0298015
717.434 .0297867
718.166 .0297726
718.898 .0297595
719.629 .0297462
720.361 .0297324
721.092 .0297176
721.823 .0297021
722.554 .0296857
723.284 .0296693
724.014 .0296528
724.744 .0296359
725.474 .0296187
726.204 .0296011
726.933 .0295825
727.662 .0295621
728.391 .0295400
729.120 .0295159
729.849 .0294895
730.577 .0294627
731.305 .0294356
732.033 .0294095
732.760 .0293846
733.488 .0293626
734.215 .0293430
734.942 .0293254
735.669 .0293092
736.395 .0292940
737.122 .0292789
737.848 .0292626
738.573 .0292453
739.299 .0292265
740.024 .0292073
740.750 .0291879
741.474 .0291690
742.199 .0291516
742.924 .0291357
743.648 .0291210
744.372 .0291069
745.096 .0290936
745.819 .0290796
746.543 .0290638
747.266 .0290471
747.989 .0290289
748.711 .0290113
749.434 .0289941
750.156 .0289799
750.878 .0289684
751.599 .0289617
752.321 .0289582
753.042 .0289579
753.763 .0289597
754.484 .0289621
755.205 .0289634
755.925 .0289636
756.645 .0289617
757.365 .0289581
758.085 .0289522
758.804 .0289459
759.523 .0289378
760.242 .0289288
760.961 .0289176
761.679 .0289047
762.397 .0288890
763.115 .0288706
763.833 .0288489
764.551 .0288251
765.268 .0287998
765.985 .0287738
766.702 .0287480
767.418 .0287232
768.134 .0286998
768.850 .0286776
769.566 .0286560
770.282 .0286349
770.997 .0286141
771.712 .0285934
772.427 .0285723
773.142 .0285519
773.856 .0285322
774.570 .0285133
775.284 .0284960
775.998 .0284804
776.711 .0284662
777.424 .0284531
778.137 .0284408
778.849 .0284284
779.562 .0284151
780.274 .0284012
780.986 .0283864
781.697 .0283714
782.409 .0283568
783.120 .0283430
783.831 .0283308
784.541 .0283208
785.252 .0283125
785.962 .0283055
786.671 .0282992
787.381 .0282925
788.090 .0282846
788.799 .0282753
789.508 .0282646
790.217 .0282531
790.925 .0282415
791.633 .0282300
792.341 .0282186
793.048 .0282075
793.755 .0281962
794.462 .0281843
795.169 .0281722
795.875 .0281591
796.581 .0281455
797.287 .0281321
797.993 .0281193
798.698 .0281079
799.403 .0280982
800.108 .0280901
800.812 .0280825
801.517 .0280753
802.221 .0280675
802.924 .0280582
803.628 .0280486
804.331 .0280388
805.034 .0280291
805.736 .0280206
806.439 .0280129
807.141 .0280057
807.843 .0279990
808.544 .0279917
809.245 .0279824
809.946 .0279713
810.647 .0279577
811.347 .0279417
812.047 .0279242
812.747 .0279074
813.447 .0278907
814.146 .0278755
814.845 .0278619
815.543 .0278486
816.242 .0278356
816.940 .0278232
817.638 .0278096
818.335 .0277960
819.032 .0277818
819.729 .0277675
820.426 .0277523
821.122 .0277375
821.818 .0277221
822.514 .0277063
823.209 .0276905
823.905 .0276741
824.599 .0276565
825.294 .0276391
825.988 .0276220
826.682 .0276059
827.376 .0275913
828.069 .0275784
828.762 .0275662
829.455 .0275549
830.147 .0275438
830.840 .0275324
831.531 .0275208
832.223 .0275100
832.914 .0274993
833.605 .0274893
834.296 .0274811
834.986 .0274743
835.676 .0274691
836.366 .0274648
837.055 .0274604
837.744 .0274550
838.433 .0274481
839.121 .0274389
839.809 .0274270
840.497 .0274135
841.185 .0273987
841.872 .0273827
842.559 .0273666
843.245 .0273505
843.932 .0273343
844.617 .0273187
845.303 .0273034
845.988 .0272878
846.673 .0272721
847.358 .0272563
848.042 .0272400
848.726 .0272233
849.410 .0272064
850.093 .0271892
850.776 .0271721
851.459 .0271559
852.141 .0271391
852.823 .0271224
853.505 .0271065
854.186 .0270912
854.867 .0270760
855.548 .0270615
856.228 .0270478
856.908 .0270348
857.588 .0270228
858.267 .0270110
858.946 .0269985
859.625 .0269866
860.303 .0269742
860.981 .0269606
861.659 .0269465
862.336 .0269323
863.013 .0269178
863.690 .0269039
864.366 .0268906
865.042 .0268775
865.718 .0268650
866.393 .0268530
867.068 .0268402
867.743 .0268268
868.417 .0268122
869.091 .0267956
869.765 .0267778
870.438 .0267592
871.111 .0267393
871.783 .0267197
872.456 .0267010
873.127 .0266836
873.799 .0266674
874.470 .0266528
875.141 .0266399
875.811 .0266282
876.481 .0266175
877.151 .0266073
877.820 .0265974
878.489 .0265886
879.158 .0265800
879.826 .0265719
880.494 .0265646
881.162 .0265575
881.829 .0265513
882.496 .0265450
883.163 .0265388
883.829 .0265324
884.495 .0265251
885.160 .0265172
885.825 .0265085
886.490 .0264995
887.154 .0264903
887.818 .0264812
888.482 .0264731
889.145 .0264661
889.808 .0264604
890.471 .0264561
891.133 .0264529
891.795 .0264509
892.456 .0264499
893.117 .0264493
893.778 .0264494
894.439 .0264497
895.099 .0264498
895.758 .0264489
896.417 .0264469
897.076 .0264438
897.735 .0264390
898.393 .0264332
899.051 .0264271
899.708 .0264203
900.365 .0264130
901.022 .0264051
901.678 .0263964
902.334 .0263872
902.990 .0263770
903.645 .0263651
904.300 .0263524
904.954 .0263390
905.608 .0263256
906.262 .0263125
906.915 .0263010
907.568 .0262907
908.221 .0262814
908.873 .0262723
909.525 .0262627
910.176 .0262523
910.828 .0262409
911.478 .0262284
912.129 .0262150
912.778 .0262013
913.428 .0261883
914.077 .0261769
914.726 .0261677
915.375 .0261599
916.023 .0261533
916.670 .0261462
917.318 .0261389
917.964 .0261307
918.611 .0261211
919.257 .0261107
919.903 .0261003
920.548 .0260905
921.193 .0260815
921.838 .0260732
922.482 .0260661
923.126 .0260601
923.770 .0260549
924.413 .0260487
925.056 .0260414
925.698 .0260331
926.340 .0260237
926.982 .0260135
927.623 .0260026
928.264 .0259919
928.904 .0259820
929.544 .0259726
930.184 .0259637
930.823 .0259558
931.462 .0259488
932.101 .0259409
932.739 .0259332
933.377 .0259242
934.014 .0259134
934.651 .0259009
935.288 .0258874
935.924 .0258729
936.560 .0258575
937.196 .0258418
937.831 .0258260
938.466 .0258104
939.100 .0257956
939.734 .0257805
940.368 .0257661
941.001 .0257522
941.634 .0257381
942.266 .0257234
942.899 .0257087
943.530 .0256929
944.162 .0256761
944.793 .0256584
945.423 .0256398
946.053 .0256199
946.683 .0255989
947.313 .0255777
947.942 .0255560
948.571 .0255342
949.199 .0255127
949.827 .0254909
950.455 .0254692
951.082 .0254475
951.709 .0254259
952.335 .0254039
952.961 .0253825
953.587 .0253618
954.212 .0253423
954.837 .0253249
955.462 .0253096
956.086 .0252968
956.710 .0252867
957.334 .0252788
957.957 .0252721
958.579 .0252664
959.202 .0252615
959.824 .0252564
960.445 .0252514
961.067 .0252466
961.688 .0252419
962.308 .0252375
962.928 .0252331
963.548 .0252283
964.168 .0252224
964.787 .0252149
965.406 .0252061
966.024 .0251961
966.642 .0251847
967.260 .0251728
967.877 .0251612
968.494 .0251506
969.110 .0251415
969.727 .0251325
970.342 .0251239
970.958 .0251150
971.573 .0251051
972.188 .0250938
972.802 .0250821
973.416 .0250709
974.030 .0250600
974.643 .0250506
975.256 .0250429
975.869 .0250365
976.481 .0250313
977.093 .0250266
977.705 .0250216
978.316 .0250151
978.927 .0250070
979.538 .0249973
980.148 .0249875
980.758 .0249791
981.367 .0249719
981.977 .0249673
982.586 .0249653
983.194 .0249646
983.802 .0249645
984.410 .0249641
985.018 .0249622
985.625 .0249582
986.232 .0249519
986.838 .0249435
987.445 .0249338
988.050 .0249246
988.656 .0249163
989.261 .0249091
989.866 .0249029
990.471 .0248966
991.075 .0248890
991.679 .0248807
992.282 .0248702
992.886 .0248584
993.489 .0248455
994.091 .0248322
994.694 .0248191
995.296 .0248080
995.897 .0247988
996.499 .0247917
997.100 .0247862
997.701 .0247820
998.301 .0247778
998.901 .0247744
999.501 .0247709
1000.101 .0247682
1000.700 .0247660
1001.299 .0247649
1001.898 .0247627
1002.496 .0247608
1003.094 .0247572
1003.692 .0247523
1004.289 .0247456
1004.887 .0247382
1005.484 .0247295
1006.080 .0247210
1006.677 .0247130
1007.273 .0247075
1007.868 .0247040
1008.464 .0247034
1009.059 .0247042
1009.654 .0247071
1010.249 .0247102
1010.843 .0247138
1011.437 .0247162
1012.031 .0247182
1012.625 .0247190
1013.218 .0247185
1013.811 .0247162
1014.404 .0247126
1014.997 .0247082
1015.589 .0247040
1016.181 .0246999
1016.773 .0246969
1017.365 .0246941
1017.956 .0246918
1018.547 .0246893
1019.138 .0246861
1019.728 .0246823
1020.319 .0246770
1020.909 .0246714
1021.499 .0246657
1022.088 .0246616
1022.678 .0246595
1023.267 .0246610
1023.856 .0246674
1024.445 .0246772
1025.033 .0246897
1025.621 .0247033
1026.209 .0247158
1026.797 .0247261
1027.385 .0247322
1027.972 .0247341
1028.560 .0247324
1029.147 .0247288
1029.734 .0247241
1030.320 .0247207
1030.907 .0247198
1031.493 .0247217
1032.079 .0247256
1032.665 .0247316
1033.250 .0247376
1033.836 .0247421
1034.421 .0247454
1035.006 .0247464
1035.591 .0247454
1036.176 .0247440
1036.761 .0247422
1037.345 .0247420
1037.929 .0247434
1038.514 .0247451
1039.097 .0247464
1039.681 .0247472
1040.265 .0247454
1040.848 .0247397
1041.432 .0247315
1042.015 .0247216
1042.598 .0247105
1043.181 .0246996
1043.764 .0246908
1044.346 .0246843
1044.929 .0246815
1045.511 .0246811
1046.094 .0246819
1046.676 .0246844
1047.258 .0246872
1047.840 .0246898
1048.422 .0246930
1049.003 .0246970
1049.585 .0247019
1050.166 .0247071
1050.748 .0247143
1051.329 .0247217
1051.910 .0247296
1052.491 .0247370
1053.072 .0247434
1053.653 .0247474
1054.234 .0247488
1054.815 .0247466
1055.396 .0247407
1055.976 .0247311
1056.557 .0247169
1057.138 .0246978
1057.718 .0246764
1058.298 .0246533
1058.879 .0246291
1059.459 .0246052
1060.039 .0245827
1060.620 .0245600
1061.200 .0245380
1061.780 .0245145
1062.360 .0244902
1062.940 .0244655
1063.520 .0244398
1064.101 .0244127
1064.681 .0243862
1065.261 .0243631
1065.841 .0243439
1066.421 .0243301
1067.001 .0243230
1067.581 .0243206
1068.161 .0243218
1068.741 .0243257
1069.321 .0243281
1069.901 .0243307
1070.482 .0243318
1071.062 .0243310
1071.642 .0243305
1072.222 .0243312
1072.803 .0243344
1073.383 .0243397
1073.963 .0243489
1074.544 .0243606
1075.124 .0243711
1075.705 .0243802
1076.286 .0243845
1076.866 .0243850
1077.447 .0243806
1078.028 .0243717
1078.609 .0243601
1079.190 .0243477
1079.771 .0243359
1080.352 .0243270
1080.934 .0243223
1081.515 .0243236
1082.097 .0243305
1082.679 .0243424
1083.260 .0243579
1083.842 .0243769
1084.424 .0243965
1085.007 .0244158
1085.589 .0244354
1086.172 .0244556
1086.754 .0244736
1087.337 .0244915
1087.920 .0245096
1088.503 .0245275
1089.087 .0245453
1089.670 .0245623
1090.254 .0245737
1090.838 .0245811
1091.422 .0245803
1092.006 .0245691
1092.590 .0245487
1093.175 .0245214
1093.760 .0244888
1094.345 .0244546
1094.930 .0244231
1095.516 .0243951
1096.102 .0243734
1096.688 .0243624
1097.274 .0243576
1097.860 .0243584
1098.447 .0243642
1099.034 .0243728
1099.622 .0243817
1100.209 .0243926
1100.797 .0244015
1101.385 .0244084
1101.973 .0244152
1102.562 .0244190
1103.151 .0244207
1103.740 .0244212
1104.330 .0244184
1104.920 .0244109
1105.510 .0244013
1106.101 .0243900
1106.691 .0243744
1107.283 .0243602
1107.874 .0243475
1108.466 .0243360
1109.058 .0243300
1109.651 .0243265
1110.244 .0243283
1110.837 .0243358
1111.431 .0243497
1112.025 .0243678
1112.620 .0243907
1113.215 .0244194
1113.810 .0244521
1114.406 .0244922
1115.002 .0245360
1115.599 .0245766
1116.196 .0246137
1116.793 .0246447
1117.391 .0246666
1117.989 .0246786
1118.588 .0246808
1119.187 .0246731
1119.787 .0246580
1120.387 .0246346
1120.988 .0246032
1121.589 .0245670
1122.190 .0245296
1122.793 .0244882
1123.395 .0244439
1123.998 .0243982
1124.602 .0243527
1125.206 .0243132
1125.811 .0242821
1126.416 .0242584
1127.022 .0242397
1127.628 .0242261
1128.235 .0242188
1128.843 .0242177
1129.451 .0242207
1130.059 .0242278
1130.669 .0242381
1131.278 .0242514
1131.889 .0242709
1132.500 .0242959
1133.112 .0243297
1133.724 .0243748
1134.337 .0244333
1134.950 .0244994
1135.564 .0245718
1136.179 .0246538
1136.795 .0247394
1137.411 .0248294
1138.028 .0249196
1138.645 .0250042
1139.263 .0250930
1139.882 .0251967
1140.502 .0253026
1141.122 .0254192
1141.743 .0255267
1142.365 .0256162
1142.987 .0260683
1143.611 .0258646
1144.235 .0261375
1144.859 .0256617
1145.485 .0254442
