Measurement Sequence started on: 10-20-44-796
Integration time: 35
Scans to Average: 2 
>>>>>Begin Spectral Data<<<<<
432.953 .0490240
433.882 .0439083
434.810 .0418599
435.737 .0415460
436.662 .0410032
437.586 .0408672
438.509 .0401685
439.431 .0396883
440.351 .0393020
441.269 .0389527
442.187 .0386513
443.103 .0383813
444.018 .0381924
444.932 .0380456
445.844 .0379308
446.756 .0378629
447.666 .0378392
448.575 .0378525
449.482 .0378963
450.388 .0379471
451.294 .0379978
452.198 .0380392
453.100 .0380727
454.002 .0380940
454.902 .0381107
455.801 .0381336
456.699 .0381613
457.596 .0381982
458.492 .0382440
459.387 .0382912
460.280 .0383370
461.172 .0383734
462.064 .0383915
462.954 .0383899
463.843 .0383695
464.730 .0383442
465.617 .0383151
466.503 .0382906
467.387 .0382704
468.271 .0382506
469.153 .0382366
470.035 .0382174
470.915 .0381916
471.794 .0381597
472.673 .0381214
473.550 .0380804
474.426 .0380412
475.301 .0380034
476.175 .0379663
477.048 .0379358
477.920 .0379042
478.791 .0378703
479.661 .0378304
480.530 .0377863
481.398 .0377338
482.266 .0376795
483.132 .0376272
483.997 .0375710
484.861 .0375172
485.724 .0374657
486.587 .0374106
487.448 .0373504
488.308 .0372817
489.168 .0372056
490.026 .0371227
490.884 .0370404
491.741 .0369554
492.597 .0368766
493.452 .0368059
494.306 .0367429
495.159 .0366835
496.011 .0366276
496.862 .0365699
497.713 .0365040
498.562 .0364280
499.411 .0363434
500.259 .0362500
501.106 .0361532
501.952 .0360573
502.798 .0359654
503.642 .0358764
504.486 .0357928
505.329 .0357103
506.171 .0356246
507.012 .0355339
507.852 .0354377
508.692 .0353335
509.531 .0352261
510.369 .0351200
511.206 .0350169
512.043 .0349211
512.878 .0348367
513.713 .0347612
514.547 .0346914
515.381 .0346263
516.213 .0345580
517.045 .0344832
517.876 .0343978
518.706 .0342996
519.536 .0341897
520.365 .0340781
521.193 .0339596
522.020 .0338330
522.847 .0337042
523.673 .0335728
524.498 .0334352
525.323 .0332905
526.146 .0331357
526.969 .0329728
527.792 .0328025
528.614 .0326306
529.435 .0324592
530.255 .0323016
531.075 .0321536
531.894 .0320198
532.712 .0318936
533.530 .0317670
534.347 .0316346
535.163 .0314945
535.979 .0313454
536.794 .0311856
537.608 .0310223
538.422 .0308638
539.235 .0307204
540.048 .0306037
540.860 .0305114
541.671 .0304479
542.481 .0304023
543.292 .0303669
544.101 .0303305
544.910 .0302956
545.718 .0302586
546.526 .0302242
547.333 .0301986
548.139 .0301875
548.945 .0301951
549.750 .0302158
550.555 .0302540
551.359 .0303015
552.162 .0303450
552.965 .0303798
553.768 .0304023
554.569 .0304193
555.371 .0304295
556.171 .0304439
556.972 .0304638
557.771 .0304928
558.570 .0305320
559.369 .0305763
560.167 .0306240
560.964 .0306748
561.761 .0307262
562.558 .0307755
563.354 .0308300
564.149 .0308888
564.944 .0309529
565.738 .0310275
566.532 .0311066
567.325 .0311921
568.118 .0312750
568.910 .0313566
569.702 .0314326
570.494 .0315083
571.285 .0315826
572.075 .0316555
572.865 .0317311
573.654 .0318096
574.443 .0318894
575.232 .0319711
576.020 .0320518
576.807 .0321298
577.594 .0322018
578.381 .0322680
579.167 .0323262
579.952 .0323818
580.738 .0324326
581.522 .0324816
582.307 .0325277
583.091 .0325727
583.874 .0326167
584.657 .0326576
585.440 .0326975
586.222 .0327344
587.004 .0327671
587.785 .0327947
588.566 .0328171
589.346 .0328354
590.126 .0328480
590.906 .0328569
591.685 .0328633
592.464 .0328669
593.242 .0328689
594.020 .0328697
594.797 .0328695
595.575 .0328680
596.351 .0328641
597.128 .0328559
597.904 .0328435
598.679 .0328273
599.454 .0328059
600.229 .0327800
601.004 .0327523
601.778 .0327221
602.551 .0326905
603.325 .0326584
604.097 .0326261
604.870 .0325925
605.642 .0325587
606.414 .0325235
607.185 .0324869
607.956 .0324494
608.727 .0324125
609.497 .0323756
610.267 .0323405
611.037 .0323069
611.806 .0322747
612.575 .0322443
613.344 .0322161
614.112 .0321875
614.880 .0321589
615.647 .0321297
616.414 .0321001
617.181 .0320693
617.948 .0320384
618.714 .0320079
619.480 .0319775
620.245 .0319475
621.011 .0319180
621.775 .0318878
622.540 .0318575
623.304 .0318266
624.068 .0317955
624.832 .0317634
625.595 .0317312
626.358 .0316992
627.120 .0316679
627.883 .0316378
628.645 .0316089
629.406 .0315810
630.168 .0315545
630.929 .0315285
631.689 .0315020
632.450 .0314751
633.210 .0314484
633.970 .0314212
634.729 .0313944
635.489 .0313680
636.248 .0313424
637.006 .0313176
637.765 .0312933
638.523 .0312693
639.280 .0312456
640.038 .0312220
640.795 .0311988
641.552 .0311756
642.309 .0311537
643.065 .0311333
643.821 .0311155
644.577 .0311009
645.332 .0310890
646.088 .0310792
646.843 .0310709
647.597 .0310628
648.352 .0310548
649.106 .0310461
649.860 .0310370
650.613 .0310274
651.367 .0310184
652.120 .0310098
652.872 .0310018
653.625 .0309944
654.377 .0309877
655.129 .0309803
655.881 .0309722
656.632 .0309627
657.384 .0309512
658.135 .0309388
658.885 .0309254
659.636 .0309110
660.386 .0308962
661.136 .0308811
661.885 .0308662
662.635 .0308514
663.384 .0308372
664.133 .0308233
664.881 .0308097
665.630 .0307969
666.378 .0307846
667.126 .0307728
667.874 .0307615
668.621 .0307499
669.368 .0307377
670.115 .0307248
670.862 .0307113
671.608 .0306965
672.354 .0306813
673.100 .0306660
673.846 .0306510
674.591 .0306359
675.337 .0306211
676.082 .0306065
676.826 .0305917
677.571 .0305765
678.315 .0305606
679.059 .0305435
679.803 .0305260
680.547 .0305075
681.290 .0304882
682.033 .0304679
682.776 .0304468
683.518 .0304243
684.261 .0304012
685.003 .0303776
685.745 .0303530
686.487 .0303279
687.228 .0303026
687.969 .0302770
688.710 .0302509
689.451 .0302241
690.192 .0301960
690.932 .0301668
691.672 .0301365
692.412 .0301048
693.152 .0300721
693.891 .0300392
694.630 .0300056
695.369 .0299721
696.108 .0299382
696.846 .0299042
697.585 .0298696
698.323 .0298355
699.061 .0298014
699.798 .0297678
700.536 .0297349
701.273 .0297032
702.010 .0296730
702.746 .0296448
703.483 .0296176
704.219 .0295913
704.955 .0295656
705.691 .0295403
706.427 .0295144
707.162 .0294888
707.897 .0294629
708.632 .0294376
709.367 .0294127
710.101 .0293886
710.835 .0293651
711.569 .0293423
712.303 .0293195
713.037 .0292964
713.770 .0292725
714.503 .0292479
715.236 .0292225
715.969 .0291967
716.702 .0291711
717.434 .0291454
718.166 .0291198
718.898 .0290945
719.629 .0290693
720.361 .0290449
721.092 .0290203
721.823 .0289959
722.554 .0289712
723.284 .0289461
724.014 .0289205
724.744 .0288940
725.474 .0288664
726.204 .0288381
726.933 .0288085
727.662 .0287784
728.391 .0287481
729.120 .0287187
729.849 .0286915
730.577 .0286672
731.305 .0286461
732.033 .0286284
732.760 .0286133
733.488 .0286007
734.215 .0285893
734.942 .0285786
735.669 .0285677
736.395 .0285564
737.122 .0285450
737.848 .0285338
738.573 .0285232
739.299 .0285137
740.024 .0285051
740.750 .0284977
741.474 .0284903
742.199 .0284823
742.924 .0284732
743.648 .0284628
744.372 .0284507
745.096 .0284378
745.819 .0284241
746.543 .0284105
747.266 .0283978
747.989 .0283865
748.711 .0283767
749.434 .0283687
750.156 .0283633
750.878 .0283600
751.599 .0283593
752.321 .0283607
753.042 .0283640
753.763 .0283691
754.484 .0283757
755.205 .0283828
755.925 .0283900
756.645 .0283972
757.365 .0284037
758.085 .0284091
758.804 .0284137
759.523 .0284169
760.242 .0284192
760.961 .0284201
761.679 .0284193
762.397 .0284161
763.115 .0284108
763.833 .0284029
764.551 .0283926
765.268 .0283797
765.985 .0283651
766.702 .0283492
767.418 .0283331
768.134 .0283168
768.850 .0283013
769.566 .0282869
770.282 .0282738
770.997 .0282615
771.712 .0282500
772.427 .0282381
773.142 .0282267
773.856 .0282150
774.570 .0282031
775.284 .0281910
775.998 .0281791
776.711 .0281680
777.424 .0281575
778.137 .0281477
778.849 .0281382
779.562 .0281289
780.274 .0281197
780.986 .0281097
781.697 .0280989
782.409 .0280874
783.120 .0280756
783.831 .0280641
784.541 .0280533
785.252 .0280439
785.962 .0280357
786.671 .0280289
787.381 .0280230
788.090 .0280179
788.799 .0280123
789.508 .0280058
790.217 .0279980
790.925 .0279887
791.633 .0279775
792.341 .0279646
793.048 .0279510
793.755 .0279364
794.462 .0279214
795.169 .0279062
795.875 .0278908
796.581 .0278756
797.287 .0278602
797.993 .0278449
798.698 .0278293
799.403 .0278131
800.108 .0277966
800.812 .0277794
801.517 .0277624
802.221 .0277453
802.924 .0277287
803.628 .0277131
804.331 .0276990
805.034 .0276858
805.736 .0276735
806.439 .0276618
807.141 .0276502
807.843 .0276380
808.544 .0276246
809.245 .0276099
809.946 .0275936
810.647 .0275760
811.347 .0275574
812.047 .0275376
812.747 .0275174
813.447 .0274963
814.146 .0274747
814.845 .0274526
815.543 .0274300
816.242 .0274070
816.940 .0273834
817.638 .0273597
818.335 .0273359
819.032 .0273122
819.729 .0272890
820.426 .0272663
821.122 .0272438
821.818 .0272216
822.514 .0271997
823.209 .0271778
823.905 .0271564
824.599 .0271353
825.294 .0271141
825.988 .0270931
826.682 .0270717
827.376 .0270494
828.069 .0270264
828.762 .0270024
829.455 .0269771
830.147 .0269511
830.840 .0269252
831.531 .0268996
832.223 .0268751
832.914 .0268517
833.605 .0268298
834.296 .0268093
834.986 .0267900
835.676 .0267709
836.366 .0267521
837.055 .0267339
837.744 .0267157
838.433 .0266977
839.121 .0266807
839.809 .0266641
840.497 .0266483
841.185 .0266331
841.872 .0266182
842.559 .0266034
843.245 .0265889
843.932 .0265744
844.617 .0265599
845.303 .0265454
845.988 .0265313
846.673 .0265170
847.358 .0265032
848.042 .0264895
848.726 .0264755
849.410 .0264615
850.093 .0264476
850.776 .0264334
851.459 .0264194
852.141 .0264056
852.823 .0263919
853.505 .0263781
854.186 .0263637
854.867 .0263484
855.548 .0263323
856.228 .0263153
856.908 .0262976
857.588 .0262795
858.267 .0262619
858.946 .0262447
859.625 .0262282
860.303 .0262129
860.981 .0261983
861.659 .0261846
862.336 .0261713
863.013 .0261582
863.690 .0261451
864.366 .0261323
865.042 .0261197
865.718 .0261077
866.393 .0260965
867.068 .0260863
867.743 .0260773
868.417 .0260691
869.091 .0260614
869.765 .0260539
870.438 .0260463
871.111 .0260383
871.783 .0260296
872.456 .0260204
873.127 .0260107
873.799 .0260011
874.470 .0259916
875.141 .0259831
875.811 .0259759
876.481 .0259700
877.151 .0259652
877.820 .0259613
878.489 .0259577
879.158 .0259536
879.826 .0259491
880.494 .0259440
881.162 .0259381
881.829 .0259323
882.496 .0259262
883.163 .0259207
883.829 .0259159
884.495 .0259120
885.160 .0259091
885.825 .0259073
886.490 .0259061
887.154 .0259049
887.818 .0259039
888.482 .0259028
889.145 .0259009
889.808 .0258989
890.471 .0258966
891.133 .0258943
891.795 .0258921
892.456 .0258905
893.117 .0258897
893.778 .0258899
894.439 .0258913
895.099 .0258934
895.758 .0258964
896.417 .0258996
897.076 .0259025
897.735 .0259050
898.393 .0259073
899.051 .0259095
899.708 .0259113
900.365 .0259134
901.022 .0259158
901.678 .0259184
902.334 .0259210
902.990 .0259234
903.645 .0259252
904.300 .0259257
904.954 .0259249
905.608 .0259220
906.262 .0259179
906.915 .0259128
907.568 .0259067
908.221 .0259007
908.873 .0258945
909.525 .0258885
910.176 .0258827
910.828 .0258776
911.478 .0258730
912.129 .0258688
912.778 .0258651
913.428 .0258617
914.077 .0258586
914.726 .0258557
915.375 .0258532
916.023 .0258516
916.670 .0258506
917.318 .0258503
917.964 .0258499
918.611 .0258497
919.257 .0258492
919.903 .0258482
920.548 .0258464
921.193 .0258437
921.838 .0258404
922.482 .0258364
923.126 .0258319
923.770 .0258276
924.413 .0258233
925.056 .0258195
925.698 .0258162
926.340 .0258134
926.982 .0258112
927.623 .0258100
928.264 .0258096
928.904 .0258100
929.544 .0258103
930.184 .0258105
930.823 .0258100
931.462 .0258090
932.101 .0258066
932.739 .0258031
933.377 .0257984
934.014 .0257930
934.651 .0257874
935.288 .0257821
935.924 .0257766
936.560 .0257715
937.196 .0257663
937.831 .0257601
938.466 .0257523
939.100 .0257425
939.734 .0257304
940.368 .0257168
941.001 .0257018
941.634 .0256861
942.266 .0256703
942.899 .0256549
943.530 .0256395
944.162 .0256241
944.793 .0256081
945.423 .0255904
946.053 .0255715
946.683 .0255511
947.313 .0255296
947.942 .0255077
948.571 .0254858
949.199 .0254644
949.827 .0254439
950.455 .0254246
951.082 .0254059
951.709 .0253884
952.335 .0253719
952.961 .0253557
953.587 .0253403
954.212 .0253254
954.837 .0253111
955.462 .0252976
956.086 .0252849
956.710 .0252723
957.334 .0252602
957.957 .0252485
958.579 .0252367
959.202 .0252253
959.824 .0252140
960.445 .0252027
961.067 .0251916
961.688 .0251812
962.308 .0251706
962.928 .0251603
963.548 .0251500
964.168 .0251390
964.787 .0251275
965.406 .0251155
966.024 .0251027
966.642 .0250895
967.260 .0250761
967.877 .0250628
968.494 .0250488
969.110 .0250352
969.727 .0250212
970.342 .0250072
970.958 .0249938
971.573 .0249798
972.188 .0249659
972.802 .0249524
973.416 .0249396
974.030 .0249272
974.643 .0249154
975.256 .0249045
975.869 .0248933
976.481 .0248827
977.093 .0248722
977.705 .0248619
978.316 .0248519
978.927 .0248422
979.538 .0248325
980.148 .0248222
980.758 .0248118
981.367 .0248005
981.977 .0247892
982.586 .0247774
983.194 .0247653
983.802 .0247527
984.410 .0247398
985.018 .0247273
985.625 .0247147
986.232 .0247032
986.838 .0246917
987.445 .0246802
988.050 .0246689
988.656 .0246579
989.261 .0246468
989.866 .0246348
990.471 .0246227
991.075 .0246092
991.679 .0245938
992.282 .0245768
992.886 .0245579
993.489 .0245384
994.091 .0245183
994.694 .0244981
995.296 .0244783
995.897 .0244594
996.499 .0244410
997.100 .0244231
997.701 .0244064
998.301 .0243901
998.901 .0243736
999.501 .0243576
1000.101 .0243424
1000.700 .0243282
1001.299 .0243153
1001.898 .0243041
1002.496 .0242951
1003.094 .0242882
1003.692 .0242832
1004.289 .0242790
1004.887 .0242760
1005.484 .0242734
1006.080 .0242706
1006.677 .0242672
1007.273 .0242626
1007.868 .0242566
1008.464 .0242499
1009.059 .0242421
1009.654 .0242342
1010.249 .0242263
1010.843 .0242194
1011.437 .0242135
1012.031 .0242080
1012.625 .0242021
1013.218 .0241954
1013.811 .0241865
1014.404 .0241765
1014.997 .0241643
1015.589 .0241505
1016.181 .0241354
1016.773 .0241204
1017.365 .0241061
1017.956 .0240932
1018.547 .0240813
1019.138 .0240703
1019.728 .0240600
1020.319 .0240493
1020.909 .0240375
1021.499 .0240251
1022.088 .0240132
1022.678 .0240010
1023.267 .0239894
1023.856 .0239789
1024.445 .0239686
1025.033 .0239593
1025.621 .0239503
1026.209 .0239409
1026.797 .0239305
1027.385 .0239187
1027.972 .0239058
1028.560 .0238919
1029.147 .0238779
1029.734 .0238642
1030.320 .0238510
1030.907 .0238392
1031.493 .0238279
1032.079 .0238168
1032.665 .0238073
1033.250 .0237987
1033.836 .0237907
1034.421 .0237834
1035.006 .0237767
1035.591 .0237706
1036.176 .0237649
1036.761 .0237608
1037.345 .0237576
1037.929 .0237553
1038.514 .0237535
1039.097 .0237517
1039.681 .0237501
1040.265 .0237488
1040.848 .0237475
1041.432 .0237462
1042.015 .0237447
1042.598 .0237416
1043.181 .0237374
1043.764 .0237331
1044.346 .0237284
1044.929 .0237236
1045.511 .0237187
1046.094 .0237143
1046.676 .0237096
1047.258 .0237054
1047.840 .0237016
1048.422 .0236988
1049.003 .0236970
1049.585 .0236947
1050.166 .0236926
1050.748 .0236903
1051.329 .0236879
1051.910 .0236856
1052.491 .0236830
1053.072 .0236805
1053.653 .0236766
1054.234 .0236734
1054.815 .0236693
1055.396 .0236654
1055.976 .0236616
1056.557 .0236570
1057.138 .0236521
1057.718 .0236459
1058.298 .0236376
1058.879 .0236281
1059.459 .0236177
1060.039 .0236067
1060.620 .0235935
1061.200 .0235803
1061.780 .0235664
1062.360 .0235523
1062.940 .0235389
1063.520 .0235270
1064.101 .0235164
1064.681 .0235080
1065.261 .0235020
1065.841 .0234977
1066.421 .0234954
1067.001 .0234937
1067.581 .0234933
1068.161 .0234928
1068.741 .0234918
1069.321 .0234903
1069.901 .0234889
1070.482 .0234880
1071.062 .0234864
1071.642 .0234849
1072.222 .0234845
1072.803 .0234837
1073.383 .0234826
1073.963 .0234809
1074.544 .0234789
1075.124 .0234760
1075.705 .0234724
1076.286 .0234687
1076.866 .0234668
1077.447 .0234651
1078.028 .0234632
1078.609 .0234620
1079.190 .0234617
1079.771 .0234607
1080.352 .0234585
1080.934 .0234559
1081.515 .0234518
1082.097 .0234471
1082.679 .0234428
1083.260 .0234389
1083.842 .0234364
1084.424 .0234358
1085.007 .0234355
1085.589 .0234355
1086.172 .0234351
1086.754 .0234328
1087.337 .0234302
1087.920 .0234289
1088.503 .0234284
1089.087 .0234292
1089.670 .0234324
1090.254 .0234383
1090.838 .0234469
1091.422 .0234593
1092.006 .0234731
1092.590 .0234865
1093.175 .0234992
1093.760 .0235089
1094.345 .0235143
1094.930 .0235154
1095.516 .0235136
1096.102 .0235090
1096.688 .0235018
1097.274 .0234909
1097.860 .0234776
1098.447 .0234631
1099.034 .0234494
1099.622 .0234354
1100.209 .0234238
1100.797 .0234141
1101.385 .0234061
1101.973 .0233990
1102.562 .0233926
1103.151 .0233868
1103.740 .0233818
1104.330 .0233775
1104.920 .0233753
1105.510 .0233748
1106.101 .0233777
1106.691 .0233856
1107.283 .0233982
1107.874 .0234155
1108.466 .0234362
1109.058 .0234563
1109.651 .0234737
1110.244 .0234876
1110.837 .0234970
1111.431 .0235030
1112.025 .0235089
1112.620 .0235181
1113.215 .0235308
1113.810 .0235493
1114.406 .0235727
1115.002 .0236008
1115.599 .0236316
1116.196 .0236621
1116.793 .0236862
1117.391 .0237070
1117.989 .0237219
1118.588 .0237329
1119.187 .0237410
1119.787 .0237511
1120.387 .0237630
1120.988 .0237756
1121.589 .0237899
1122.190 .0238044
1122.793 .0238188
1123.395 .0238349
1123.998 .0238514
1124.602 .0238702
1125.206 .0238903
1125.811 .0239150
1126.416 .0239442
1127.022 .0239816
1127.628 .0240232
1128.235 .0240670
1128.843 .0241106
1129.451 .0241536
1130.059 .0241935
1130.669 .0242285
1131.278 .0242606
1131.889 .0242878
1132.500 .0243135
1133.112 .0243347
1133.724 .0243543
1134.337 .0243755
1134.950 .0243956
1135.564 .0244201
1136.179 .0244482
1136.795 .0244826
1137.411 .0245271
1138.028 .0245831
1138.645 .0246561
1139.263 .0247405
1139.882 .0248436
1140.502 .0249638
1141.122 .0251059
1141.743 .0252810
1142.365 .0254703
1142.987 .0255840
1143.611 .0258348
1144.235 .0261458
1144.859 .0266466
1145.485 .0265508
