Measurement Sequence started on: 10-20-44-796
Integration time: 35
Scans to Average: 2 
>>>>>Begin Spectral Data<<<<<
432.953 .0384312
433.882 .0371109
434.810 .0408492
435.737 .0420101
436.662 .0409136
437.586 .0409596
438.509 .0410990
439.431 .0411540
440.351 .0410341
441.269 .0408526
442.187 .0406706
443.103 .0404338
444.018 .0401897
444.932 .0399448
445.844 .0396966
446.756 .0394458
447.666 .0392268
448.575 .0390394
449.482 .0388930
450.388 .0387870
451.294 .0387203
452.198 .0386828
453.100 .0386739
454.002 .0386791
454.902 .0386868
455.801 .0387017
456.699 .0387184
457.596 .0387375
458.492 .0387516
459.387 .0387706
460.280 .0387922
461.172 .0388142
462.064 .0388356
462.954 .0388458
463.843 .0388358
464.730 .0388073
465.617 .0387613
466.503 .0386924
467.387 .0386090
468.271 .0385163
469.153 .0384238
470.035 .0383319
470.915 .0382442
471.794 .0381598
472.673 .0380781
473.550 .0380035
474.426 .0379291
475.301 .0378502
476.175 .0377742
477.048 .0376970
477.920 .0376239
478.791 .0375538
479.661 .0374893
480.530 .0374268
481.398 .0373685
482.266 .0373116
483.132 .0372593
483.997 .0372094
484.861 .0371702
485.724 .0371430
486.587 .0371293
487.448 .0371258
488.308 .0371311
489.168 .0371418
490.026 .0371545
490.884 .0371635
491.741 .0371687
492.597 .0371643
493.452 .0371563
494.306 .0371439
495.159 .0371309
496.011 .0371178
496.862 .0371038
497.713 .0370773
498.562 .0370339
499.411 .0369664
500.259 .0368691
501.106 .0367454
501.952 .0366011
502.798 .0364426
503.642 .0362797
504.486 .0361213
505.329 .0359708
506.171 .0358311
507.012 .0357046
507.852 .0355843
508.692 .0354669
509.531 .0353466
510.369 .0352257
511.206 .0351080
512.043 .0349999
512.878 .0349048
513.713 .0348250
514.547 .0347633
515.381 .0347152
516.213 .0346764
517.045 .0346394
517.876 .0345939
518.706 .0345336
519.536 .0344502
520.365 .0343439
521.193 .0342174
522.020 .0340727
522.847 .0339164
523.673 .0337534
524.498 .0335808
525.323 .0333978
526.146 .0332106
526.969 .0330228
527.792 .0328358
528.614 .0326536
529.435 .0324728
530.255 .0322982
531.075 .0321310
531.894 .0319755
532.712 .0318279
533.530 .0316932
534.347 .0315738
535.163 .0314657
535.979 .0313754
536.794 .0313013
537.608 .0312463
538.422 .0312151
539.235 .0311956
540.048 .0311847
540.860 .0311687
541.671 .0311533
542.481 .0311376
543.292 .0311207
544.101 .0311035
544.910 .0310916
545.718 .0310844
546.526 .0310801
547.333 .0310797
548.139 .0310822
548.945 .0310816
549.750 .0310748
550.555 .0310607
551.359 .0310397
552.162 .0310134
552.965 .0309900
553.768 .0309725
554.569 .0309732
555.371 .0309887
556.171 .0310179
556.972 .0310590
557.771 .0311074
558.570 .0311587
559.369 .0312091
560.167 .0312596
560.964 .0313118
561.761 .0313659
562.558 .0314221
563.354 .0314848
564.149 .0315537
564.944 .0316286
565.738 .0317070
566.532 .0317865
567.325 .0318610
568.118 .0319278
568.910 .0319889
569.702 .0320443
570.494 .0320949
571.285 .0321409
572.075 .0321808
572.865 .0322194
573.654 .0322562
574.443 .0322920
575.232 .0323294
576.020 .0323702
576.807 .0324129
577.594 .0324560
578.381 .0325018
579.167 .0325482
579.952 .0325936
580.738 .0326360
581.522 .0326729
582.307 .0327039
583.091 .0327301
583.874 .0327508
584.657 .0327691
585.440 .0327872
586.222 .0328036
587.004 .0328195
587.785 .0328359
588.566 .0328494
589.346 .0328604
590.126 .0328665
590.906 .0328674
591.685 .0328609
592.464 .0328476
593.242 .0328299
594.020 .0328100
594.797 .0327914
595.575 .0327739
596.351 .0327584
597.128 .0327475
597.904 .0327385
598.679 .0327306
599.454 .0327224
600.229 .0327136
601.004 .0327023
601.778 .0326888
602.551 .0326729
603.325 .0326558
604.097 .0326378
604.870 .0326205
605.642 .0326039
606.414 .0325883
607.185 .0325727
607.956 .0325575
608.727 .0325428
609.497 .0325290
610.267 .0325143
611.037 .0324995
611.806 .0324845
612.575 .0324700
613.344 .0324543
614.112 .0324383
614.880 .0324219
615.647 .0324051
616.414 .0323876
617.181 .0323701
617.948 .0323531
618.714 .0323368
619.480 .0323210
620.245 .0323057
621.011 .0322897
621.775 .0322736
622.540 .0322554
623.304 .0322358
624.068 .0322154
624.832 .0321935
625.595 .0321704
626.358 .0321477
627.120 .0321255
627.883 .0321040
628.645 .0320827
629.406 .0320615
630.168 .0320395
630.929 .0320164
631.689 .0319916
632.450 .0319651
633.210 .0319379
633.970 .0319102
634.729 .0318814
635.489 .0318521
636.248 .0318223
637.006 .0317911
637.765 .0317580
638.523 .0317229
639.280 .0316860
640.038 .0316469
640.795 .0316066
641.552 .0315668
642.309 .0315288
643.065 .0314934
643.821 .0314608
644.577 .0314309
645.332 .0314031
646.088 .0313766
646.843 .0313500
647.597 .0313227
648.352 .0312954
649.106 .0312674
649.860 .0312383
650.613 .0312089
651.367 .0311797
652.120 .0311512
652.872 .0311232
653.625 .0310949
654.377 .0310660
655.129 .0310363
655.881 .0310058
656.632 .0309745
657.384 .0309436
658.135 .0309135
658.885 .0308835
659.636 .0308546
660.386 .0308266
661.136 .0307991
661.885 .0307730
662.635 .0307478
663.384 .0307239
664.133 .0307020
664.881 .0306812
665.630 .0306615
666.378 .0306436
667.126 .0306272
667.874 .0306108
668.621 .0305940
669.368 .0305769
670.115 .0305590
670.862 .0305409
671.608 .0305236
672.354 .0305072
673.100 .0304924
673.846 .0304790
674.591 .0304666
675.337 .0304553
676.082 .0304447
676.826 .0304345
677.571 .0304249
678.315 .0304162
679.059 .0304083
679.803 .0304014
680.547 .0303958
681.290 .0303914
682.033 .0303873
682.776 .0303826
683.518 .0303765
684.261 .0303688
685.003 .0303596
685.745 .0303487
686.487 .0303368
687.228 .0303247
687.969 .0303128
688.710 .0303012
689.451 .0302894
690.192 .0302773
690.932 .0302643
691.672 .0302505
692.412 .0302356
693.152 .0302195
693.891 .0302035
694.630 .0301877
695.369 .0301734
696.108 .0301606
696.846 .0301494
697.585 .0301391
698.323 .0301299
699.061 .0301213
699.798 .0301122
700.536 .0301029
701.273 .0300932
702.010 .0300828
702.746 .0300719
703.483 .0300600
704.219 .0300469
704.955 .0300330
705.691 .0300184
706.427 .0300019
707.162 .0299844
707.897 .0299658
708.632 .0299460
709.367 .0299253
710.101 .0299042
710.835 .0298823
711.569 .0298599
712.303 .0298368
713.037 .0298138
713.770 .0297907
714.503 .0297680
715.236 .0297458
715.969 .0297245
716.702 .0297043
717.434 .0296849
718.166 .0296657
718.898 .0296465
719.629 .0296266
720.361 .0296055
721.092 .0295823
721.823 .0295573
722.554 .0295301
723.284 .0295010
724.014 .0294701
724.744 .0294379
725.474 .0294037
726.204 .0293689
726.933 .0293335
727.662 .0292970
728.391 .0292600
729.120 .0292225
729.849 .0291845
730.577 .0291468
731.305 .0291091
732.033 .0290717
732.760 .0290350
733.488 .0289997
734.215 .0289652
734.942 .0289323
735.669 .0289008
736.395 .0288709
737.122 .0288424
737.848 .0288152
738.573 .0287885
739.299 .0287628
740.024 .0287380
740.750 .0287142
741.474 .0286918
742.199 .0286705
742.924 .0286505
743.648 .0286323
744.372 .0286152
745.096 .0285993
745.819 .0285840
746.543 .0285694
747.266 .0285550
747.989 .0285409
748.711 .0285271
749.434 .0285136
750.156 .0285010
750.878 .0284891
751.599 .0284774
752.321 .0284664
753.042 .0284558
753.763 .0284452
754.484 .0284348
755.205 .0284248
755.925 .0284153
756.645 .0284065
757.365 .0283984
758.085 .0283909
758.804 .0283840
759.523 .0283774
760.242 .0283704
760.961 .0283629
761.679 .0283553
762.397 .0283470
763.115 .0283381
763.833 .0283293
764.551 .0283200
765.268 .0283102
765.985 .0283000
766.702 .0282893
767.418 .0282781
768.134 .0282663
768.850 .0282542
769.566 .0282421
770.282 .0282306
770.997 .0282197
771.712 .0282092
772.427 .0282003
773.142 .0281925
773.856 .0281853
774.570 .0281786
775.284 .0281725
775.998 .0281666
776.711 .0281614
777.424 .0281565
778.137 .0281518
778.849 .0281475
779.562 .0281437
780.274 .0281395
780.986 .0281357
781.697 .0281324
782.409 .0281294
783.120 .0281274
783.831 .0281269
784.541 .0281277
785.252 .0281305
785.962 .0281346
786.671 .0281402
787.381 .0281465
788.090 .0281532
788.799 .0281594
789.508 .0281655
790.217 .0281710
790.925 .0281758
791.633 .0281798
792.341 .0281833
793.048 .0281857
793.755 .0281869
794.462 .0281861
795.169 .0281836
795.875 .0281793
796.581 .0281731
797.287 .0281654
797.993 .0281568
798.698 .0281473
799.403 .0281375
800.108 .0281275
800.812 .0281174
801.517 .0281071
802.221 .0280968
802.924 .0280868
803.628 .0280770
804.331 .0280680
805.034 .0280594
805.736 .0280513
806.439 .0280439
807.141 .0280365
807.843 .0280287
808.544 .0280201
809.245 .0280106
809.946 .0280000
810.647 .0279889
811.347 .0279778
812.047 .0279670
812.747 .0279573
813.447 .0279486
814.146 .0279403
814.845 .0279326
815.543 .0279248
816.242 .0279172
816.940 .0279089
817.638 .0278999
818.335 .0278901
819.032 .0278794
819.729 .0278681
820.426 .0278557
821.122 .0278421
821.818 .0278270
822.514 .0278099
823.209 .0277908
823.905 .0277693
824.599 .0277459
825.294 .0277214
825.988 .0276957
826.682 .0276692
827.376 .0276421
828.069 .0276146
828.762 .0275869
829.455 .0275589
830.147 .0275306
830.840 .0275026
831.531 .0274750
832.223 .0274486
832.914 .0274235
833.605 .0274003
834.296 .0273792
834.986 .0273597
835.676 .0273420
836.366 .0273255
837.055 .0273096
837.744 .0272940
838.433 .0272782
839.121 .0272624
839.809 .0272458
840.497 .0272294
841.185 .0272128
841.872 .0271961
842.559 .0271798
843.245 .0271633
843.932 .0271464
844.617 .0271293
845.303 .0271118
845.988 .0270931
846.673 .0270737
847.358 .0270534
848.042 .0270320
848.726 .0270096
849.410 .0269865
850.093 .0269628
850.776 .0269384
851.459 .0269137
852.141 .0268884
852.823 .0268628
853.505 .0268375
854.186 .0268121
854.867 .0267875
855.548 .0267636
856.228 .0267409
856.908 .0267187
857.588 .0266974
858.267 .0266769
858.946 .0266569
859.625 .0266373
860.303 .0266181
860.981 .0265994
861.659 .0265815
862.336 .0265641
863.013 .0265475
863.690 .0265311
864.366 .0265154
865.042 .0265002
865.718 .0264855
866.393 .0264710
867.068 .0264564
867.743 .0264411
868.417 .0264253
869.091 .0264089
869.765 .0263919
870.438 .0263740
871.111 .0263562
871.783 .0263384
872.456 .0263207
873.127 .0263039
873.799 .0262884
874.470 .0262739
875.141 .0262609
875.811 .0262482
876.481 .0262356
877.151 .0262234
877.820 .0262116
878.489 .0262001
879.158 .0261893
879.826 .0261796
880.494 .0261706
881.162 .0261626
881.829 .0261554
882.496 .0261483
883.163 .0261413
883.829 .0261344
884.495 .0261268
885.160 .0261193
885.825 .0261121
886.490 .0261057
887.154 .0261012
887.818 .0260984
888.482 .0260968
889.145 .0260961
889.808 .0260963
890.471 .0260967
891.133 .0260974
891.795 .0260986
892.456 .0261003
893.117 .0261031
893.778 .0261074
894.439 .0261122
895.099 .0261178
895.758 .0261237
896.417 .0261292
897.076 .0261334
897.735 .0261366
898.393 .0261384
899.051 .0261395
899.708 .0261399
900.365 .0261400
901.022 .0261399
901.678 .0261400
902.334 .0261402
902.990 .0261405
903.645 .0261406
904.300 .0261410
904.954 .0261411
905.608 .0261413
906.262 .0261415
906.915 .0261423
907.568 .0261430
908.221 .0261446
908.873 .0261465
909.525 .0261490
910.176 .0261517
910.828 .0261549
911.478 .0261581
912.129 .0261609
912.778 .0261632
913.428 .0261643
914.077 .0261637
914.726 .0261621
915.375 .0261592
916.023 .0261560
916.670 .0261531
917.318 .0261510
917.964 .0261496
918.611 .0261492
919.257 .0261494
919.903 .0261494
920.548 .0261488
921.193 .0261478
921.838 .0261459
922.482 .0261437
923.126 .0261419
923.770 .0261409
924.413 .0261413
925.056 .0261434
925.698 .0261467
926.340 .0261504
926.982 .0261542
927.623 .0261569
928.264 .0261580
928.904 .0261579
929.544 .0261566
930.184 .0261546
930.823 .0261526
931.462 .0261511
932.101 .0261499
932.739 .0261492
933.377 .0261481
934.014 .0261463
934.651 .0261431
935.288 .0261380
935.924 .0261308
936.560 .0261219
937.196 .0261122
937.831 .0261017
938.466 .0260909
939.100 .0260805
939.734 .0260698
940.368 .0260590
941.001 .0260477
941.634 .0260357
942.266 .0260230
942.899 .0260089
943.530 .0259940
944.162 .0259781
944.793 .0259619
945.423 .0259455
946.053 .0259289
946.683 .0259128
947.313 .0258966
947.942 .0258800
948.571 .0258630
949.199 .0258453
949.827 .0258275
950.455 .0258093
951.082 .0257914
951.709 .0257740
952.335 .0257575
952.961 .0257419
953.587 .0257273
954.212 .0257135
954.837 .0257006
955.462 .0256883
956.086 .0256765
956.710 .0256656
957.334 .0256555
957.957 .0256460
958.579 .0256371
959.202 .0256283
959.824 .0256190
960.445 .0256088
961.067 .0255977
961.688 .0255852
962.308 .0255717
962.928 .0255572
963.548 .0255417
964.168 .0255258
964.787 .0255091
965.406 .0254916
966.024 .0254731
966.642 .0254538
967.260 .0254333
967.877 .0254120
968.494 .0253901
969.110 .0253676
969.727 .0253454
970.342 .0253239
970.958 .0253035
971.573 .0252843
972.188 .0252663
972.802 .0252492
973.416 .0252331
974.030 .0252175
974.643 .0252023
975.256 .0251877
975.869 .0251736
976.481 .0251597
977.093 .0251463
977.705 .0251337
978.316 .0251215
978.927 .0251098
979.538 .0250986
980.148 .0250877
980.758 .0250771
981.367 .0250663
981.977 .0250551
982.586 .0250436
983.194 .0250316
983.802 .0250190
984.410 .0250053
985.018 .0249915
985.625 .0249774
986.232 .0249630
986.838 .0249489
987.445 .0249348
988.050 .0249201
988.656 .0249053
989.261 .0248898
989.866 .0248731
990.471 .0248554
991.075 .0248367
991.679 .0248166
992.282 .0247960
992.886 .0247750
993.489 .0247538
994.091 .0247330
994.694 .0247139
995.296 .0246955
995.897 .0246781
996.499 .0246619
997.100 .0246466
997.701 .0246318
998.301 .0246175
998.901 .0246038
999.501 .0245904
1000.101 .0245781
1000.700 .0245671
1001.299 .0245569
1001.898 .0245481
1002.496 .0245399
1003.094 .0245318
1003.692 .0245230
1004.289 .0245130
1004.887 .0245001
1005.484 .0244846
1006.080 .0244678
1006.677 .0244490
1007.273 .0244287
1007.868 .0244081
1008.464 .0243887
1009.059 .0243702
1009.654 .0243536
1010.249 .0243385
1010.843 .0243249
1011.437 .0243126
1012.031 .0243007
1012.625 .0242896
1013.218 .0242797
1013.811 .0242715
1014.404 .0242653
1014.997 .0242614
1015.589 .0242602
1016.181 .0242603
1016.773 .0242622
1017.365 .0242656
1017.956 .0242693
1018.547 .0242722
1019.138 .0242735
1019.728 .0242735
1020.319 .0242715
1020.909 .0242677
1021.499 .0242624
1022.088 .0242558
1022.678 .0242477
1023.267 .0242378
1023.856 .0242258
1024.445 .0242120
1025.033 .0241972
1025.621 .0241807
1026.209 .0241634
1026.797 .0241454
1027.385 .0241272
1027.972 .0241098
1028.560 .0240929
1029.147 .0240771
1029.734 .0240618
1030.320 .0240473
1030.907 .0240335
1031.493 .0240204
1032.079 .0240086
1032.665 .0239983
1033.250 .0239907
1033.836 .0239854
1034.421 .0239817
1035.006 .0239798
1035.591 .0239788
1036.176 .0239785
1036.761 .0239781
1037.345 .0239771
1037.929 .0239749
1038.514 .0239724
1039.097 .0239698
1039.681 .0239670
1040.265 .0239647
1040.848 .0239628
1041.432 .0239620
1042.015 .0239618
1042.598 .0239609
1043.181 .0239593
1043.764 .0239574
1044.346 .0239559
1044.929 .0239539
1045.511 .0239529
1046.094 .0239527
1046.676 .0239542
1047.258 .0239574
1047.840 .0239614
1048.422 .0239657
1049.003 .0239696
1049.585 .0239725
1050.166 .0239739
1050.748 .0239728
1051.329 .0239694
1051.910 .0239643
1052.491 .0239590
1053.072 .0239534
1053.653 .0239478
1054.234 .0239418
1054.815 .0239358
1055.396 .0239298
1055.976 .0239226
1056.557 .0239137
1057.138 .0239038
1057.718 .0238937
1058.298 .0238840
1058.879 .0238759
1059.459 .0238696
1060.039 .0238663
1060.620 .0238656
1061.200 .0238661
1061.780 .0238674
1062.360 .0238680
1062.940 .0238683
1063.520 .0238680
1064.101 .0238670
1064.681 .0238660
1065.261 .0238639
1065.841 .0238621
1066.421 .0238601
1067.001 .0238571
1067.581 .0238537
1068.161 .0238483
1068.741 .0238427
1069.321 .0238373
1069.901 .0238330
1070.482 .0238314
1071.062 .0238329
1071.642 .0238382
1072.222 .0238474
1072.803 .0238584
1073.383 .0238701
1073.963 .0238818
1074.544 .0238924
1075.124 .0239011
1075.705 .0239081
1076.286 .0239141
1076.866 .0239206
1077.447 .0239279
1078.028 .0239374
1078.609 .0239485
1079.190 .0239625
1079.771 .0239769
1080.352 .0239899
1080.934 .0240022
1081.515 .0240123
1082.097 .0240212
1082.679 .0240296
1083.260 .0240399
1083.842 .0240534
1084.424 .0240712
1085.007 .0240935
1085.589 .0241180
1086.172 .0241447
1086.754 .0241711
1087.337 .0241937
1087.920 .0242132
1088.503 .0242281
1089.087 .0242394
1089.670 .0242485
1090.254 .0242604
1090.838 .0242736
1091.422 .0242913
1092.006 .0243121
1092.590 .0243347
1093.175 .0243553
1093.760 .0243731
1094.345 .0243835
1094.930 .0243871
1095.516 .0243854
1096.102 .0243786
1096.688 .0243680
1097.274 .0243607
1097.860 .0243541
1098.447 .0243509
1099.034 .0243500
1099.622 .0243514
1100.209 .0243492
1100.797 .0243451
1101.385 .0243340
1101.973 .0243172
1102.562 .0242952
1103.151 .0242716
1103.740 .0242442
1104.330 .0242199
1104.920 .0241991
1105.510 .0241849
1106.101 .0241802
1106.691 .0241830
1107.283 .0241906
1107.874 .0242043
1108.466 .0242204
1109.058 .0242376
1109.651 .0242528
1110.244 .0242711
1110.837 .0242897
1111.431 .0243095
1112.025 .0243306
1112.620 .0243558
1113.215 .0243874
1113.810 .0244249
1114.406 .0244649
1115.002 .0245066
1115.599 .0245462
1116.196 .0245791
1116.793 .0246070
1117.391 .0246284
1117.989 .0246429
1118.588 .0246534
1119.187 .0246610
1119.787 .0246690
1120.387 .0246742
1120.988 .0246808
1121.589 .0246906
1122.190 .0247032
1122.793 .0247162
1123.395 .0247248
1123.998 .0247352
1124.602 .0247483
1125.206 .0247604
1125.811 .0247772
1126.416 .0247975
1127.022 .0248212
1127.628 .0248453
1128.235 .0248695
1128.843 .0248945
1129.451 .0249201
1130.059 .0249446
1130.669 .0249691
1131.278 .0249972
1131.889 .0250256
1132.500 .0250544
1133.112 .0250893
1133.724 .0251326
1134.337 .0251800
1134.950 .0252274
1135.564 .0252789
1136.179 .0253328
1136.795 .0253905
1137.411 .0254528
1138.028 .0255193
1138.645 .0255968
1139.263 .0256850
1139.882 .0257767
1140.502 .0258809
1141.122 .0259867
1141.743 .0261127
1142.365 .0262266
1142.987 .0262706
1143.611 .0266005
1144.235 .0264462
1144.859 .0269863
1145.485 .0265520
