Measurement Sequence started on: 10-20-44-796
Integration time: 35
Scans to Average: 2 
>>>>>Begin Spectral Data<<<<<
432.953 .0370801
433.882 .0405550
434.810 .0369267
435.737 .0339166
436.662 .0329081
437.586 .0333468
438.509 .0326022
439.431 .0319068
440.351 .0314407
441.269 .0311502
442.187 .0309471
443.103 .0308167
444.018 .0307621
444.932 .0307673
445.844 .0307882
446.756 .0308224
447.666 .0308542
448.575 .0308629
449.482 .0308595
450.388 .0308475
451.294 .0308220
452.198 .0308026
453.100 .0307835
454.002 .0307754
454.902 .0307662
455.801 .0307547
456.699 .0307243
457.596 .0306820
458.492 .0306227
459.387 .0305488
460.280 .0304665
461.172 .0303830
462.064 .0303053
462.954 .0302358
463.843 .0301804
464.730 .0301358
465.617 .0300987
466.503 .0300708
467.387 .0300404
468.271 .0300034
469.153 .0299576
470.035 .0299045
470.915 .0298449
471.794 .0297861
472.673 .0297309
473.550 .0296841
474.426 .0296506
475.301 .0296316
476.175 .0296242
477.048 .0296280
477.920 .0296400
478.791 .0296538
479.661 .0296693
480.530 .0296831
481.398 .0296944
482.266 .0297092
483.132 .0297300
483.997 .0297550
484.861 .0297853
485.724 .0298220
486.587 .0298615
487.448 .0299005
488.308 .0299327
489.168 .0299570
490.026 .0299690
490.884 .0299679
491.741 .0299517
492.597 .0299232
493.452 .0298881
494.306 .0298468
495.159 .0298050
496.011 .0297611
496.862 .0297148
497.713 .0296670
498.562 .0296122
499.411 .0295527
500.259 .0294855
501.106 .0294121
501.952 .0293347
502.798 .0292559
503.642 .0291744
504.486 .0290934
505.329 .0290158
506.171 .0289382
507.012 .0288595
507.852 .0287773
508.692 .0286895
509.531 .0285937
510.369 .0284894
511.206 .0283814
512.043 .0282669
512.878 .0281529
513.713 .0280367
514.547 .0279230
515.381 .0278112
516.213 .0276987
517.045 .0275812
517.876 .0274596
518.706 .0273296
519.536 .0271910
520.365 .0270430
521.193 .0268889
522.020 .0267318
522.847 .0265721
523.673 .0264106
524.498 .0262537
525.323 .0260884
526.146 .0259260
526.969 .0257611
527.792 .0255977
528.614 .0254317
529.435 .0252632
530.255 .0250981
531.075 .0249379
531.894 .0247899
532.712 .0246546
533.530 .0245316
534.347 .0244344
535.163 .0243564
535.979 .0243015
536.794 .0242720
537.608 .0242657
538.422 .0242770
539.235 .0243078
540.048 .0243449
540.860 .0243870
541.671 .0244299
542.481 .0244714
543.292 .0245084
544.101 .0245368
544.910 .0245641
545.718 .0245892
546.526 .0246181
547.333 .0246552
548.139 .0246934
548.945 .0247410
549.750 .0247920
550.555 .0248474
551.359 .0249042
552.162 .0249625
552.965 .0250226
553.768 .0250815
554.569 .0251439
555.371 .0252078
556.171 .0252725
556.972 .0253410
557.771 .0254106
558.570 .0254811
559.369 .0255523
560.167 .0256258
560.964 .0256966
561.761 .0257659
562.558 .0258326
563.354 .0258952
564.149 .0259527
564.944 .0260067
565.738 .0260576
566.532 .0261087
567.325 .0261640
568.118 .0262241
568.910 .0262862
569.702 .0263567
570.494 .0264324
571.285 .0265108
572.075 .0265917
572.865 .0266733
573.654 .0267514
574.443 .0268264
575.232 .0268999
576.020 .0269713
576.807 .0270428
577.594 .0271171
578.381 .0271921
579.167 .0272695
579.952 .0273479
580.738 .0274254
581.522 .0275015
582.307 .0275760
583.091 .0276453
583.874 .0277082
584.657 .0277663
585.440 .0278205
586.222 .0278688
587.004 .0279137
587.785 .0279564
588.566 .0279982
589.346 .0280381
590.126 .0280757
590.906 .0281111
591.685 .0281451
592.464 .0281762
593.242 .0282043
594.020 .0282294
594.797 .0282513
595.575 .0282708
596.351 .0282874
597.128 .0283021
597.904 .0283147
598.679 .0283252
599.454 .0283337
600.229 .0283407
601.004 .0283461
601.778 .0283496
602.551 .0283519
603.325 .0283539
604.097 .0283533
604.870 .0283509
605.642 .0283451
606.414 .0283362
607.185 .0283245
607.956 .0283109
608.727 .0282955
609.497 .0282807
610.267 .0282669
611.037 .0282551
611.806 .0282451
612.575 .0282376
613.344 .0282308
614.112 .0282243
614.880 .0282162
615.647 .0282054
616.414 .0281918
617.181 .0281763
617.948 .0281588
618.714 .0281413
619.480 .0281243
620.245 .0281085
621.011 .0280935
621.775 .0280794
622.540 .0280652
623.304 .0280509
624.068 .0280352
624.832 .0280175
625.595 .0279977
626.358 .0279772
627.120 .0279564
627.883 .0279368
628.645 .0279204
629.406 .0279070
630.168 .0278966
630.929 .0278893
631.689 .0278843
632.450 .0278807
633.210 .0278773
633.970 .0278734
634.729 .0278682
635.489 .0278613
636.248 .0278523
637.006 .0278412
637.765 .0278295
638.523 .0278171
639.280 .0278031
640.038 .0277877
640.795 .0277714
641.552 .0277536
642.309 .0277340
643.065 .0277136
643.821 .0276925
644.577 .0276712
645.332 .0276500
646.088 .0276296
646.843 .0276106
647.597 .0275934
648.352 .0275779
649.106 .0275644
649.860 .0275530
650.613 .0275428
651.367 .0275343
652.120 .0275277
652.872 .0275228
653.625 .0275193
654.377 .0275170
655.129 .0275160
655.881 .0275155
656.632 .0275145
657.384 .0275129
658.135 .0275102
658.885 .0275064
659.636 .0275006
660.386 .0274939
661.136 .0274864
661.885 .0274788
662.635 .0274713
663.384 .0274643
664.133 .0274577
664.881 .0274514
665.630 .0274446
666.378 .0274370
667.126 .0274282
667.874 .0274175
668.621 .0274052
669.368 .0273923
670.115 .0273784
670.862 .0273641
671.608 .0273500
672.354 .0273373
673.100 .0273255
673.846 .0273143
674.591 .0273036
675.337 .0272930
676.082 .0272818
676.826 .0272695
677.571 .0272560
678.315 .0272419
679.059 .0272272
679.803 .0272130
680.547 .0271991
681.290 .0271863
682.033 .0271744
682.776 .0271632
683.518 .0271530
684.261 .0271432
685.003 .0271331
685.745 .0271226
686.487 .0271120
687.228 .0271009
687.969 .0270889
688.710 .0270770
689.451 .0270646
690.192 .0270524
690.932 .0270399
691.672 .0270275
692.412 .0270147
693.152 .0270024
693.891 .0269898
694.630 .0269769
695.369 .0269639
696.108 .0269504
696.846 .0269358
697.585 .0269207
698.323 .0269049
699.061 .0268883
699.798 .0268712
700.536 .0268545
701.273 .0268378
702.010 .0268220
702.746 .0268071
703.483 .0267931
704.219 .0267798
704.955 .0267672
705.691 .0267546
706.427 .0267419
707.162 .0267290
707.897 .0267160
708.632 .0267031
709.367 .0266909
710.101 .0266785
710.835 .0266663
711.569 .0266542
712.303 .0266422
713.037 .0266295
713.770 .0266164
714.503 .0266025
715.236 .0265875
715.969 .0265716
716.702 .0265549
717.434 .0265373
718.166 .0265198
718.898 .0265023
719.629 .0264851
720.361 .0264684
721.092 .0264520
721.823 .0264357
722.554 .0264193
723.284 .0264026
724.014 .0263849
724.744 .0263660
725.474 .0263462
726.204 .0263259
726.933 .0263056
727.662 .0262851
728.391 .0262652
729.120 .0262461
729.849 .0262274
730.577 .0262087
731.305 .0261896
732.033 .0261697
732.760 .0261489
733.488 .0261273
734.215 .0261050
734.942 .0260826
735.669 .0260606
736.395 .0260397
737.122 .0260204
737.848 .0260028
738.573 .0259865
739.299 .0259707
740.024 .0259560
740.750 .0259415
741.474 .0259270
742.199 .0259128
742.924 .0258991
743.648 .0258865
744.372 .0258745
745.096 .0258631
745.819 .0258516
746.543 .0258401
747.266 .0258284
747.989 .0258158
748.711 .0258026
749.434 .0257893
750.156 .0257763
750.878 .0257638
751.599 .0257526
752.321 .0257426
753.042 .0257337
753.763 .0257260
754.484 .0257187
755.205 .0257112
755.925 .0257033
756.645 .0256955
757.365 .0256875
758.085 .0256800
758.804 .0256729
759.523 .0256656
760.242 .0256587
760.961 .0256513
761.679 .0256430
762.397 .0256328
763.115 .0256206
763.833 .0256057
764.551 .0255881
765.268 .0255683
765.985 .0255466
766.702 .0255238
767.418 .0255007
768.134 .0254770
768.850 .0254532
769.566 .0254297
770.282 .0254063
770.997 .0253833
771.712 .0253611
772.427 .0253396
773.142 .0253192
773.856 .0252999
774.570 .0252824
775.284 .0252666
775.998 .0252526
776.711 .0252402
777.424 .0252285
778.137 .0252173
778.849 .0252060
779.562 .0251939
780.274 .0251811
780.986 .0251676
781.697 .0251536
782.409 .0251396
783.120 .0251262
783.831 .0251138
784.541 .0251028
785.252 .0250932
785.962 .0250847
786.671 .0250763
787.381 .0250678
788.090 .0250589
788.799 .0250492
789.508 .0250391
790.217 .0250285
790.925 .0250179
791.633 .0250075
792.341 .0249980
793.048 .0249888
793.755 .0249799
794.462 .0249708
795.169 .0249608
795.875 .0249497
796.581 .0249372
797.287 .0249234
797.993 .0249091
798.698 .0248944
799.403 .0248798
800.108 .0248649
800.812 .0248504
801.517 .0248361
802.221 .0248221
802.924 .0248078
803.628 .0247934
804.331 .0247788
805.034 .0247647
805.736 .0247509
806.439 .0247382
807.141 .0247262
807.843 .0247153
808.544 .0247050
809.245 .0246948
809.946 .0246843
810.647 .0246738
811.347 .0246632
812.047 .0246528
812.747 .0246426
813.447 .0246328
814.146 .0246234
814.845 .0246152
815.543 .0246072
816.242 .0245996
816.940 .0245916
817.638 .0245830
818.335 .0245738
819.032 .0245642
819.729 .0245541
820.426 .0245436
821.122 .0245329
821.818 .0245216
822.514 .0245097
823.209 .0244967
823.905 .0244826
824.599 .0244675
825.294 .0244515
825.988 .0244347
826.682 .0244173
827.376 .0244003
828.069 .0243842
828.762 .0243688
829.455 .0243542
830.147 .0243402
830.840 .0243269
831.531 .0243139
832.223 .0243011
832.914 .0242887
833.605 .0242764
834.296 .0242642
834.986 .0242524
835.676 .0242409
836.366 .0242298
837.055 .0242187
837.744 .0242075
838.433 .0241961
839.121 .0241840
839.809 .0241710
840.497 .0241574
841.185 .0241437
841.872 .0241302
842.559 .0241172
843.245 .0241046
843.932 .0240928
844.617 .0240816
845.303 .0240707
845.988 .0240601
846.673 .0240497
847.358 .0240395
848.042 .0240296
848.726 .0240207
849.410 .0240125
850.093 .0240050
850.776 .0239986
851.459 .0239926
852.141 .0239861
852.823 .0239790
853.505 .0239709
854.186 .0239612
854.867 .0239502
855.548 .0239382
856.228 .0239253
856.908 .0239124
857.588 .0238998
858.267 .0238877
858.946 .0238763
859.625 .0238652
860.303 .0238536
860.981 .0238418
861.659 .0238295
862.336 .0238162
863.013 .0238022
863.690 .0237883
864.366 .0237744
865.042 .0237609
865.718 .0237479
866.393 .0237355
867.068 .0237238
867.743 .0237125
868.417 .0237012
869.091 .0236901
869.765 .0236787
870.438 .0236671
871.111 .0236550
871.783 .0236431
872.456 .0236307
873.127 .0236176
873.799 .0236046
874.470 .0235913
875.141 .0235782
875.811 .0235651
876.481 .0235518
877.151 .0235384
877.820 .0235249
878.489 .0235109
879.158 .0234964
879.826 .0234819
880.494 .0234672
881.162 .0234522
881.829 .0234381
882.496 .0234243
883.163 .0234109
883.829 .0233987
884.495 .0233875
885.160 .0233769
885.825 .0233670
886.490 .0233574
887.154 .0233482
887.818 .0233397
888.482 .0233315
889.145 .0233233
889.808 .0233159
890.471 .0233093
891.133 .0233030
891.795 .0232971
892.456 .0232916
893.117 .0232863
893.778 .0232811
894.439 .0232759
895.099 .0232704
895.758 .0232651
896.417 .0232598
897.076 .0232542
897.735 .0232481
898.393 .0232417
899.051 .0232346
899.708 .0232268
900.365 .0232190
901.022 .0232106
901.678 .0232019
902.334 .0231928
902.990 .0231831
903.645 .0231731
904.300 .0231619
904.954 .0231498
905.608 .0231365
906.262 .0231228
906.915 .0231089
907.568 .0230948
908.221 .0230816
908.873 .0230696
909.525 .0230584
910.176 .0230481
910.828 .0230386
911.478 .0230296
912.129 .0230207
912.778 .0230117
913.428 .0230026
914.077 .0229933
914.726 .0229839
915.375 .0229747
916.023 .0229660
916.670 .0229582
917.318 .0229508
917.964 .0229436
918.611 .0229371
919.257 .0229303
919.903 .0229232
920.548 .0229156
921.193 .0229073
921.838 .0228991
922.482 .0228909
923.126 .0228829
923.770 .0228756
924.413 .0228691
925.056 .0228632
925.698 .0228580
926.340 .0228533
926.982 .0228488
927.623 .0228442
928.264 .0228396
928.904 .0228344
929.544 .0228288
930.184 .0228230
930.823 .0228169
931.462 .0228101
932.101 .0228033
932.739 .0227954
933.377 .0227864
934.014 .0227762
934.651 .0227650
935.288 .0227524
935.924 .0227388
936.560 .0227243
937.196 .0227091
937.831 .0226939
938.466 .0226785
939.100 .0226627
939.734 .0226475
940.368 .0226322
941.001 .0226171
941.634 .0226023
942.266 .0225886
942.899 .0225750
943.530 .0225620
944.162 .0225496
944.793 .0225378
945.423 .0225263
946.053 .0225153
946.683 .0225046
947.313 .0224947
947.942 .0224849
948.571 .0224749
949.199 .0224641
949.827 .0224532
950.455 .0224407
951.082 .0224270
951.709 .0224118
952.335 .0223957
952.961 .0223785
953.587 .0223612
954.212 .0223439
954.837 .0223269
955.462 .0223106
956.086 .0222948
956.710 .0222795
957.334 .0222649
957.957 .0222504
958.579 .0222364
959.202 .0222232
959.824 .0222110
960.445 .0221998
961.067 .0221901
961.688 .0221824
962.308 .0221764
962.928 .0221718
963.548 .0221681
964.168 .0221650
964.787 .0221620
965.406 .0221584
966.024 .0221542
966.642 .0221497
967.260 .0221452
967.877 .0221408
968.494 .0221369
969.110 .0221337
969.727 .0221310
970.342 .0221288
970.958 .0221269
971.573 .0221252
972.188 .0221231
972.802 .0221211
973.416 .0221193
974.030 .0221177
974.643 .0221163
975.256 .0221151
975.869 .0221141
976.481 .0221133
977.093 .0221120
977.705 .0221105
978.316 .0221091
978.927 .0221079
979.538 .0221062
980.148 .0221042
980.758 .0221018
981.367 .0220991
981.977 .0220958
982.586 .0220919
983.194 .0220875
983.802 .0220832
984.410 .0220790
985.018 .0220754
985.625 .0220729
986.232 .0220714
986.838 .0220706
987.445 .0220706
988.050 .0220700
988.656 .0220691
989.261 .0220678
989.866 .0220661
990.471 .0220645
991.075 .0220635
991.679 .0220629
992.282 .0220627
992.886 .0220633
993.489 .0220640
994.091 .0220642
994.694 .0220634
995.296 .0220619
995.897 .0220589
996.499 .0220552
997.100 .0220505
997.701 .0220459
998.301 .0220424
998.901 .0220399
999.501 .0220383
1000.101 .0220375
1000.700 .0220372
1001.299 .0220374
1001.898 .0220375
1002.496 .0220377
1003.094 .0220382
1003.692 .0220396
1004.289 .0220408
1004.887 .0220428
1005.484 .0220452
1006.080 .0220481
1006.677 .0220510
1007.273 .0220543
1007.868 .0220571
1008.464 .0220595
1009.059 .0220614
1009.654 .0220627
1010.249 .0220642
1010.843 .0220663
1011.437 .0220686
1012.031 .0220720
1012.625 .0220765
1013.218 .0220818
1013.811 .0220873
1014.404 .0220940
1014.997 .0221012
1015.589 .0221082
1016.181 .0221151
1016.773 .0221218
1017.365 .0221283
1017.956 .0221341
1018.547 .0221394
1019.138 .0221439
1019.728 .0221469
1020.319 .0221482
1020.909 .0221474
1021.499 .0221447
1022.088 .0221405
1022.678 .0221347
1023.267 .0221281
1023.856 .0221212
1024.445 .0221142
1025.033 .0221069
1025.621 .0220998
1026.209 .0220936
1026.797 .0220872
1027.385 .0220809
1027.972 .0220759
1028.560 .0220721
1029.147 .0220701
1029.734 .0220708
1030.320 .0220737
1030.907 .0220788
1031.493 .0220853
1032.079 .0220923
1032.665 .0220991
1033.250 .0221048
1033.836 .0221092
1034.421 .0221114
1035.006 .0221120
1035.591 .0221116
1036.176 .0221094
1036.761 .0221073
1037.345 .0221052
1037.929 .0221024
1038.514 .0220990
1039.097 .0220952
1039.681 .0220911
1040.265 .0220863
1040.848 .0220808
1041.432 .0220750
1042.015 .0220685
1042.598 .0220623
1043.181 .0220564
1043.764 .0220509
1044.346 .0220466
1044.929 .0220438
1045.511 .0220419
1046.094 .0220413
1046.676 .0220409
1047.258 .0220409
1047.840 .0220406
1048.422 .0220396
1049.003 .0220373
1049.585 .0220332
1050.166 .0220278
1050.748 .0220217
1051.329 .0220144
1051.910 .0220065
1052.491 .0219983
1053.072 .0219903
1053.653 .0219823
1054.234 .0219750
1054.815 .0219673
1055.396 .0219603
1055.976 .0219538
1056.557 .0219485
1057.138 .0219436
1057.718 .0219404
1058.298 .0219389
1058.879 .0219385
1059.459 .0219392
1060.039 .0219406
1060.620 .0219412
1061.200 .0219418
1061.780 .0219411
1062.360 .0219388
1062.940 .0219351
1063.520 .0219312
1064.101 .0219263
1064.681 .0219218
1065.261 .0219165
1065.841 .0219099
1066.421 .0219023
1067.001 .0218929
1067.581 .0218815
1068.161 .0218674
1068.741 .0218526
1069.321 .0218376
1069.901 .0218242
1070.482 .0218132
1071.062 .0218047
1071.642 .0218002
1072.222 .0217992
1072.803 .0217996
1073.383 .0218007
1073.963 .0218026
1074.544 .0218055
1075.124 .0218080
1075.705 .0218105
1076.286 .0218117
1076.866 .0218144
1077.447 .0218157
1078.028 .0218156
1078.609 .0218139
1079.190 .0218116
1079.771 .0218084
1080.352 .0218041
1080.934 .0217989
1081.515 .0217935
1082.097 .0217871
1082.679 .0217809
1083.260 .0217720
1083.842 .0217621
1084.424 .0217494
1085.007 .0217359
1085.589 .0217216
1086.172 .0217080
1086.754 .0216941
1087.337 .0216822
1087.920 .0216722
1088.503 .0216629
1089.087 .0216529
1089.670 .0216412
1090.254 .0216277
1090.838 .0216123
1091.422 .0215949
1092.006 .0215779
1092.590 .0215615
1093.175 .0215494
1093.760 .0215388
1094.345 .0215314
1094.930 .0215251
1095.516 .0215184
1096.102 .0215103
1096.688 .0214996
1097.274 .0214865
1097.860 .0214710
1098.447 .0214559
1099.034 .0214425
1099.622 .0214307
1100.209 .0214241
1100.797 .0214202
1101.385 .0214191
1101.973 .0214176
1102.562 .0214150
1103.151 .0214089
1103.740 .0213994
1104.330 .0213868
1104.920 .0213722
1105.510 .0213581
1106.101 .0213466
1106.691 .0213369
1107.283 .0213297
1107.874 .0213239
1108.466 .0213178
1109.058 .0213110
1109.651 .0213030
1110.244 .0212918
1110.837 .0212803
1111.431 .0212675
1112.025 .0212577
1112.620 .0212506
1113.215 .0212496
1113.810 .0212527
1114.406 .0212618
1115.002 .0212727
1115.599 .0212863
1116.196 .0213001
1116.793 .0213141
1117.391 .0213277
1117.989 .0213406
1118.588 .0213514
1119.187 .0213586
1119.787 .0213621
1120.387 .0213636
1120.988 .0213600
1121.589 .0213550
1122.190 .0213426
1122.793 .0213280
1123.395 .0213104
1123.998 .0212913
1124.602 .0212714
1125.206 .0212536
1125.811 .0212371
1126.416 .0212216
1127.022 .0212082
1127.628 .0211982
1128.235 .0211937
1128.843 .0211977
1129.451 .0212090
1130.059 .0212278
1130.669 .0212517
1131.278 .0212819
1131.889 .0213129
1132.500 .0213489
1133.112 .0213861
1133.724 .0214234
1134.337 .0214620
1134.950 .0214997
1135.564 .0215366
1136.179 .0215729
1136.795 .0216108
1137.411 .0216504
1138.028 .0216889
1138.645 .0217275
1139.263 .0217663
1139.882 .0218034
1140.502 .0218396
1141.122 .0218689
1141.743 .0219024
1142.365 .0219609
1142.987 .0219210
1143.611 .0219757
1144.235 .0218999
1144.859 .0221824
1145.485 .0228930
