Measurement Sequence started on: 10-20-44-796
Integration time: 35
Scans to Average: 2 
>>>>>Begin Spectral Data<<<<<
432.953 .0352716
433.882 .0360555
434.810 .0321205
435.737 .0320519
436.662 .0315588
437.586 .0328375
438.509 .0328181
439.431 .0328756
440.351 .0330825
441.269 .0332760
442.187 .0334552
443.103 .0335840
444.018 .0337010
444.932 .0337821
445.844 .0338515
446.756 .0339027
447.666 .0339515
448.575 .0339822
449.482 .0340046
450.388 .0340198
451.294 .0340432
452.198 .0340737
453.100 .0341122
454.002 .0341547
454.902 .0342028
455.801 .0342514
456.699 .0343013
457.596 .0343457
458.492 .0343880
459.387 .0344204
460.280 .0344429
461.172 .0344516
462.064 .0344533
462.954 .0344407
463.843 .0344172
464.730 .0343802
465.617 .0343317
466.503 .0342664
467.387 .0341864
468.271 .0340966
469.153 .0339969
470.035 .0338921
470.915 .0337882
471.794 .0336821
472.673 .0335819
473.550 .0334902
474.426 .0334096
475.301 .0333407
476.175 .0332879
477.048 .0332440
477.920 .0332077
478.791 .0331796
479.661 .0331567
480.530 .0331376
481.398 .0331215
482.266 .0331081
483.132 .0330968
483.997 .0330884
484.861 .0330793
485.724 .0330689
486.587 .0330590
487.448 .0330452
488.308 .0330256
489.168 .0330028
490.026 .0329759
490.884 .0329427
491.741 .0329061
492.597 .0328657
493.452 .0328232
494.306 .0327777
495.159 .0327308
496.011 .0326863
496.862 .0326424
497.713 .0325957
498.562 .0325454
499.411 .0324951
500.259 .0324427
501.106 .0323855
501.952 .0323261
502.798 .0322645
503.642 .0322002
504.486 .0321301
505.329 .0320556
506.171 .0319787
507.012 .0319001
507.852 .0318147
508.692 .0317263
509.531 .0316321
510.369 .0315307
511.206 .0314267
512.043 .0313182
512.878 .0312056
513.713 .0310881
514.547 .0309657
515.381 .0308420
516.213 .0307157
517.045 .0305860
517.876 .0304511
518.706 .0303146
519.536 .0301744
520.365 .0300272
521.193 .0298812
522.020 .0297370
522.847 .0295934
523.673 .0294542
524.498 .0293125
525.323 .0291656
526.146 .0290158
526.969 .0288597
527.792 .0286932
528.614 .0285193
529.435 .0283403
530.255 .0281613
531.075 .0279835
531.894 .0278115
532.712 .0276474
533.530 .0274969
534.347 .0273592
535.163 .0272286
535.979 .0271111
536.794 .0270045
537.608 .0269055
538.422 .0268167
539.235 .0267348
540.048 .0266687
540.860 .0266223
541.671 .0265925
542.481 .0265859
543.292 .0265966
544.101 .0266234
544.910 .0266621
545.718 .0267069
546.526 .0267520
547.333 .0267951
548.139 .0268390
548.945 .0268814
549.750 .0269224
550.555 .0269715
551.359 .0270251
552.162 .0270872
552.965 .0271540
553.768 .0272205
554.569 .0272904
555.371 .0273628
556.171 .0274303
556.972 .0274976
557.771 .0275607
558.570 .0276206
559.369 .0276765
560.167 .0277310
560.964 .0277867
561.761 .0278416
562.558 .0278974
563.354 .0279561
564.149 .0280140
564.944 .0280756
565.738 .0281367
566.532 .0282015
567.325 .0282676
568.118 .0283336
568.910 .0283999
569.702 .0284665
570.494 .0285359
571.285 .0286083
572.075 .0286827
572.865 .0287587
573.654 .0288376
574.443 .0289178
575.232 .0290005
576.020 .0290868
576.807 .0291755
577.594 .0292642
578.381 .0293510
579.167 .0294352
579.952 .0295155
580.738 .0295911
581.522 .0296623
582.307 .0297263
583.091 .0297845
583.874 .0298360
584.657 .0298811
585.440 .0299212
586.222 .0299588
587.004 .0299916
587.785 .0300196
588.566 .0300430
589.346 .0300611
590.126 .0300737
590.906 .0300830
591.685 .0300879
592.464 .0300889
593.242 .0300880
594.020 .0300852
594.797 .0300807
595.575 .0300766
596.351 .0300722
597.128 .0300670
597.904 .0300612
598.679 .0300551
599.454 .0300473
600.229 .0300389
601.004 .0300300
601.778 .0300202
602.551 .0300097
603.325 .0299985
604.097 .0299860
604.870 .0299727
605.642 .0299592
606.414 .0299454
607.185 .0299321
607.956 .0299204
608.727 .0299105
609.497 .0299018
610.267 .0298946
611.037 .0298882
611.806 .0298814
612.575 .0298731
613.344 .0298633
614.112 .0298513
614.880 .0298381
615.647 .0298241
616.414 .0298107
617.181 .0297982
617.948 .0297872
618.714 .0297763
619.480 .0297654
620.245 .0297527
621.011 .0297376
621.775 .0297187
622.540 .0296971
623.304 .0296732
624.068 .0296479
624.832 .0296220
625.595 .0295974
626.358 .0295742
627.120 .0295522
627.883 .0295302
628.645 .0295086
629.406 .0294862
630.168 .0294627
630.929 .0294384
631.689 .0294140
632.450 .0293900
633.210 .0293679
633.970 .0293469
634.729 .0293284
635.489 .0293116
636.248 .0292958
637.006 .0292803
637.765 .0292651
638.523 .0292500
639.280 .0292345
640.038 .0292197
640.795 .0292062
641.552 .0291937
642.309 .0291825
643.065 .0291727
643.821 .0291637
644.577 .0291553
645.332 .0291457
646.088 .0291345
646.843 .0291215
647.597 .0291057
648.352 .0290878
649.106 .0290686
649.860 .0290482
650.613 .0290273
651.367 .0290061
652.120 .0289858
652.872 .0289657
653.625 .0289460
654.377 .0289258
655.129 .0289053
655.881 .0288846
656.632 .0288626
657.384 .0288402
658.135 .0288188
658.885 .0287976
659.636 .0287771
660.386 .0287577
661.136 .0287398
661.885 .0287231
662.635 .0287084
663.384 .0286950
664.133 .0286827
664.881 .0286710
665.630 .0286594
666.378 .0286477
667.126 .0286360
667.874 .0286228
668.621 .0286087
669.368 .0285936
670.115 .0285778
670.862 .0285611
671.608 .0285451
672.354 .0285301
673.100 .0285160
673.846 .0285026
674.591 .0284897
675.337 .0284767
676.082 .0284634
676.826 .0284492
677.571 .0284333
678.315 .0284165
679.059 .0283987
679.803 .0283798
680.547 .0283617
681.290 .0283446
682.033 .0283286
682.776 .0283134
683.518 .0282995
684.261 .0282860
685.003 .0282727
685.745 .0282597
686.487 .0282463
687.228 .0282324
687.969 .0282180
688.710 .0282027
689.451 .0281865
690.192 .0281700
690.932 .0281533
691.672 .0281364
692.412 .0281202
693.152 .0281042
693.891 .0280881
694.630 .0280723
695.369 .0280570
696.108 .0280416
696.846 .0280259
697.585 .0280102
698.323 .0279949
699.061 .0279802
699.798 .0279663
700.536 .0279528
701.273 .0279405
702.010 .0279292
702.746 .0279179
703.483 .0279065
704.219 .0278948
704.955 .0278831
705.691 .0278710
706.427 .0278588
707.162 .0278465
707.897 .0278345
708.632 .0278228
709.367 .0278109
710.101 .0277990
710.835 .0277868
711.569 .0277741
712.303 .0277611
713.037 .0277478
713.770 .0277346
714.503 .0277219
715.236 .0277101
715.969 .0276990
716.702 .0276886
717.434 .0276788
718.166 .0276688
718.898 .0276587
719.629 .0276480
720.361 .0276367
721.092 .0276251
721.823 .0276134
722.554 .0276012
723.284 .0275887
724.014 .0275761
724.744 .0275628
725.474 .0275485
726.204 .0275332
726.933 .0275169
727.662 .0274996
728.391 .0274817
729.120 .0274634
729.849 .0274453
730.577 .0274281
731.305 .0274114
732.033 .0273953
732.760 .0273801
733.488 .0273649
734.215 .0273496
734.942 .0273340
735.669 .0273178
736.395 .0273004
737.122 .0272819
737.848 .0272630
738.573 .0272436
739.299 .0272238
740.024 .0272044
740.750 .0271853
741.474 .0271673
742.199 .0271493
742.924 .0271311
743.648 .0271126
744.372 .0270938
745.096 .0270743
745.819 .0270543
746.543 .0270342
747.266 .0270150
747.989 .0269965
748.711 .0269795
749.434 .0269643
750.156 .0269514
750.878 .0269407
751.599 .0269322
752.321 .0269254
753.042 .0269202
753.763 .0269157
754.484 .0269116
755.205 .0269074
755.925 .0269032
756.645 .0268979
757.365 .0268914
758.085 .0268832
758.804 .0268735
759.523 .0268615
760.242 .0268478
760.961 .0268325
761.679 .0268160
762.397 .0267977
763.115 .0267778
763.833 .0267562
764.551 .0267332
765.268 .0267085
765.985 .0266825
766.702 .0266552
767.418 .0266278
768.134 .0266003
768.850 .0265741
769.566 .0265494
770.282 .0265271
770.997 .0265070
771.712 .0264889
772.427 .0264728
773.142 .0264580
773.856 .0264439
774.570 .0264310
775.284 .0264184
775.998 .0264061
776.711 .0263942
777.424 .0263826
778.137 .0263716
778.849 .0263610
779.562 .0263511
780.274 .0263417
780.986 .0263328
781.697 .0263244
782.409 .0263163
783.120 .0263090
783.831 .0263024
784.541 .0262962
785.252 .0262905
785.962 .0262851
786.671 .0262796
787.381 .0262741
788.090 .0262690
788.799 .0262639
789.508 .0262592
790.217 .0262548
790.925 .0262509
791.633 .0262469
792.341 .0262434
793.048 .0262396
793.755 .0262351
794.462 .0262298
795.169 .0262234
795.875 .0262158
796.581 .0262078
797.287 .0261995
797.993 .0261913
798.698 .0261838
799.403 .0261774
800.108 .0261715
800.812 .0261664
801.517 .0261619
802.221 .0261578
802.924 .0261534
803.628 .0261493
804.331 .0261448
805.034 .0261402
805.736 .0261359
806.439 .0261321
807.141 .0261292
807.843 .0261274
808.544 .0261262
809.245 .0261253
809.946 .0261245
810.647 .0261229
811.347 .0261203
812.047 .0261171
812.747 .0261130
813.447 .0261083
814.146 .0261034
814.845 .0260993
815.543 .0260958
816.242 .0260935
816.940 .0260921
817.638 .0260908
818.335 .0260894
819.032 .0260868
819.729 .0260827
820.426 .0260777
821.122 .0260718
821.818 .0260654
822.514 .0260588
823.209 .0260526
823.905 .0260465
824.599 .0260405
825.294 .0260348
825.988 .0260280
826.682 .0260202
827.376 .0260111
828.069 .0260003
828.762 .0259883
829.455 .0259751
830.147 .0259616
830.840 .0259482
831.531 .0259352
832.223 .0259226
832.914 .0259104
833.605 .0258989
834.296 .0258875
834.986 .0258764
835.676 .0258649
836.366 .0258534
837.055 .0258411
837.744 .0258284
838.433 .0258148
839.121 .0258008
839.809 .0257860
840.497 .0257710
841.185 .0257563
841.872 .0257414
842.559 .0257275
843.245 .0257145
843.932 .0257021
844.617 .0256906
845.303 .0256792
845.988 .0256680
846.673 .0256562
847.358 .0256444
848.042 .0256326
848.726 .0256211
849.410 .0256100
850.093 .0255995
850.776 .0255896
851.459 .0255804
852.141 .0255714
852.823 .0255620
853.505 .0255523
854.186 .0255416
854.867 .0255299
855.548 .0255170
856.228 .0255031
856.908 .0254890
857.588 .0254746
858.267 .0254605
858.946 .0254465
859.625 .0254323
860.303 .0254179
860.981 .0254030
861.659 .0253876
862.336 .0253711
863.013 .0253539
863.690 .0253363
864.366 .0253185
865.042 .0253007
865.718 .0252829
866.393 .0252656
867.068 .0252486
867.743 .0252314
868.417 .0252134
869.091 .0251945
869.765 .0251752
870.438 .0251555
871.111 .0251358
871.783 .0251168
872.456 .0250988
873.127 .0250818
873.799 .0250656
874.470 .0250504
875.141 .0250354
875.811 .0250207
876.481 .0250054
877.151 .0249898
877.820 .0249738
878.489 .0249576
879.158 .0249417
879.826 .0249266
880.494 .0249123
881.162 .0248984
881.829 .0248844
882.496 .0248701
883.163 .0248551
883.829 .0248402
884.495 .0248249
885.160 .0248102
885.825 .0247963
886.490 .0247836
887.154 .0247724
887.818 .0247627
888.482 .0247541
889.145 .0247455
889.808 .0247373
890.471 .0247287
891.133 .0247196
891.795 .0247106
892.456 .0247017
893.117 .0246938
893.778 .0246869
894.439 .0246807
895.099 .0246750
895.758 .0246704
896.417 .0246663
897.076 .0246621
897.735 .0246577
898.393 .0246528
899.051 .0246480
899.708 .0246430
900.365 .0246378
901.022 .0246328
901.678 .0246281
902.334 .0246238
902.990 .0246196
903.645 .0246154
904.300 .0246114
904.954 .0246073
905.608 .0246029
906.262 .0245977
906.915 .0245914
907.568 .0245840
908.221 .0245756
908.873 .0245667
909.525 .0245570
910.176 .0245472
910.828 .0245376
911.478 .0245285
912.129 .0245197
912.778 .0245115
913.428 .0245038
914.077 .0244971
914.726 .0244909
915.375 .0244852
916.023 .0244804
916.670 .0244767
917.318 .0244742
917.964 .0244729
918.611 .0244728
919.257 .0244741
919.903 .0244760
920.548 .0244790
921.193 .0244828
921.838 .0244876
922.482 .0244932
923.126 .0244995
923.770 .0245062
924.413 .0245131
925.056 .0245195
925.698 .0245255
926.340 .0245306
926.982 .0245350
927.623 .0245380
928.264 .0245394
928.904 .0245394
929.544 .0245384
930.184 .0245364
930.823 .0245335
931.462 .0245302
932.101 .0245265
932.739 .0245223
933.377 .0245178
934.014 .0245128
934.651 .0245074
935.288 .0245016
935.924 .0244955
936.560 .0244890
937.196 .0244825
937.831 .0244763
938.466 .0244703
939.100 .0244655
939.734 .0244614
940.368 .0244579
941.001 .0244549
941.634 .0244525
942.266 .0244502
942.899 .0244474
943.530 .0244441
944.162 .0244400
944.793 .0244353
945.423 .0244294
946.053 .0244226
946.683 .0244154
947.313 .0244080
947.942 .0244000
948.571 .0243912
949.199 .0243818
949.827 .0243715
950.455 .0243603
951.082 .0243486
951.709 .0243363
952.335 .0243235
952.961 .0243105
953.587 .0242975
954.212 .0242846
954.837 .0242718
955.462 .0242592
956.086 .0242472
956.710 .0242357
957.334 .0242247
957.957 .0242141
958.579 .0242044
959.202 .0241955
959.824 .0241864
960.445 .0241775
961.067 .0241684
961.688 .0241592
962.308 .0241496
962.928 .0241400
963.548 .0241307
964.168 .0241214
964.787 .0241125
965.406 .0241039
966.024 .0240963
966.642 .0240892
967.260 .0240826
967.877 .0240766
968.494 .0240710
969.110 .0240653
969.727 .0240596
970.342 .0240545
970.958 .0240498
971.573 .0240452
972.188 .0240411
972.802 .0240376
973.416 .0240344
974.030 .0240312
974.643 .0240283
975.256 .0240257
975.869 .0240233
976.481 .0240209
977.093 .0240186
977.705 .0240164
978.316 .0240144
978.927 .0240119
979.538 .0240093
980.148 .0240064
980.758 .0240033
981.367 .0240000
981.977 .0239972
982.586 .0239949
983.194 .0239927
983.802 .0239907
984.410 .0239883
985.018 .0239851
985.625 .0239808
986.232 .0239754
986.838 .0239693
987.445 .0239626
988.050 .0239555
988.656 .0239479
989.261 .0239405
989.866 .0239326
990.471 .0239239
991.075 .0239140
991.679 .0239026
992.282 .0238897
992.886 .0238751
993.489 .0238601
994.091 .0238449
994.694 .0238309
995.296 .0238175
995.897 .0238052
996.499 .0237936
997.100 .0237818
997.701 .0237693
998.301 .0237559
998.901 .0237419
999.501 .0237276
1000.101 .0237137
1000.700 .0237010
1001.299 .0236895
1001.898 .0236802
1002.496 .0236724
1003.094 .0236654
1003.692 .0236583
1004.289 .0236512
1004.887 .0236433
1005.484 .0236349
1006.080 .0236264
1006.677 .0236181
1007.273 .0236101
1007.868 .0236035
1008.464 .0235973
1009.059 .0235919
1009.654 .0235867
1010.249 .0235812
1010.843 .0235750
1011.437 .0235686
1012.031 .0235614
1012.625 .0235538
1013.218 .0235463
1013.811 .0235396
1014.404 .0235331
1014.997 .0235267
1015.589 .0235203
1016.181 .0235142
1016.773 .0235082
1017.365 .0235026
1017.956 .0234960
1018.547 .0234905
1019.138 .0234849
1019.728 .0234797
1020.319 .0234746
1020.909 .0234694
1021.499 .0234641
1022.088 .0234580
1022.678 .0234514
1023.267 .0234444
1023.856 .0234367
1024.445 .0234291
1025.033 .0234208
1025.621 .0234127
1026.209 .0234034
1026.797 .0233929
1027.385 .0233805
1027.972 .0233677
1028.560 .0233538
1029.147 .0233392
1029.734 .0233243
1030.320 .0233107
1030.907 .0232986
1031.493 .0232883
1032.079 .0232796
1032.665 .0232720
1033.250 .0232650
1033.836 .0232581
1034.421 .0232493
1035.006 .0232399
1035.591 .0232294
1036.176 .0232188
1036.761 .0232082
1037.345 .0231987
1037.929 .0231899
1038.514 .0231817
1039.097 .0231749
1039.681 .0231685
1040.265 .0231620
1040.848 .0231555
1041.432 .0231483
1042.015 .0231411
1042.598 .0231336
1043.181 .0231267
1043.764 .0231206
1044.346 .0231164
1044.929 .0231136
1045.511 .0231125
1046.094 .0231124
1046.676 .0231130
1047.258 .0231138
1047.840 .0231146
1048.422 .0231150
1049.003 .0231143
1049.585 .0231132
1050.166 .0231113
1050.748 .0231095
1051.329 .0231076
1051.910 .0231056
1052.491 .0231049
1053.072 .0231051
1053.653 .0231061
1054.234 .0231073
1054.815 .0231098
1055.396 .0231122
1055.976 .0231137
1056.557 .0231146
1057.138 .0231139
1057.718 .0231115
1058.298 .0231070
1058.879 .0231018
1059.459 .0230962
1060.039 .0230906
1060.620 .0230841
1061.200 .0230773
1061.780 .0230701
1062.360 .0230615
1062.940 .0230510
1063.520 .0230393
1064.101 .0230268
1064.681 .0230128
1065.261 .0229982
1065.841 .0229837
1066.421 .0229705
1067.001 .0229591
1067.581 .0229487
1068.161 .0229410
1068.741 .0229343
1069.321 .0229284
1069.901 .0229230
1070.482 .0229187
1071.062 .0229146
1071.642 .0229113
1072.222 .0229094
1072.803 .0229080
1073.383 .0229072
1073.963 .0229074
1074.544 .0229095
1075.124 .0229133
1075.705 .0229180
1076.286 .0229230
1076.866 .0229284
1077.447 .0229339
1078.028 .0229373
1078.609 .0229382
1079.190 .0229360
1079.771 .0229300
1080.352 .0229197
1080.934 .0229065
1081.515 .0228924
1082.097 .0228798
1082.679 .0228700
1083.260 .0228635
1083.842 .0228614
1084.424 .0228619
1085.007 .0228639
1085.589 .0228660
1086.172 .0228678
1086.754 .0228670
1087.337 .0228643
1087.920 .0228612
1088.503 .0228589
1089.087 .0228597
1089.670 .0228638
1090.254 .0228708
1090.838 .0228801
1091.422 .0228899
1092.006 .0228984
1092.590 .0229045
1093.175 .0229092
1093.760 .0229116
1094.345 .0229130
1094.930 .0229144
1095.516 .0229187
1096.102 .0229273
1096.688 .0229412
1097.274 .0229593
1097.860 .0229803
1098.447 .0230037
1099.034 .0230277
1099.622 .0230536
1100.209 .0230803
1100.797 .0231076
1101.385 .0231352
1101.973 .0231604
1102.562 .0231833
1103.151 .0232015
1103.740 .0232138
1104.330 .0232219
1104.920 .0232244
1105.510 .0232225
1106.101 .0232160
1106.691 .0232078
1107.283 .0231996
1107.874 .0231908
1108.466 .0231818
1109.058 .0231724
1109.651 .0231608
1110.244 .0231484
1110.837 .0231319
1111.431 .0231146
1112.025 .0230987
1112.620 .0230828
1113.215 .0230683
1113.810 .0230555
1114.406 .0230438
1115.002 .0230330
1115.599 .0230218
1116.196 .0230089
1116.793 .0229903
1117.391 .0229691
1117.989 .0229448
1118.588 .0229188
1119.187 .0228950
1119.787 .0228740
1120.387 .0228591
1120.988 .0228533
1121.589 .0228526
1122.190 .0228556
1122.793 .0228645
1123.395 .0228743
1123.998 .0228856
1124.602 .0229001
1125.206 .0229164
1125.811 .0229350
1126.416 .0229566
1127.022 .0229834
1127.628 .0230125
1128.235 .0230462
1128.843 .0230818
1129.451 .0231158
1130.059 .0231512
1130.669 .0231798
1131.278 .0232045
1131.889 .0232282
1132.500 .0232504
1133.112 .0232696
1133.724 .0232874
1134.337 .0233064
1134.950 .0233226
1135.564 .0233386
1136.179 .0233559
1136.795 .0233776
1137.411 .0234085
1138.028 .0234464
1138.645 .0234936
1139.263 .0235542
1139.882 .0236269
1140.502 .0237085
1141.122 .0238045
1141.743 .0239235
1142.365 .0240636
1142.987 .0240716
1143.611 .0242254
1144.235 .0244911
1144.859 .0249215
1145.485 .0251933
