Measurement Sequence started on: 10-20-44-796
Integration time: 35
Scans to Average: 2 
>>>>>Begin Spectral Data<<<<<
432.953 .0541754
433.882 .0487583
434.810 .0459657
435.737 .0441665
436.662 .0439735
437.586 .0439637
438.509 .0430562
439.431 .0424236
440.351 .0419248
441.269 .0415083
442.187 .0411318
443.103 .0408076
444.018 .0405543
444.932 .0403477
445.844 .0401833
446.756 .0400515
447.666 .0399504
448.575 .0398656
449.482 .0397997
450.388 .0397562
451.294 .0397275
452.198 .0397140
453.100 .0397147
454.002 .0397296
454.902 .0397529
455.801 .0397790
456.699 .0398124
457.596 .0398368
458.492 .0398540
459.387 .0398545
460.280 .0398397
461.172 .0398072
462.064 .0397594
462.954 .0396959
463.843 .0396237
464.730 .0395501
465.617 .0394684
466.503 .0393811
467.387 .0392907
468.271 .0391949
469.153 .0390936
470.035 .0389836
470.915 .0388719
471.794 .0387566
472.673 .0386447
473.550 .0385424
474.426 .0384578
475.301 .0383885
476.175 .0383367
477.048 .0382976
477.920 .0382669
478.791 .0382383
479.661 .0382101
480.530 .0381828
481.398 .0381553
482.266 .0381298
483.132 .0381096
483.997 .0380919
484.861 .0380854
485.724 .0380848
486.587 .0380881
487.448 .0380914
488.308 .0380881
489.168 .0380734
490.026 .0380492
490.884 .0380151
491.741 .0379760
492.597 .0379358
493.452 .0379021
494.306 .0378699
495.159 .0378421
496.011 .0378213
496.862 .0378009
497.713 .0377743
498.562 .0377395
499.411 .0376915
500.259 .0376314
501.106 .0375581
501.952 .0374757
502.798 .0373885
503.642 .0373008
504.486 .0372110
505.329 .0371181
506.171 .0370197
507.012 .0369149
507.852 .0367957
508.692 .0366636
509.531 .0365188
510.369 .0363595
511.206 .0361943
512.043 .0360257
512.878 .0358607
513.713 .0356973
514.547 .0355362
515.381 .0353851
516.213 .0352366
517.045 .0350901
517.876 .0349402
518.706 .0347876
519.536 .0346329
520.365 .0344709
521.193 .0343029
522.020 .0341300
522.847 .0339564
523.673 .0337778
524.498 .0335927
525.323 .0333996
526.146 .0332065
526.969 .0330097
527.792 .0328108
528.614 .0326159
529.435 .0324240
530.255 .0322389
531.075 .0320534
531.894 .0318706
532.712 .0316948
533.530 .0315203
534.347 .0313611
535.163 .0312070
535.979 .0310750
536.794 .0309690
537.608 .0308844
538.422 .0308255
539.235 .0307890
540.048 .0307650
540.860 .0307482
541.671 .0307365
542.481 .0307291
543.292 .0307238
544.101 .0307295
544.910 .0307468
545.718 .0307758
546.526 .0308196
547.333 .0308750
548.139 .0309336
548.945 .0310005
549.750 .0310626
550.555 .0311134
551.359 .0311559
552.162 .0311851
552.965 .0312074
553.768 .0312267
554.569 .0312521
555.371 .0312860
556.171 .0313287
556.972 .0313803
557.771 .0314361
558.570 .0314915
559.369 .0315470
560.167 .0315986
560.964 .0316452
561.761 .0316851
562.558 .0317248
563.354 .0317670
564.149 .0318136
564.944 .0318658
565.738 .0319254
566.532 .0319839
567.325 .0320426
568.118 .0320973
568.910 .0321458
569.702 .0321906
570.494 .0322302
571.285 .0322626
572.075 .0322935
572.865 .0323245
573.654 .0323550
574.443 .0323854
575.232 .0324180
576.020 .0324490
576.807 .0324762
577.594 .0325022
578.381 .0325255
579.167 .0325482
579.952 .0325745
580.738 .0326049
581.522 .0326398
582.307 .0326773
583.091 .0327170
583.874 .0327579
584.657 .0327987
585.440 .0328368
586.222 .0328692
587.004 .0328980
587.785 .0329243
588.566 .0329474
589.346 .0329679
590.126 .0329874
590.906 .0330051
591.685 .0330205
592.464 .0330311
593.242 .0330369
594.020 .0330371
594.797 .0330323
595.575 .0330224
596.351 .0330070
597.128 .0329877
597.904 .0329660
598.679 .0329425
599.454 .0329189
600.229 .0328943
601.004 .0328696
601.778 .0328438
602.551 .0328176
603.325 .0327897
604.097 .0327614
604.870 .0327325
605.642 .0327042
606.414 .0326769
607.185 .0326512
607.956 .0326269
608.727 .0326052
609.497 .0325855
610.267 .0325680
611.037 .0325514
611.806 .0325363
612.575 .0325212
613.344 .0325071
614.112 .0324930
614.880 .0324796
615.647 .0324665
616.414 .0324542
617.181 .0324426
617.948 .0324316
618.714 .0324207
619.480 .0324100
620.245 .0323989
621.011 .0323868
621.775 .0323736
622.540 .0323584
623.304 .0323415
624.068 .0323236
624.832 .0323041
625.595 .0322838
626.358 .0322630
627.120 .0322422
627.883 .0322211
628.645 .0321992
629.406 .0321763
630.168 .0321510
630.929 .0321236
631.689 .0320938
632.450 .0320613
633.210 .0320271
633.970 .0319920
634.729 .0319563
635.489 .0319215
636.248 .0318877
637.006 .0318548
637.765 .0318228
638.523 .0317916
639.280 .0317602
640.038 .0317282
640.795 .0316962
641.552 .0316644
642.309 .0316332
643.065 .0316036
643.821 .0315750
644.577 .0315475
645.332 .0315211
646.088 .0314947
646.843 .0314670
647.597 .0314376
648.352 .0314066
649.106 .0313733
649.860 .0313378
650.613 .0313014
651.367 .0312643
652.120 .0312272
652.872 .0311900
653.625 .0311529
654.377 .0311161
655.129 .0310797
655.881 .0310439
656.632 .0310089
657.384 .0309755
658.135 .0309440
658.885 .0309138
659.636 .0308863
660.386 .0308605
661.136 .0308363
661.885 .0308130
662.635 .0307907
663.384 .0307687
664.133 .0307465
664.881 .0307238
665.630 .0307014
666.378 .0306791
667.126 .0306565
667.874 .0306339
668.621 .0306111
669.368 .0305879
670.115 .0305644
670.862 .0305400
671.608 .0305155
672.354 .0304911
673.100 .0304671
673.846 .0304435
674.591 .0304209
675.337 .0303999
676.082 .0303796
676.826 .0303608
677.571 .0303428
678.315 .0303251
679.059 .0303078
679.803 .0302906
680.547 .0302734
681.290 .0302562
682.033 .0302394
682.776 .0302234
683.518 .0302084
684.261 .0301950
685.003 .0301820
685.745 .0301699
686.487 .0301581
687.228 .0301465
687.969 .0301345
688.710 .0301216
689.451 .0301079
690.192 .0300938
690.932 .0300789
691.672 .0300633
692.412 .0300475
693.152 .0300322
693.891 .0300172
694.630 .0300020
695.369 .0299862
696.108 .0299700
696.846 .0299532
697.585 .0299359
698.323 .0299177
699.061 .0299000
699.798 .0298824
700.536 .0298652
701.273 .0298488
702.010 .0298337
702.746 .0298200
703.483 .0298074
704.219 .0297956
704.955 .0297844
705.691 .0297730
706.427 .0297620
707.162 .0297510
707.897 .0297404
708.632 .0297299
709.367 .0297190
710.101 .0297079
710.835 .0296966
711.569 .0296845
712.303 .0296713
713.037 .0296574
713.770 .0296430
714.503 .0296269
715.236 .0296096
715.969 .0295914
716.702 .0295726
717.434 .0295534
718.166 .0295335
718.898 .0295128
719.629 .0294921
720.361 .0294711
721.092 .0294494
721.823 .0294276
722.554 .0294054
723.284 .0293825
724.014 .0293587
724.744 .0293345
725.474 .0293093
726.204 .0292836
726.933 .0292577
727.662 .0292316
728.391 .0292058
729.120 .0291803
729.849 .0291555
730.577 .0291318
731.305 .0291086
732.033 .0290856
732.760 .0290626
733.488 .0290396
734.215 .0290159
734.942 .0289924
735.669 .0289683
736.395 .0289441
737.122 .0289199
737.848 .0288961
738.573 .0288727
739.299 .0288499
740.024 .0288270
740.750 .0288041
741.474 .0287814
742.199 .0287585
742.924 .0287349
743.648 .0287118
744.372 .0286886
745.096 .0286657
745.819 .0286433
746.543 .0286214
747.266 .0286001
747.989 .0285804
748.711 .0285620
749.434 .0285445
750.156 .0285282
750.878 .0285127
751.599 .0284982
752.321 .0284844
753.042 .0284709
753.763 .0284575
754.484 .0284442
755.205 .0284310
755.925 .0284174
756.645 .0284034
757.365 .0283890
758.085 .0283738
758.804 .0283580
759.523 .0283407
760.242 .0283224
760.961 .0283032
761.679 .0282831
762.397 .0282618
763.115 .0282394
763.833 .0282160
764.551 .0281917
765.268 .0281667
765.985 .0281410
766.702 .0281147
767.418 .0280883
768.134 .0280619
768.850 .0280358
769.566 .0280107
770.282 .0279866
770.997 .0279635
771.712 .0279420
772.427 .0279215
773.142 .0279020
773.856 .0278831
774.570 .0278651
775.284 .0278476
775.998 .0278304
776.711 .0278136
777.424 .0277977
778.137 .0277827
778.849 .0277692
779.562 .0277570
780.274 .0277461
780.986 .0277367
781.697 .0277285
782.409 .0277212
783.120 .0277147
783.831 .0277090
784.541 .0277040
785.252 .0276996
785.962 .0276964
786.671 .0276934
787.381 .0276908
788.090 .0276893
788.799 .0276877
789.508 .0276856
790.217 .0276830
790.925 .0276796
791.633 .0276750
792.341 .0276694
793.048 .0276627
793.755 .0276546
794.462 .0276463
795.169 .0276377
795.875 .0276282
796.581 .0276192
797.287 .0276103
797.993 .0276018
798.698 .0275939
799.403 .0275867
800.108 .0275798
800.812 .0275741
801.517 .0275695
802.221 .0275657
802.924 .0275627
803.628 .0275607
804.331 .0275593
805.034 .0275591
805.736 .0275596
806.439 .0275606
807.141 .0275624
807.843 .0275656
808.544 .0275685
809.245 .0275716
809.946 .0275741
810.647 .0275764
811.347 .0275776
812.047 .0275779
812.747 .0275771
813.447 .0275758
814.146 .0275737
814.845 .0275714
815.543 .0275682
816.242 .0275653
816.940 .0275617
817.638 .0275578
818.335 .0275535
819.032 .0275488
819.729 .0275439
820.426 .0275391
821.122 .0275344
821.818 .0275297
822.514 .0275248
823.209 .0275201
823.905 .0275151
824.599 .0275097
825.294 .0275034
825.988 .0274962
826.682 .0274883
827.376 .0274797
828.069 .0274702
828.762 .0274597
829.455 .0274486
830.147 .0274365
830.840 .0274236
831.531 .0274100
832.223 .0273958
832.914 .0273813
833.605 .0273671
834.296 .0273533
834.986 .0273403
835.676 .0273281
836.366 .0273173
837.055 .0273074
837.744 .0272983
838.433 .0272896
839.121 .0272817
839.809 .0272743
840.497 .0272675
841.185 .0272612
841.872 .0272551
842.559 .0272492
843.245 .0272429
843.932 .0272362
844.617 .0272285
845.303 .0272199
845.988 .0272104
846.673 .0272001
847.358 .0271891
848.042 .0271777
848.726 .0271655
849.410 .0271530
850.093 .0271401
850.776 .0271269
851.459 .0271131
852.141 .0270992
852.823 .0270849
853.505 .0270705
854.186 .0270557
854.867 .0270410
855.548 .0270258
856.228 .0270108
856.908 .0269958
857.588 .0269809
858.267 .0269660
858.946 .0269514
859.625 .0269369
860.303 .0269229
860.981 .0269091
861.659 .0268954
862.336 .0268811
863.013 .0268665
863.690 .0268510
864.366 .0268349
865.042 .0268188
865.718 .0268028
866.393 .0267868
867.068 .0267712
867.743 .0267555
868.417 .0267394
869.091 .0267226
869.765 .0267051
870.438 .0266863
871.111 .0266668
871.783 .0266465
872.456 .0266256
873.127 .0266047
873.799 .0265840
874.470 .0265628
875.141 .0265413
875.811 .0265190
876.481 .0264958
877.151 .0264721
877.820 .0264479
878.489 .0264240
879.158 .0264006
879.826 .0263781
880.494 .0263565
881.162 .0263357
881.829 .0263159
882.496 .0262961
883.163 .0262768
883.829 .0262580
884.495 .0262390
885.160 .0262205
885.825 .0262030
886.490 .0261866
887.154 .0261712
887.818 .0261570
888.482 .0261440
889.145 .0261319
889.808 .0261209
890.471 .0261105
891.133 .0261009
891.795 .0260923
892.456 .0260842
893.117 .0260761
893.778 .0260687
894.439 .0260613
895.099 .0260533
895.758 .0260445
896.417 .0260349
897.076 .0260248
897.735 .0260138
898.393 .0260016
899.051 .0259886
899.708 .0259745
900.365 .0259590
901.022 .0259421
901.678 .0259245
902.334 .0259057
902.990 .0258864
903.645 .0258674
904.300 .0258485
904.954 .0258298
905.608 .0258117
906.262 .0257943
906.915 .0257779
907.568 .0257616
908.221 .0257455
908.873 .0257302
909.525 .0257163
910.176 .0257028
910.828 .0256896
911.478 .0256773
912.129 .0256654
912.778 .0256531
913.428 .0256410
914.077 .0256284
914.726 .0256156
915.375 .0256030
916.023 .0255907
916.670 .0255789
917.318 .0255678
917.964 .0255571
918.611 .0255464
919.257 .0255354
919.903 .0255238
920.548 .0255112
921.193 .0254989
921.838 .0254876
922.482 .0254766
923.126 .0254670
923.770 .0254589
924.413 .0254516
925.056 .0254444
925.698 .0254366
926.340 .0254277
926.982 .0254174
927.623 .0254057
928.264 .0253931
928.904 .0253807
929.544 .0253695
930.184 .0253586
930.823 .0253490
931.462 .0253406
932.101 .0253323
932.739 .0253234
933.377 .0253137
934.014 .0253023
934.651 .0252897
935.288 .0252762
935.924 .0252622
936.560 .0252486
937.196 .0252361
937.831 .0252245
938.466 .0252142
939.100 .0252050
939.734 .0251965
940.368 .0251882
941.001 .0251807
941.634 .0251730
942.266 .0251649
942.899 .0251564
943.530 .0251478
944.162 .0251390
944.793 .0251303
945.423 .0251211
946.053 .0251113
946.683 .0251015
947.313 .0250915
947.942 .0250812
948.571 .0250704
949.199 .0250591
949.827 .0250468
950.455 .0250332
951.082 .0250191
951.709 .0250045
952.335 .0249896
952.961 .0249754
953.587 .0249620
954.212 .0249494
954.837 .0249377
955.462 .0249272
956.086 .0249181
956.710 .0249105
957.334 .0249044
957.957 .0248993
958.579 .0248950
959.202 .0248919
959.824 .0248897
960.445 .0248883
961.067 .0248877
961.688 .0248874
962.308 .0248871
962.928 .0248872
963.548 .0248873
964.168 .0248870
964.787 .0248865
965.406 .0248859
966.024 .0248850
966.642 .0248834
967.260 .0248815
967.877 .0248793
968.494 .0248774
969.110 .0248757
969.727 .0248732
970.342 .0248703
970.958 .0248673
971.573 .0248641
972.188 .0248603
972.802 .0248566
973.416 .0248526
974.030 .0248487
974.643 .0248455
975.256 .0248426
975.869 .0248404
976.481 .0248394
977.093 .0248395
977.705 .0248409
978.316 .0248430
978.927 .0248455
979.538 .0248482
980.148 .0248516
980.758 .0248554
981.367 .0248594
981.977 .0248643
982.586 .0248699
983.194 .0248758
983.802 .0248821
984.410 .0248880
985.018 .0248935
985.625 .0248986
986.232 .0249021
986.838 .0249043
987.445 .0249050
988.050 .0249046
988.656 .0249028
989.261 .0248998
989.866 .0248958
990.471 .0248911
991.075 .0248860
991.679 .0248804
992.282 .0248746
992.886 .0248697
993.489 .0248658
994.091 .0248629
994.694 .0248610
995.296 .0248600
995.897 .0248594
996.499 .0248595
997.100 .0248592
997.701 .0248593
998.301 .0248596
998.901 .0248609
999.501 .0248633
1000.101 .0248666
1000.700 .0248710
1001.299 .0248760
1001.898 .0248811
1002.496 .0248861
1003.094 .0248895
1003.692 .0248920
1004.289 .0248934
1004.887 .0248942
1005.484 .0248948
1006.080 .0248958
1006.677 .0248969
1007.273 .0248986
1007.868 .0249004
1008.464 .0249022
1009.059 .0249035
1009.654 .0249053
1010.249 .0249075
1010.843 .0249102
1011.437 .0249133
1012.031 .0249169
1012.625 .0249209
1013.218 .0249252
1013.811 .0249298
1014.404 .0249349
1014.997 .0249399
1015.589 .0249449
1016.181 .0249494
1016.773 .0249539
1017.365 .0249585
1017.956 .0249625
1018.547 .0249653
1019.138 .0249676
1019.728 .0249686
1020.319 .0249683
1020.909 .0249667
1021.499 .0249648
1022.088 .0249623
1022.678 .0249594
1023.267 .0249570
1023.856 .0249549
1024.445 .0249530
1025.033 .0249517
1025.621 .0249502
1026.209 .0249494
1026.797 .0249485
1027.385 .0249472
1027.972 .0249457
1028.560 .0249450
1029.147 .0249442
1029.734 .0249437
1030.320 .0249439
1030.907 .0249448
1031.493 .0249456
1032.079 .0249468
1032.665 .0249478
1033.250 .0249476
1033.836 .0249465
1034.421 .0249440
1035.006 .0249394
1035.591 .0249336
1036.176 .0249261
1036.761 .0249168
1037.345 .0249062
1037.929 .0248946
1038.514 .0248814
1039.097 .0248678
1039.681 .0248537
1040.265 .0248392
1040.848 .0248250
1041.432 .0248115
1042.015 .0247979
1042.598 .0247847
1043.181 .0247723
1043.764 .0247593
1044.346 .0247463
1044.929 .0247340
1045.511 .0247231
1046.094 .0247146
1046.676 .0247101
1047.258 .0247092
1047.840 .0247120
1048.422 .0247181
1049.003 .0247242
1049.585 .0247294
1050.166 .0247329
1050.748 .0247327
1051.329 .0247299
1051.910 .0247254
1052.491 .0247209
1053.072 .0247171
1053.653 .0247152
1054.234 .0247149
1054.815 .0247145
1055.396 .0247117
1055.976 .0247046
1056.557 .0246911
1057.138 .0246733
1057.718 .0246501
1058.298 .0246238
1058.879 .0245972
1059.459 .0245717
1060.039 .0245479
1060.620 .0245255
1061.200 .0245034
1061.780 .0244810
1062.360 .0244557
1062.940 .0244283
1063.520 .0243988
1064.101 .0243689
1064.681 .0243403
1065.261 .0243141
1065.841 .0242909
1066.421 .0242713
1067.001 .0242535
1067.581 .0242384
1068.161 .0242229
1068.741 .0242081
1069.321 .0241927
1069.901 .0241768
1070.482 .0241626
1071.062 .0241492
1071.642 .0241371
1072.222 .0241265
1072.803 .0241164
1073.383 .0241071
1073.963 .0240972
1074.544 .0240870
1075.124 .0240752
1075.705 .0240633
1076.286 .0240527
1076.866 .0240421
1077.447 .0240307
1078.028 .0240197
1078.609 .0240077
1079.190 .0239956
1079.771 .0239823
1080.352 .0239669
1080.934 .0239515
1081.515 .0239378
1082.097 .0239259
1082.679 .0239157
1083.260 .0239062
1083.842 .0238993
1084.424 .0238926
1085.007 .0238875
1085.589 .0238816
1086.172 .0238751
1086.754 .0238697
1087.337 .0238661
1087.920 .0238640
1088.503 .0238651
1089.087 .0238680
1089.670 .0238748
1090.254 .0238815
1090.838 .0238874
1091.422 .0238890
1092.006 .0238875
1092.590 .0238827
1093.175 .0238763
1093.760 .0238658
1094.345 .0238556
1094.930 .0238443
1095.516 .0238358
1096.102 .0238294
1096.688 .0238234
1097.274 .0238169
1097.860 .0238097
1098.447 .0237997
1099.034 .0237891
1099.622 .0237764
1100.209 .0237666
1100.797 .0237590
1101.385 .0237557
1101.973 .0237532
1102.562 .0237517
1103.151 .0237508
1103.740 .0237491
1104.330 .0237438
1104.920 .0237365
1105.510 .0237264
1106.101 .0237147
1106.691 .0237040
1107.283 .0236961
1107.874 .0236912
1108.466 .0236895
1109.058 .0236877
1109.651 .0236852
1110.244 .0236798
1110.837 .0236706
1111.431 .0236580
1112.025 .0236445
1112.620 .0236327
1113.215 .0236230
1113.810 .0236195
1114.406 .0236229
1115.002 .0236329
1115.599 .0236444
1116.196 .0236556
1116.793 .0236643
1117.391 .0236686
1117.989 .0236689
1118.588 .0236666
1119.187 .0236653
1119.787 .0236664
1120.387 .0236699
1120.988 .0236782
1121.589 .0236919
1122.190 .0237102
1122.793 .0237277
1123.395 .0237450
1123.998 .0237633
1124.602 .0237835
1125.206 .0238077
1125.811 .0238364
1126.416 .0238693
1127.022 .0239058
1127.628 .0239449
1128.235 .0239829
1128.843 .0240221
1129.451 .0240611
1130.059 .0240975
1130.669 .0241322
1131.278 .0241672
1131.889 .0242014
1132.500 .0242380
1133.112 .0242806
1133.724 .0243279
1134.337 .0243747
1134.950 .0244205
1135.564 .0244624
1136.179 .0245019
1136.795 .0245400
1137.411 .0245752
1138.028 .0246075
1138.645 .0246426
1139.263 .0246814
1139.882 .0247191
1140.502 .0247597
1141.122 .0247960
1141.743 .0248317
1142.365 .0248650
1142.987 .0248971
1143.611 .0249543
1144.235 .0247816
1144.859 .0249462
1145.485 .0250687
