Measurement Sequence started on: 10-20-44-796
Integration time: 35
Scans to Average: 2 
>>>>>Begin Spectral Data<<<<<
432.953 .0572485
433.882 .0401549
434.810 .0411326
435.737 .0388714
436.662 .0374471
437.586 .0393961
438.509 .0386788
439.431 .0386594
440.351 .0386883
441.269 .0388347
442.187 .0390265
443.103 .0392096
444.018 .0393764
444.932 .0395432
445.844 .0397080
446.756 .0398461
447.666 .0399386
448.575 .0399893
449.482 .0400044
450.388 .0399923
451.294 .0399445
452.198 .0398893
453.100 .0398315
454.002 .0397815
454.902 .0397425
455.801 .0397195
456.699 .0397141
457.596 .0397162
458.492 .0397152
459.387 .0397035
460.280 .0396792
461.172 .0396384
462.064 .0395815
462.954 .0395142
463.843 .0394387
464.730 .0393646
465.617 .0392975
466.503 .0392428
467.387 .0391915
468.271 .0391483
469.153 .0391042
470.035 .0390526
470.915 .0389924
471.794 .0389156
472.673 .0388255
473.550 .0387336
474.426 .0386438
475.301 .0385598
476.175 .0384893
477.048 .0384340
477.920 .0383896
478.791 .0383542
479.661 .0383248
480.530 .0382955
481.398 .0382629
482.266 .0382295
483.132 .0381932
483.997 .0381595
484.861 .0381296
485.724 .0381030
486.587 .0380840
487.448 .0380658
488.308 .0380431
489.168 .0380159
490.026 .0379827
490.884 .0379392
491.741 .0378852
492.597 .0378213
493.452 .0377512
494.306 .0376759
495.159 .0375952
496.011 .0375117
496.862 .0374308
497.713 .0373480
498.562 .0372610
499.411 .0371745
500.259 .0370900
501.106 .0370012
501.952 .0369154
502.798 .0368304
503.642 .0367464
504.486 .0366638
505.329 .0365838
506.171 .0365059
507.012 .0364367
507.852 .0363737
508.692 .0363156
509.531 .0362653
510.369 .0362213
511.206 .0361730
512.043 .0361215
512.878 .0360598
513.713 .0359879
514.547 .0359009
515.381 .0358054
516.213 .0356984
517.045 .0355829
517.876 .0354587
518.706 .0353277
519.536 .0351945
520.365 .0350555
521.193 .0349065
522.020 .0347480
522.847 .0345713
523.673 .0343776
524.498 .0341680
525.323 .0339430
526.146 .0337099
526.969 .0334711
527.792 .0332286
528.614 .0329840
529.435 .0327484
530.255 .0325233
531.075 .0323112
531.894 .0321226
532.712 .0319528
533.530 .0318001
534.347 .0316745
535.163 .0315693
535.979 .0314917
536.794 .0314411
537.608 .0314159
538.422 .0314128
539.235 .0314302
540.048 .0314627
540.860 .0315067
541.671 .0315570
542.481 .0316048
543.292 .0316416
544.101 .0316675
544.910 .0316790
545.718 .0316751
546.526 .0316649
547.333 .0316510
548.139 .0316358
548.945 .0316191
549.750 .0315944
550.555 .0315744
551.359 .0315596
552.162 .0315452
552.965 .0315340
553.768 .0315275
554.569 .0315312
555.371 .0315360
556.171 .0315452
556.972 .0315577
557.771 .0315739
558.570 .0315921
559.369 .0316115
560.167 .0316335
560.964 .0316654
561.761 .0317061
562.558 .0317598
563.354 .0318258
564.149 .0319025
564.944 .0319825
565.738 .0320658
566.532 .0321480
567.325 .0322239
568.118 .0322877
568.910 .0323438
569.702 .0323929
570.494 .0324383
571.285 .0324796
572.075 .0325216
572.865 .0325654
573.654 .0326102
574.443 .0326534
575.232 .0326977
576.020 .0327404
576.807 .0327812
577.594 .0328175
578.381 .0328478
579.167 .0328728
579.952 .0328952
580.738 .0329153
581.522 .0329366
582.307 .0329604
583.091 .0329874
583.874 .0330171
584.657 .0330508
585.440 .0330854
586.222 .0331171
587.004 .0331465
587.785 .0331700
588.566 .0331852
589.346 .0331945
590.126 .0331981
590.906 .0331968
591.685 .0331924
592.464 .0331851
593.242 .0331756
594.020 .0331644
594.797 .0331524
595.575 .0331387
596.351 .0331235
597.128 .0331072
597.904 .0330894
598.679 .0330697
599.454 .0330497
600.229 .0330282
601.004 .0330067
601.778 .0329853
602.551 .0329627
603.325 .0329397
604.097 .0329167
604.870 .0328940
605.642 .0328713
606.414 .0328492
607.185 .0328273
607.956 .0328053
608.727 .0327842
609.497 .0327638
610.267 .0327440
611.037 .0327250
611.806 .0327063
612.575 .0326877
613.344 .0326690
614.112 .0326495
614.880 .0326284
615.647 .0326068
616.414 .0325836
617.181 .0325593
617.948 .0325341
618.714 .0325089
619.480 .0324836
620.245 .0324587
621.011 .0324338
621.775 .0324091
622.540 .0323843
623.304 .0323594
624.068 .0323340
624.832 .0323102
625.595 .0322866
626.358 .0322640
627.120 .0322425
627.883 .0322211
628.645 .0321989
629.406 .0321760
630.168 .0321509
630.929 .0321242
631.689 .0320959
632.450 .0320660
633.210 .0320351
633.970 .0320042
634.729 .0319725
635.489 .0319398
636.248 .0319061
637.006 .0318709
637.765 .0318325
638.523 .0317921
639.280 .0317500
640.038 .0317065
640.795 .0316643
641.552 .0316232
642.309 .0315842
643.065 .0315480
643.821 .0315141
644.577 .0314812
645.332 .0314489
646.088 .0314171
646.843 .0313851
647.597 .0313527
648.352 .0313207
649.106 .0312888
649.860 .0312575
650.613 .0312276
651.367 .0311984
652.120 .0311695
652.872 .0311411
653.625 .0311122
654.377 .0310837
655.129 .0310554
655.881 .0310279
656.632 .0310010
657.384 .0309754
658.135 .0309510
658.885 .0309264
659.636 .0309018
660.386 .0308765
661.136 .0308501
661.885 .0308231
662.635 .0307953
663.384 .0307677
664.133 .0307409
664.881 .0307156
665.630 .0306913
666.378 .0306683
667.126 .0306461
667.874 .0306240
668.621 .0306016
669.368 .0305784
670.115 .0305543
670.862 .0305302
671.608 .0305068
672.354 .0304845
673.100 .0304642
673.846 .0304462
674.591 .0304297
675.337 .0304148
676.082 .0304008
676.826 .0303876
677.571 .0303748
678.315 .0303623
679.059 .0303503
679.803 .0303394
680.547 .0303303
681.290 .0303218
682.033 .0303143
682.776 .0303074
683.518 .0302993
684.261 .0302901
685.003 .0302792
685.745 .0302669
686.487 .0302531
687.228 .0302387
687.969 .0302238
688.710 .0302083
689.451 .0301925
690.192 .0301760
690.932 .0301587
691.672 .0301401
692.412 .0301203
693.152 .0300994
693.891 .0300783
694.630 .0300577
695.369 .0300383
696.108 .0300209
696.846 .0300056
697.585 .0299923
698.323 .0299802
699.061 .0299692
699.798 .0299588
700.536 .0299480
701.273 .0299371
702.010 .0299259
702.746 .0299143
703.483 .0299027
704.219 .0298907
704.955 .0298785
705.691 .0298654
706.427 .0298516
707.162 .0298366
707.897 .0298204
708.632 .0298033
709.367 .0297854
710.101 .0297669
710.835 .0297479
711.569 .0297283
712.303 .0297083
713.037 .0296885
713.770 .0296685
714.503 .0296480
715.236 .0296273
715.969 .0296065
716.702 .0295856
717.434 .0295642
718.166 .0295425
718.898 .0295200
719.629 .0294968
720.361 .0294728
721.092 .0294476
721.823 .0294219
722.554 .0293951
723.284 .0293677
724.014 .0293392
724.744 .0293092
725.474 .0292780
726.204 .0292457
726.933 .0292131
727.662 .0291801
728.391 .0291471
729.120 .0291147
729.849 .0290835
730.577 .0290538
731.305 .0290252
732.033 .0289979
732.760 .0289708
733.488 .0289439
734.215 .0289165
734.942 .0288889
735.669 .0288608
736.395 .0288333
737.122 .0288069
737.848 .0287814
738.573 .0287573
739.299 .0287342
740.024 .0287122
740.750 .0286908
741.474 .0286687
742.199 .0286461
742.924 .0286226
743.648 .0285986
744.372 .0285741
745.096 .0285503
745.819 .0285278
746.543 .0285065
747.266 .0284867
747.989 .0284685
748.711 .0284515
749.434 .0284352
750.156 .0284193
750.878 .0284033
751.599 .0283871
752.321 .0283708
753.042 .0283545
753.763 .0283393
754.484 .0283254
755.205 .0283129
755.925 .0283017
756.645 .0282918
757.365 .0282819
758.085 .0282717
758.804 .0282608
759.523 .0282482
760.242 .0282336
760.961 .0282174
761.679 .0281998
762.397 .0281811
763.115 .0281617
763.833 .0281418
764.551 .0281214
765.268 .0281006
765.985 .0280788
766.702 .0280560
767.418 .0280323
768.134 .0280082
768.850 .0279838
769.566 .0279603
770.282 .0279381
770.997 .0279178
771.712 .0279000
772.427 .0278847
773.142 .0278714
773.856 .0278597
774.570 .0278487
775.284 .0278381
775.998 .0278270
776.711 .0278157
777.424 .0278045
778.137 .0277941
778.849 .0277843
779.562 .0277759
780.274 .0277686
780.986 .0277624
781.697 .0277569
782.409 .0277522
783.120 .0277480
783.831 .0277442
784.541 .0277413
785.252 .0277391
785.962 .0277379
786.671 .0277378
787.381 .0277383
788.090 .0277396
788.799 .0277409
789.508 .0277416
790.217 .0277412
790.925 .0277401
791.633 .0277377
792.341 .0277342
793.048 .0277297
793.755 .0277244
794.462 .0277179
795.169 .0277104
795.875 .0277021
796.581 .0276934
797.287 .0276843
797.993 .0276756
798.698 .0276673
799.403 .0276608
800.108 .0276556
800.812 .0276521
801.517 .0276500
802.221 .0276491
802.924 .0276485
803.628 .0276481
804.331 .0276481
805.034 .0276483
805.736 .0276485
806.439 .0276489
807.141 .0276495
807.843 .0276502
808.544 .0276499
809.245 .0276490
809.946 .0276468
810.647 .0276437
811.347 .0276392
812.047 .0276339
812.747 .0276286
813.447 .0276233
814.146 .0276182
814.845 .0276135
815.543 .0276087
816.242 .0276042
816.940 .0275990
817.638 .0275936
818.335 .0275879
819.032 .0275818
819.729 .0275753
820.426 .0275689
821.122 .0275624
821.818 .0275557
822.514 .0275485
823.209 .0275411
823.905 .0275331
824.599 .0275243
825.294 .0275143
825.988 .0275033
826.682 .0274918
827.376 .0274796
828.069 .0274663
828.762 .0274525
829.455 .0274378
830.147 .0274227
830.840 .0274071
831.531 .0273914
832.223 .0273753
832.914 .0273596
833.605 .0273440
834.296 .0273288
834.986 .0273138
835.676 .0272994
836.366 .0272853
837.055 .0272719
837.744 .0272593
838.433 .0272474
839.121 .0272362
839.809 .0272259
840.497 .0272167
841.185 .0272081
841.872 .0271999
842.559 .0271915
843.245 .0271827
843.932 .0271738
844.617 .0271638
845.303 .0271529
845.988 .0271414
846.673 .0271298
847.358 .0271176
848.042 .0271049
848.726 .0270920
849.410 .0270788
850.093 .0270653
850.776 .0270513
851.459 .0270367
852.141 .0270208
852.823 .0270043
853.505 .0269870
854.186 .0269694
854.867 .0269514
855.548 .0269332
856.228 .0269149
856.908 .0268966
857.588 .0268780
858.267 .0268591
858.946 .0268403
859.625 .0268217
860.303 .0268032
860.981 .0267847
861.659 .0267661
862.336 .0267475
863.013 .0267286
863.690 .0267091
864.366 .0266889
865.042 .0266678
865.718 .0266460
866.393 .0266238
867.068 .0266022
867.743 .0265813
868.417 .0265615
869.091 .0265428
869.765 .0265252
870.438 .0265075
871.111 .0264898
871.783 .0264713
872.456 .0264517
873.127 .0264308
873.799 .0264092
874.470 .0263868
875.141 .0263647
875.811 .0263431
876.481 .0263228
877.151 .0263035
877.820 .0262854
878.489 .0262673
879.158 .0262495
879.826 .0262308
880.494 .0262116
881.162 .0261911
881.829 .0261705
882.496 .0261490
883.163 .0261281
883.829 .0261075
884.495 .0260878
885.160 .0260693
885.825 .0260521
886.490 .0260365
887.154 .0260224
887.818 .0260090
888.482 .0259968
889.145 .0259849
889.808 .0259737
890.471 .0259622
891.133 .0259509
891.795 .0259395
892.456 .0259282
893.117 .0259169
893.778 .0259061
894.439 .0258956
895.099 .0258857
895.758 .0258766
896.417 .0258684
897.076 .0258608
897.735 .0258535
898.393 .0258462
899.051 .0258393
899.708 .0258320
900.365 .0258243
901.022 .0258159
901.678 .0258074
902.334 .0257986
902.990 .0257893
903.645 .0257799
904.300 .0257705
904.954 .0257610
905.608 .0257510
906.262 .0257403
906.915 .0257291
907.568 .0257166
908.221 .0257037
908.873 .0256902
909.525 .0256760
910.176 .0256616
910.828 .0256474
911.478 .0256336
912.129 .0256201
912.778 .0256070
913.428 .0255943
914.077 .0255820
914.726 .0255700
915.375 .0255574
916.023 .0255449
916.670 .0255330
917.318 .0255213
917.964 .0255093
918.611 .0254977
919.257 .0254863
919.903 .0254749
920.548 .0254640
921.193 .0254534
921.838 .0254436
922.482 .0254344
923.126 .0254260
923.770 .0254182
924.413 .0254111
925.056 .0254047
925.698 .0253989
926.340 .0253943
926.982 .0253904
927.623 .0253871
928.264 .0253845
928.904 .0253827
929.544 .0253812
930.184 .0253794
930.823 .0253768
931.462 .0253737
932.101 .0253696
932.739 .0253643
933.377 .0253577
934.014 .0253505
934.651 .0253428
935.288 .0253351
935.924 .0253273
936.560 .0253196
937.196 .0253120
937.831 .0253048
938.466 .0252973
939.100 .0252899
939.734 .0252818
940.368 .0252734
941.001 .0252640
941.634 .0252545
942.266 .0252443
942.899 .0252337
943.530 .0252231
944.162 .0252127
944.793 .0252021
945.423 .0251913
946.053 .0251805
946.683 .0251698
947.313 .0251593
947.942 .0251487
948.571 .0251372
949.199 .0251261
949.827 .0251146
950.455 .0251033
951.082 .0250926
951.709 .0250828
952.335 .0250742
952.961 .0250661
953.587 .0250587
954.212 .0250519
954.837 .0250454
955.462 .0250397
956.086 .0250342
956.710 .0250292
957.334 .0250245
957.957 .0250197
958.579 .0250152
959.202 .0250114
959.824 .0250073
960.445 .0250035
961.067 .0250000
961.688 .0249967
962.308 .0249937
962.928 .0249909
963.548 .0249885
964.168 .0249866
964.787 .0249845
965.406 .0249824
966.024 .0249801
966.642 .0249779
967.260 .0249752
967.877 .0249723
968.494 .0249692
969.110 .0249656
969.727 .0249616
970.342 .0249576
970.958 .0249537
971.573 .0249507
972.188 .0249483
972.802 .0249467
973.416 .0249463
974.030 .0249466
974.643 .0249470
975.256 .0249476
975.869 .0249476
976.481 .0249467
977.093 .0249456
977.705 .0249445
978.316 .0249437
978.927 .0249440
979.538 .0249458
980.148 .0249488
980.758 .0249527
981.367 .0249572
981.977 .0249614
982.586 .0249653
983.194 .0249690
983.802 .0249720
984.410 .0249748
985.018 .0249781
985.625 .0249816
986.232 .0249856
986.838 .0249901
987.445 .0249938
988.050 .0249967
988.656 .0249987
989.261 .0249989
989.866 .0249969
990.471 .0249932
991.075 .0249884
991.679 .0249822
992.282 .0249752
992.886 .0249678
993.489 .0249603
994.091 .0249529
994.694 .0249454
995.296 .0249379
995.897 .0249309
996.499 .0249245
997.100 .0249182
997.701 .0249125
998.301 .0249074
998.901 .0249028
999.501 .0248988
1000.101 .0248959
1000.700 .0248937
1001.299 .0248919
1001.898 .0248909
1002.496 .0248901
1003.094 .0248898
1003.692 .0248898
1004.289 .0248898
1004.887 .0248901
1005.484 .0248903
1006.080 .0248900
1006.677 .0248887
1007.273 .0248869
1007.868 .0248846
1008.464 .0248818
1009.059 .0248786
1009.654 .0248751
1010.249 .0248716
1010.843 .0248682
1011.437 .0248654
1012.031 .0248630
1012.625 .0248615
1013.218 .0248600
1013.811 .0248585
1014.404 .0248562
1014.997 .0248533
1015.589 .0248501
1016.181 .0248466
1016.773 .0248436
1017.365 .0248419
1017.956 .0248411
1018.547 .0248422
1019.138 .0248452
1019.728 .0248505
1020.319 .0248565
1020.909 .0248635
1021.499 .0248699
1022.088 .0248753
1022.678 .0248788
1023.267 .0248805
1023.856 .0248800
1024.445 .0248786
1025.033 .0248761
1025.621 .0248721
1026.209 .0248675
1026.797 .0248628
1027.385 .0248571
1027.972 .0248516
1028.560 .0248459
1029.147 .0248395
1029.734 .0248322
1030.320 .0248249
1030.907 .0248167
1031.493 .0248086
1032.079 .0248009
1032.665 .0247939
1033.250 .0247869
1033.836 .0247806
1034.421 .0247740
1035.006 .0247675
1035.591 .0247614
1036.176 .0247549
1036.761 .0247466
1037.345 .0247372
1037.929 .0247265
1038.514 .0247146
1039.097 .0247021
1039.681 .0246898
1040.265 .0246776
1040.848 .0246667
1041.432 .0246563
1042.015 .0246469
1042.598 .0246382
1043.181 .0246309
1043.764 .0246247
1044.346 .0246190
1044.929 .0246154
1045.511 .0246126
1046.094 .0246109
1046.676 .0246106
1047.258 .0246103
1047.840 .0246092
1048.422 .0246062
1049.003 .0246010
1049.585 .0245930
1050.166 .0245825
1050.748 .0245698
1051.329 .0245549
1051.910 .0245394
1052.491 .0245228
1053.072 .0245045
1053.653 .0244857
1054.234 .0244664
1054.815 .0244447
1055.396 .0244217
1055.976 .0243972
1056.557 .0243707
1057.138 .0243440
1057.718 .0243186
1058.298 .0242954
1058.879 .0242757
1059.459 .0242601
1060.039 .0242484
1060.620 .0242386
1061.200 .0242310
1061.780 .0242229
1062.360 .0242139
1062.940 .0242043
1063.520 .0241932
1064.101 .0241806
1064.681 .0241683
1065.261 .0241574
1065.841 .0241467
1066.421 .0241375
1067.001 .0241286
1067.581 .0241183
1068.161 .0241062
1068.741 .0240921
1069.321 .0240748
1069.901 .0240554
1070.482 .0240356
1071.062 .0240154
1071.642 .0239954
1072.222 .0239768
1072.803 .0239587
1073.383 .0239421
1073.963 .0239273
1074.544 .0239130
1075.124 .0238983
1075.705 .0238843
1076.286 .0238710
1076.866 .0238595
1077.447 .0238483
1078.028 .0238396
1078.609 .0238329
1079.190 .0238286
1079.771 .0238260
1080.352 .0238238
1080.934 .0238230
1081.515 .0238239
1082.097 .0238263
1082.679 .0238299
1083.260 .0238325
1083.842 .0238357
1084.424 .0238377
1085.007 .0238385
1085.589 .0238377
1086.172 .0238343
1086.754 .0238285
1087.337 .0238214
1087.920 .0238131
1088.503 .0238043
1089.087 .0237956
1089.670 .0237887
1090.254 .0237819
1090.838 .0237748
1091.422 .0237660
1092.006 .0237558
1092.590 .0237452
1093.175 .0237350
1093.760 .0237255
1094.345 .0237172
1094.930 .0237122
1095.516 .0237103
1096.102 .0237116
1096.688 .0237147
1097.274 .0237177
1097.860 .0237190
1098.447 .0237157
1099.034 .0237071
1099.622 .0236928
1100.209 .0236751
1100.797 .0236564
1101.385 .0236382
1101.973 .0236215
1102.562 .0236073
1103.151 .0235972
1103.740 .0235878
1104.330 .0235793
1104.920 .0235709
1105.510 .0235636
1106.101 .0235578
1106.691 .0235542
1107.283 .0235563
1107.874 .0235643
1108.466 .0235787
1109.058 .0235993
1109.651 .0236219
1110.244 .0236465
1110.837 .0236675
1111.431 .0236864
1112.025 .0237015
1112.620 .0237157
1113.215 .0237293
1113.810 .0237440
1114.406 .0237621
1115.002 .0237815
1115.599 .0237983
1116.196 .0238124
1116.793 .0238215
1117.391 .0238238
1117.989 .0238153
1118.588 .0238053
1119.187 .0237899
1119.787 .0237754
1120.387 .0237639
1120.988 .0237604
1121.589 .0237640
1122.190 .0237764
1122.793 .0237918
1123.395 .0238089
1123.998 .0238298
1124.602 .0238517
1125.206 .0238726
1125.811 .0239014
1126.416 .0239363
1127.022 .0239792
1127.628 .0240290
1128.235 .0240905
1128.843 .0241533
1129.451 .0242235
1130.059 .0242952
1130.669 .0243638
1131.278 .0244313
1131.889 .0244956
1132.500 .0245526
1133.112 .0246062
1133.724 .0246553
1134.337 .0246978
1134.950 .0247342
1135.564 .0247705
1136.179 .0248021
1136.795 .0248356
1137.411 .0248730
1138.028 .0249136
1138.645 .0249600
1139.263 .0250114
1139.882 .0250606
1140.502 .0251158
1141.122 .0251807
1141.743 .0252605
1142.365 .0253525
1142.987 .0252516
1143.611 .0255019
1144.235 .0257117
1144.859 .0260029
1145.485 .0260427
