Measurement Sequence started on: 10-20-44-796
Integration time: 35
Scans to Average: 2 
>>>>>Begin Spectral Data<<<<<
432.953 .0552197
433.882 .0320030
434.810 .0377949
435.737 .0374748
436.662 .0391185
437.586 .0392591
438.509 .0389609
439.431 .0393034
440.351 .0393648
441.269 .0393588
442.187 .0392654
443.103 .0391249
444.018 .0389832
444.932 .0388188
445.844 .0386438
446.756 .0384876
447.666 .0383295
448.575 .0381854
449.482 .0380594
450.388 .0379530
451.294 .0378521
452.198 .0377484
453.100 .0376486
454.002 .0375522
454.902 .0374672
455.801 .0373906
456.699 .0373319
457.596 .0372966
458.492 .0372814
459.387 .0372760
460.280 .0372859
461.172 .0373012
462.064 .0373142
462.954 .0373231
463.843 .0373326
464.730 .0373387
465.617 .0373440
466.503 .0373422
467.387 .0373338
468.271 .0373172
469.153 .0372937
470.035 .0372558
470.915 .0372161
471.794 .0371675
472.673 .0371173
473.550 .0370712
474.426 .0370340
475.301 .0370012
476.175 .0369715
477.048 .0369377
477.920 .0368996
478.791 .0368498
479.661 .0367924
480.530 .0367286
481.398 .0366696
482.266 .0366198
483.132 .0365823
483.997 .0365593
484.861 .0365536
485.724 .0365608
486.587 .0365769
487.448 .0365890
488.308 .0365926
489.168 .0365846
490.026 .0365628
490.884 .0365330
491.741 .0364983
492.597 .0364640
493.452 .0364351
494.306 .0364075
495.159 .0363816
496.011 .0363545
496.862 .0363210
497.713 .0362780
498.562 .0362221
499.411 .0361536
500.259 .0360733
501.106 .0359885
501.952 .0359055
502.798 .0358276
503.642 .0357586
504.486 .0357003
505.329 .0356457
506.171 .0355985
507.012 .0355508
507.852 .0354984
508.692 .0354485
509.531 .0353924
510.369 .0353295
511.206 .0352673
512.043 .0352071
512.878 .0351477
513.713 .0350903
514.547 .0350310
515.381 .0349653
516.213 .0348899
517.045 .0347969
517.876 .0346793
518.706 .0345403
519.536 .0343866
520.365 .0342047
521.193 .0340050
522.020 .0337971
522.847 .0335741
523.673 .0333506
524.498 .0331188
525.323 .0328759
526.146 .0326284
526.969 .0323837
527.792 .0321384
528.614 .0318935
529.435 .0316657
530.255 .0314517
531.075 .0312512
531.894 .0310810
532.712 .0309335
533.530 .0308102
534.347 .0307240
535.163 .0306584
535.979 .0306071
536.794 .0305704
537.608 .0305441
538.422 .0305257
539.235 .0305120
540.048 .0304983
540.860 .0304797
541.671 .0304534
542.481 .0304272
543.292 .0303877
544.101 .0303442
544.910 .0303005
545.718 .0302520
546.526 .0301936
547.333 .0301336
548.139 .0300768
548.945 .0300303
549.750 .0299886
550.555 .0299674
551.359 .0299589
552.162 .0299697
552.965 .0300067
553.768 .0300583
554.569 .0301257
555.371 .0302000
556.171 .0302722
556.972 .0303399
557.771 .0304032
558.570 .0304666
559.369 .0305294
560.167 .0306046
560.964 .0306882
561.761 .0307764
562.558 .0308729
563.354 .0309762
564.149 .0310713
564.944 .0311574
565.738 .0312358
566.532 .0313064
567.325 .0313736
568.118 .0314407
568.910 .0315074
569.702 .0315819
570.494 .0316652
571.285 .0317551
572.075 .0318479
572.865 .0319460
573.654 .0320391
574.443 .0321247
575.232 .0322024
576.020 .0322708
576.807 .0323316
577.594 .0323879
578.381 .0324421
579.167 .0324946
579.952 .0325462
580.738 .0325964
581.522 .0326449
582.307 .0326906
583.091 .0327312
583.874 .0327647
584.657 .0327899
585.440 .0328085
586.222 .0328216
587.004 .0328304
587.785 .0328366
588.566 .0328423
589.346 .0328492
590.126 .0328558
590.906 .0328627
591.685 .0328693
592.464 .0328741
593.242 .0328773
594.020 .0328755
594.797 .0328716
595.575 .0328661
596.351 .0328595
597.128 .0328521
597.904 .0328456
598.679 .0328396
599.454 .0328325
600.229 .0328244
601.004 .0328145
601.778 .0328024
602.551 .0327874
603.325 .0327698
604.097 .0327500
604.870 .0327293
605.642 .0327080
606.414 .0326854
607.185 .0326632
607.956 .0326403
608.727 .0326167
609.497 .0325920
610.267 .0325674
611.037 .0325423
611.806 .0325177
612.575 .0324943
613.344 .0324724
614.112 .0324510
614.880 .0324302
615.647 .0324091
616.414 .0323884
617.181 .0323670
617.948 .0323447
618.714 .0323220
619.480 .0323013
620.245 .0322819
621.011 .0322652
621.775 .0322502
622.540 .0322378
623.304 .0322249
624.068 .0322115
624.832 .0321952
625.595 .0321755
626.358 .0321526
627.120 .0321274
627.883 .0320997
628.645 .0320713
629.406 .0320420
630.168 .0320134
630.929 .0319850
631.689 .0319573
632.450 .0319285
633.210 .0318993
633.970 .0318685
634.729 .0318368
635.489 .0318030
636.248 .0317690
637.006 .0317344
637.765 .0317002
638.523 .0316672
639.280 .0316352
640.038 .0316048
640.795 .0315763
641.552 .0315499
642.309 .0315261
643.065 .0315043
643.821 .0314854
644.577 .0314674
645.332 .0314496
646.088 .0314317
646.843 .0314125
647.597 .0313915
648.352 .0313690
649.106 .0313458
649.860 .0313224
650.613 .0312998
651.367 .0312778
652.120 .0312571
652.872 .0312386
653.625 .0312226
654.377 .0312077
655.129 .0311942
655.881 .0311819
656.632 .0311696
657.384 .0311575
658.135 .0311456
658.885 .0311329
659.636 .0311198
660.386 .0311063
661.136 .0310925
661.885 .0310788
662.635 .0310660
663.384 .0310540
664.133 .0310430
664.881 .0310320
665.630 .0310200
666.378 .0310059
667.126 .0309900
667.874 .0309720
668.621 .0309512
669.368 .0309289
670.115 .0309056
670.862 .0308823
671.608 .0308606
672.354 .0308403
673.100 .0308228
673.846 .0308081
674.591 .0307962
675.337 .0307863
676.082 .0307774
676.826 .0307692
677.571 .0307615
678.315 .0307534
679.059 .0307453
679.803 .0307367
680.547 .0307276
681.290 .0307180
682.033 .0307065
682.776 .0306938
683.518 .0306797
684.261 .0306634
685.003 .0306454
685.745 .0306247
686.487 .0306023
687.228 .0305781
687.969 .0305525
688.710 .0305261
689.451 .0304994
690.192 .0304729
690.932 .0304469
691.672 .0304210
692.412 .0303961
693.152 .0303720
693.891 .0303488
694.630 .0303271
695.369 .0303057
696.108 .0302854
696.846 .0302662
697.585 .0302475
698.323 .0302300
699.061 .0302134
699.798 .0301971
700.536 .0301808
701.273 .0301639
702.010 .0301465
702.746 .0301277
703.483 .0301077
704.219 .0300869
704.955 .0300652
705.691 .0300433
706.427 .0300210
707.162 .0299988
707.897 .0299778
708.632 .0299573
709.367 .0299370
710.101 .0299166
710.835 .0298964
711.569 .0298753
712.303 .0298527
713.037 .0298295
713.770 .0298061
714.503 .0297823
715.236 .0297586
715.969 .0297350
716.702 .0297113
717.434 .0296876
718.166 .0296629
718.898 .0296375
719.629 .0296115
720.361 .0295853
721.092 .0295579
721.823 .0295300
722.554 .0295027
723.284 .0294747
724.014 .0294461
724.744 .0294175
725.474 .0293881
726.204 .0293586
726.933 .0293292
727.662 .0293005
728.391 .0292732
729.120 .0292491
729.849 .0292271
730.577 .0292073
731.305 .0291896
732.033 .0291733
732.760 .0291564
733.488 .0291391
734.215 .0291208
734.942 .0291007
735.669 .0290795
736.395 .0290581
737.122 .0290364
737.848 .0290153
738.573 .0289942
739.299 .0289731
740.024 .0289514
740.750 .0289293
741.474 .0289051
742.199 .0288804
742.924 .0288559
743.648 .0288318
744.372 .0288089
745.096 .0287889
745.819 .0287722
746.543 .0287582
747.266 .0287470
747.989 .0287375
748.711 .0287294
749.434 .0287224
750.156 .0287159
750.878 .0287102
751.599 .0287055
752.321 .0287011
753.042 .0286971
753.763 .0286930
754.484 .0286890
755.205 .0286834
755.925 .0286772
756.645 .0286689
757.365 .0286584
758.085 .0286456
758.804 .0286313
759.523 .0286148
760.242 .0285977
760.961 .0285793
761.679 .0285601
762.397 .0285393
763.115 .0285177
763.833 .0284949
764.551 .0284723
765.268 .0284497
765.985 .0284272
766.702 .0284049
767.418 .0283842
768.134 .0283637
768.850 .0283444
769.566 .0283262
770.282 .0283086
770.997 .0282917
771.712 .0282760
772.427 .0282614
773.142 .0282486
773.856 .0282374
774.570 .0282281
775.284 .0282200
775.998 .0282125
776.711 .0282051
777.424 .0281968
778.137 .0281881
778.849 .0281778
779.562 .0281661
780.274 .0281528
780.986 .0281389
781.697 .0281243
782.409 .0281098
783.120 .0280958
783.831 .0280826
784.541 .0280700
785.252 .0280584
785.962 .0280472
786.671 .0280361
787.381 .0280251
788.090 .0280139
788.799 .0280020
789.508 .0279899
790.217 .0279778
790.925 .0279660
791.633 .0279539
792.341 .0279427
793.048 .0279312
793.755 .0279194
794.462 .0279067
795.169 .0278927
795.875 .0278782
796.581 .0278631
797.287 .0278477
797.993 .0278321
798.698 .0278174
799.403 .0278040
800.108 .0277918
800.812 .0277810
801.517 .0277709
802.221 .0277618
802.924 .0277533
803.628 .0277451
804.331 .0277372
805.034 .0277300
805.736 .0277237
806.439 .0277186
807.141 .0277151
807.843 .0277115
808.544 .0277083
809.245 .0277041
809.946 .0276981
810.647 .0276901
811.347 .0276795
812.047 .0276667
812.747 .0276522
813.447 .0276372
814.146 .0276214
814.845 .0276063
815.543 .0275924
816.242 .0275792
816.940 .0275666
817.638 .0275536
818.335 .0275409
819.032 .0275278
819.729 .0275148
820.426 .0275017
821.122 .0274884
821.818 .0274759
822.514 .0274632
823.209 .0274507
823.905 .0274380
824.599 .0274251
825.294 .0274116
825.988 .0273968
826.682 .0273806
827.376 .0273628
828.069 .0273438
828.762 .0273234
829.455 .0273027
830.147 .0272809
830.840 .0272596
831.531 .0272389
832.223 .0272192
832.914 .0272007
833.605 .0271835
834.296 .0271680
834.986 .0271538
835.676 .0271410
836.366 .0271296
837.055 .0271184
837.744 .0271084
838.433 .0270978
839.121 .0270870
839.809 .0270759
840.497 .0270647
841.185 .0270526
841.872 .0270402
842.559 .0270272
843.245 .0270136
843.932 .0269999
844.617 .0269863
845.303 .0269726
845.988 .0269594
846.673 .0269468
847.358 .0269346
848.042 .0269233
848.726 .0269130
849.410 .0269031
850.093 .0268939
850.776 .0268850
851.459 .0268758
852.141 .0268667
852.823 .0268574
853.505 .0268481
854.186 .0268373
854.867 .0268258
855.548 .0268127
856.228 .0267982
856.908 .0267823
857.588 .0267646
858.267 .0267459
858.946 .0267263
859.625 .0267055
860.303 .0266845
860.981 .0266639
861.659 .0266444
862.336 .0266256
863.013 .0266081
863.690 .0265917
864.366 .0265762
865.042 .0265612
865.718 .0265475
866.393 .0265340
867.068 .0265208
867.743 .0265071
868.417 .0264931
869.091 .0264796
869.765 .0264650
870.438 .0264502
871.111 .0264352
871.783 .0264200
872.456 .0264045
873.127 .0263886
873.799 .0263731
874.470 .0263575
875.141 .0263417
875.811 .0263262
876.481 .0263109
877.151 .0262963
877.820 .0262827
878.489 .0262697
879.158 .0262581
879.826 .0262473
880.494 .0262367
881.162 .0262272
881.829 .0262182
882.496 .0262095
883.163 .0262008
883.829 .0261920
884.495 .0261831
885.160 .0261742
885.825 .0261655
886.490 .0261567
887.154 .0261475
887.818 .0261387
888.482 .0261295
889.145 .0261204
889.808 .0261122
890.471 .0261047
891.133 .0260982
891.795 .0260923
892.456 .0260871
893.117 .0260824
893.778 .0260781
894.439 .0260741
895.099 .0260696
895.758 .0260651
896.417 .0260601
897.076 .0260548
897.735 .0260499
898.393 .0260457
899.051 .0260418
899.708 .0260382
900.365 .0260348
901.022 .0260308
901.678 .0260261
902.334 .0260202
902.990 .0260136
903.645 .0260058
904.300 .0259966
904.954 .0259861
905.608 .0259747
906.262 .0259634
906.915 .0259517
907.568 .0259403
908.221 .0259289
908.873 .0259173
909.525 .0259055
910.176 .0258930
910.828 .0258796
911.478 .0258654
912.129 .0258506
912.778 .0258351
913.428 .0258194
914.077 .0258035
914.726 .0257881
915.375 .0257741
916.023 .0257618
916.670 .0257512
917.318 .0257419
917.964 .0257344
918.611 .0257274
919.257 .0257207
919.903 .0257137
920.548 .0257053
921.193 .0256960
921.838 .0256862
922.482 .0256755
923.126 .0256649
923.770 .0256552
924.413 .0256464
925.056 .0256385
925.698 .0256316
926.340 .0256243
926.982 .0256166
927.623 .0256080
928.264 .0255982
928.904 .0255865
929.544 .0255740
930.184 .0255608
930.823 .0255474
931.462 .0255352
932.101 .0255237
932.739 .0255131
933.377 .0255032
934.014 .0254936
934.651 .0254841
935.288 .0254741
935.924 .0254637
936.560 .0254528
937.196 .0254420
937.831 .0254318
938.466 .0254212
939.100 .0254109
939.734 .0254002
940.368 .0253888
941.001 .0253758
941.634 .0253613
942.266 .0253454
942.899 .0253285
943.530 .0253105
944.162 .0252927
944.793 .0252751
945.423 .0252582
946.053 .0252419
946.683 .0252263
947.313 .0252110
947.942 .0251956
948.571 .0251789
949.199 .0251613
949.827 .0251424
950.455 .0251228
951.082 .0251028
951.709 .0250840
952.335 .0250669
952.961 .0250520
953.587 .0250394
954.212 .0250293
954.837 .0250206
955.462 .0250128
956.086 .0250046
956.710 .0249962
957.334 .0249866
957.957 .0249763
958.579 .0249656
959.202 .0249553
959.824 .0249455
960.445 .0249370
961.067 .0249293
961.688 .0249221
962.308 .0249146
962.928 .0249065
963.548 .0248965
964.168 .0248851
964.787 .0248713
965.406 .0248562
966.024 .0248403
966.642 .0248239
967.260 .0248074
967.877 .0247919
968.494 .0247772
969.110 .0247629
969.727 .0247485
970.342 .0247346
970.958 .0247204
971.573 .0247064
972.188 .0246930
972.802 .0246808
973.416 .0246703
974.030 .0246613
974.643 .0246539
975.256 .0246483
975.869 .0246436
976.481 .0246397
977.093 .0246356
977.705 .0246319
978.316 .0246287
978.927 .0246256
979.538 .0246234
980.148 .0246229
980.758 .0246232
981.367 .0246242
981.977 .0246264
982.586 .0246287
983.194 .0246305
983.802 .0246316
984.410 .0246319
985.018 .0246316
985.625 .0246309
986.232 .0246295
986.838 .0246277
987.445 .0246261
988.050 .0246240
988.656 .0246206
989.261 .0246164
989.866 .0246100
990.471 .0246013
991.075 .0245907
991.679 .0245785
992.282 .0245657
992.886 .0245529
993.489 .0245405
994.091 .0245292
994.694 .0245194
995.296 .0245107
995.897 .0245030
996.499 .0244953
997.100 .0244877
997.701 .0244794
998.301 .0244711
998.901 .0244629
999.501 .0244554
1000.101 .0244500
1000.700 .0244470
1001.299 .0244461
1001.898 .0244477
1002.496 .0244511
1003.094 .0244566
1003.692 .0244630
1004.289 .0244699
1004.887 .0244760
1005.484 .0244809
1006.080 .0244843
1006.677 .0244860
1007.273 .0244856
1007.868 .0244840
1008.464 .0244806
1009.059 .0244764
1009.654 .0244724
1010.249 .0244683
1010.843 .0244650
1011.437 .0244631
1012.031 .0244626
1012.625 .0244624
1013.218 .0244615
1013.811 .0244614
1014.404 .0244619
1014.997 .0244632
1015.589 .0244648
1016.181 .0244684
1016.773 .0244746
1017.365 .0244835
1017.956 .0244945
1018.547 .0245078
1019.138 .0245224
1019.728 .0245368
1020.319 .0245493
1020.909 .0245591
1021.499 .0245662
1022.088 .0245695
1022.678 .0245689
1023.267 .0245663
1023.856 .0245611
1024.445 .0245534
1025.033 .0245436
1025.621 .0245327
1026.209 .0245209
1026.797 .0245080
1027.385 .0244952
1027.972 .0244828
1028.560 .0244722
1029.147 .0244629
1029.734 .0244557
1030.320 .0244513
1030.907 .0244503
1031.493 .0244508
1032.079 .0244532
1032.665 .0244577
1033.250 .0244632
1033.836 .0244687
1034.421 .0244745
1035.006 .0244801
1035.591 .0244851
1036.176 .0244889
1036.761 .0244915
1037.345 .0244914
1037.929 .0244908
1038.514 .0244886
1039.097 .0244845
1039.681 .0244801
1040.265 .0244755
1040.848 .0244695
1041.432 .0244636
1042.015 .0244582
1042.598 .0244519
1043.181 .0244464
1043.764 .0244414
1044.346 .0244351
1044.929 .0244291
1045.511 .0244226
1046.094 .0244163
1046.676 .0244107
1047.258 .0244071
1047.840 .0244039
1048.422 .0244010
1049.003 .0243991
1049.585 .0243958
1050.166 .0243919
1050.748 .0243873
1051.329 .0243813
1051.910 .0243744
1052.491 .0243662
1053.072 .0243573
1053.653 .0243490
1054.234 .0243425
1054.815 .0243367
1055.396 .0243325
1055.976 .0243263
1056.557 .0243180
1057.138 .0243071
1057.718 .0242931
1058.298 .0242765
1058.879 .0242581
1059.459 .0242413
1060.039 .0242255
1060.620 .0242122
1061.200 .0242034
1061.780 .0241970
1062.360 .0241938
1062.940 .0241913
1063.520 .0241889
1064.101 .0241850
1064.681 .0241800
1065.261 .0241743
1065.841 .0241674
1066.421 .0241616
1067.001 .0241559
1067.581 .0241504
1068.161 .0241447
1068.741 .0241400
1069.321 .0241326
1069.901 .0241233
1070.482 .0241136
1071.062 .0241014
1071.642 .0240877
1072.222 .0240736
1072.803 .0240591
1073.383 .0240453
1073.963 .0240340
1074.544 .0240253
1075.124 .0240176
1075.705 .0240128
1076.286 .0240083
1076.866 .0240059
1077.447 .0240048
1078.028 .0240043
1078.609 .0240041
1079.190 .0240049
1079.771 .0240061
1080.352 .0240053
1080.934 .0240043
1081.515 .0240042
1082.097 .0240049
1082.679 .0240060
1083.260 .0240053
1083.842 .0240039
1084.424 .0240027
1085.007 .0240011
1085.589 .0240002
1086.172 .0239992
1086.754 .0239962
1087.337 .0239924
1087.920 .0239870
1088.503 .0239797
1089.087 .0239715
1089.670 .0239632
1090.254 .0239549
1090.838 .0239471
1091.422 .0239377
1092.006 .0239290
1092.590 .0239228
1093.175 .0239195
1093.760 .0239176
1094.345 .0239158
1094.930 .0239153
1095.516 .0239149
1096.102 .0239138
1096.688 .0239167
1097.274 .0239211
1097.860 .0239298
1098.447 .0239419
1099.034 .0239550
1099.622 .0239692
1100.209 .0239841
1100.797 .0239978
1101.385 .0240106
1101.973 .0240210
1102.562 .0240258
1103.151 .0240235
1103.740 .0240160
1104.330 .0240044
1104.920 .0239889
1105.510 .0239734
1106.101 .0239618
1106.691 .0239495
1107.283 .0239421
1107.874 .0239346
1108.466 .0239260
1109.058 .0239174
1109.651 .0239057
1110.244 .0238885
1110.837 .0238640
1111.431 .0238335
1112.025 .0238016
1112.620 .0237713
1113.215 .0237514
1113.810 .0237388
1114.406 .0237393
1115.002 .0237480
1115.599 .0237643
1116.196 .0237801
1116.793 .0237967
1117.391 .0238109
1117.989 .0238245
1118.588 .0238354
1119.187 .0238461
1119.787 .0238540
1120.387 .0238660
1120.988 .0238833
1121.589 .0239074
1122.190 .0239316
1122.793 .0239588
1123.395 .0239851
1123.998 .0240150
1124.602 .0240439
1125.206 .0240780
1125.811 .0241137
1126.416 .0241571
1127.022 .0242019
1127.628 .0242453
1128.235 .0242864
1128.843 .0243310
1129.451 .0243739
1130.059 .0244188
1130.669 .0244637
1131.278 .0245107
1131.889 .0245586
1132.500 .0246049
1133.112 .0246511
1133.724 .0246920
1134.337 .0247269
1134.950 .0247543
1135.564 .0247705
1136.179 .0247819
1136.795 .0247859
1137.411 .0247921
1138.028 .0248004
1138.645 .0248141
1139.263 .0248389
1139.882 .0248630
1140.502 .0249034
1141.122 .0249506
1141.743 .0250021
1142.365 .0250652
1142.987 .0249905
1143.611 .0253219
1144.235 .0252894
1144.859 .0252282
1145.485 .0255236
