Measurement Sequence started on: 10-20-44-796
Integration time: 35
Scans to Average: 2 
>>>>>Begin Spectral Data<<<<<
432.953 .0371085
433.882 .0351129
434.810 .0339019
435.737 .0329774
436.662 .0329900
437.586 .0333020
438.509 .0329789
439.431 .0327513
440.351 .0325858
441.269 .0324609
442.187 .0323636
443.103 .0322908
444.018 .0322650
444.932 .0322829
445.844 .0323106
446.756 .0323336
447.666 .0323470
448.575 .0323521
449.482 .0323530
450.388 .0323515
451.294 .0323577
452.198 .0323719
453.100 .0323983
454.002 .0324384
454.902 .0324876
455.801 .0325300
456.699 .0325646
457.596 .0325808
458.492 .0325788
459.387 .0325569
460.280 .0325217
461.172 .0324807
462.064 .0324378
462.954 .0323925
463.843 .0323462
464.730 .0323010
465.617 .0322603
466.503 .0322221
467.387 .0321859
468.271 .0321467
469.153 .0321088
470.035 .0320716
470.915 .0320438
471.794 .0320226
472.673 .0320132
473.550 .0320120
474.426 .0320148
475.301 .0320197
476.175 .0320231
477.048 .0320235
477.920 .0320206
478.791 .0320127
479.661 .0320005
480.530 .0319850
481.398 .0319665
482.266 .0319484
483.132 .0319372
483.997 .0319287
484.861 .0319222
485.724 .0319148
486.587 .0319085
487.448 .0318978
488.308 .0318818
489.168 .0318633
490.026 .0318401
490.884 .0318133
491.741 .0317817
492.597 .0317493
493.452 .0317196
494.306 .0316935
495.159 .0316695
496.011 .0316484
496.862 .0316289
497.713 .0316040
498.562 .0315724
499.411 .0315329
500.259 .0314867
501.106 .0314287
501.952 .0313613
502.798 .0312883
503.642 .0312089
504.486 .0311277
505.329 .0310460
506.171 .0309660
507.012 .0308871
507.852 .0308071
508.692 .0307249
509.531 .0306364
510.369 .0305400
511.206 .0304322
512.043 .0303136
512.878 .0301842
513.713 .0300410
514.547 .0298843
515.381 .0297236
516.213 .0295614
517.045 .0293957
517.876 .0292294
518.706 .0290626
519.536 .0288947
520.365 .0287240
521.193 .0285451
522.020 .0283618
522.847 .0281698
523.673 .0279746
524.498 .0277774
525.323 .0275802
526.146 .0273889
526.969 .0272057
527.792 .0270362
528.614 .0268784
529.435 .0267243
530.255 .0265798
531.075 .0264429
531.894 .0263266
532.712 .0262241
533.530 .0261361
534.347 .0260704
535.163 .0260288
535.979 .0260082
536.794 .0260051
537.608 .0260179
538.422 .0260451
539.235 .0260785
540.048 .0261122
540.860 .0261385
541.671 .0261605
542.481 .0261745
543.292 .0261837
544.101 .0261820
544.910 .0261785
545.718 .0261725
546.526 .0261723
547.333 .0261801
548.139 .0261958
548.945 .0262170
549.750 .0262426
550.555 .0262739
551.359 .0263092
552.162 .0263394
552.965 .0263704
553.768 .0263988
554.569 .0264290
555.371 .0264589
556.171 .0264910
556.972 .0265249
557.771 .0265674
558.570 .0266157
559.369 .0266685
560.167 .0267268
560.964 .0267903
561.761 .0268574
562.558 .0269228
563.354 .0269852
564.149 .0270406
564.944 .0270906
565.738 .0271382
566.532 .0271833
567.325 .0272300
568.118 .0272817
568.910 .0273391
569.702 .0274061
570.494 .0274805
571.285 .0275615
572.075 .0276477
572.865 .0277354
573.654 .0278213
574.443 .0279027
575.232 .0279810
576.020 .0280586
576.807 .0281378
577.594 .0282228
578.381 .0283112
579.167 .0284042
579.952 .0285021
580.738 .0286027
581.522 .0287025
582.307 .0287970
583.091 .0288848
583.874 .0289642
584.657 .0290339
585.440 .0290942
586.222 .0291457
587.004 .0291917
587.785 .0292333
588.566 .0292687
589.346 .0292977
590.126 .0293220
590.906 .0293412
591.685 .0293550
592.464 .0293636
593.242 .0293688
594.020 .0293705
594.797 .0293695
595.575 .0293666
596.351 .0293618
597.128 .0293560
597.904 .0293478
598.679 .0293387
599.454 .0293285
600.229 .0293177
601.004 .0293064
601.778 .0292947
602.551 .0292839
603.325 .0292733
604.097 .0292623
604.870 .0292524
605.642 .0292433
606.414 .0292348
607.185 .0292257
607.956 .0292178
608.727 .0292107
609.497 .0292037
610.267 .0291968
611.037 .0291895
611.806 .0291819
612.575 .0291731
613.344 .0291625
614.112 .0291503
614.880 .0291375
615.647 .0291238
616.414 .0291092
617.181 .0290948
617.948 .0290801
618.714 .0290646
619.480 .0290485
620.245 .0290319
621.011 .0290144
621.775 .0289957
622.540 .0289772
623.304 .0289590
624.068 .0289426
624.832 .0289272
625.595 .0289137
626.358 .0289023
627.120 .0288921
627.883 .0288825
628.645 .0288735
629.406 .0288649
630.168 .0288568
630.929 .0288483
631.689 .0288406
632.450 .0288330
633.210 .0288260
633.970 .0288187
634.729 .0288118
635.489 .0288038
636.248 .0287941
637.006 .0287828
637.765 .0287694
638.523 .0287541
639.280 .0287371
640.038 .0287184
640.795 .0286997
641.552 .0286808
642.309 .0286625
643.065 .0286446
643.821 .0286283
644.577 .0286126
645.332 .0285971
646.088 .0285817
646.843 .0285654
647.597 .0285481
648.352 .0285303
649.106 .0285125
649.860 .0284948
650.613 .0284783
651.367 .0284634
652.120 .0284500
652.872 .0284385
653.625 .0284278
654.377 .0284175
655.129 .0284067
655.881 .0283946
656.632 .0283805
657.384 .0283643
658.135 .0283472
658.885 .0283292
659.636 .0283116
660.386 .0282949
661.136 .0282792
661.885 .0282646
662.635 .0282504
663.384 .0282361
664.133 .0282210
664.881 .0282048
665.630 .0281870
666.378 .0281680
667.126 .0281477
667.874 .0281268
668.621 .0281061
669.368 .0280857
670.115 .0280657
670.862 .0280453
671.608 .0280250
672.354 .0280043
673.100 .0279824
673.846 .0279601
674.591 .0279376
675.337 .0279155
676.082 .0278942
676.826 .0278742
677.571 .0278558
678.315 .0278392
679.059 .0278239
679.803 .0278091
680.547 .0277948
681.290 .0277802
682.033 .0277648
682.776 .0277486
683.518 .0277326
684.261 .0277169
685.003 .0277019
685.745 .0276881
686.487 .0276755
687.228 .0276637
687.969 .0276521
688.710 .0276399
689.451 .0276270
690.192 .0276131
690.932 .0275981
691.672 .0275825
692.412 .0275666
693.152 .0275511
693.891 .0275363
694.630 .0275224
695.369 .0275094
696.108 .0274965
696.846 .0274832
697.585 .0274690
698.323 .0274537
699.061 .0274375
699.798 .0274202
700.536 .0274026
701.273 .0273845
702.010 .0273662
702.746 .0273477
703.483 .0273295
704.219 .0273112
704.955 .0272930
705.691 .0272747
706.427 .0272565
707.162 .0272388
707.897 .0272219
708.632 .0272060
709.367 .0271917
710.101 .0271784
710.835 .0271662
711.569 .0271544
712.303 .0271429
713.037 .0271316
713.770 .0271206
714.503 .0271092
715.236 .0270977
715.969 .0270862
716.702 .0270748
717.434 .0270640
718.166 .0270529
718.898 .0270419
719.629 .0270310
720.361 .0270204
721.092 .0270094
721.823 .0269978
722.554 .0269857
723.284 .0269731
724.014 .0269593
724.744 .0269445
725.474 .0269285
726.204 .0269123
726.933 .0268957
727.662 .0268790
728.391 .0268626
729.120 .0268468
729.849 .0268315
730.577 .0268173
731.305 .0268033
732.033 .0267897
732.760 .0267758
733.488 .0267622
734.215 .0267488
734.942 .0267362
735.669 .0267243
736.395 .0267135
737.122 .0267039
737.848 .0266952
738.573 .0266867
739.299 .0266786
740.024 .0266703
740.750 .0266610
741.474 .0266502
742.199 .0266384
742.924 .0266253
743.648 .0266117
744.372 .0265976
745.096 .0265837
745.819 .0265698
746.543 .0265555
747.266 .0265412
747.989 .0265268
748.711 .0265126
749.434 .0264990
750.156 .0264863
750.878 .0264751
751.599 .0264659
752.321 .0264592
753.042 .0264547
753.763 .0264525
754.484 .0264520
755.205 .0264521
755.925 .0264525
756.645 .0264522
757.365 .0264505
758.085 .0264477
758.804 .0264438
759.523 .0264384
760.242 .0264315
760.961 .0264232
761.679 .0264133
762.397 .0264013
763.115 .0263875
763.833 .0263712
764.551 .0263521
765.268 .0263305
765.985 .0263069
766.702 .0262814
767.418 .0262551
768.134 .0262283
768.850 .0262020
769.566 .0261763
770.282 .0261512
770.997 .0261267
771.712 .0261031
772.427 .0260808
773.142 .0260593
773.856 .0260387
774.570 .0260194
775.284 .0260013
775.998 .0259844
776.711 .0259690
777.424 .0259546
778.137 .0259409
778.849 .0259276
779.562 .0259141
780.274 .0259002
780.986 .0258856
781.697 .0258708
782.409 .0258558
783.120 .0258413
783.831 .0258273
784.541 .0258135
785.252 .0258005
785.962 .0257881
786.671 .0257758
787.381 .0257632
788.090 .0257501
788.799 .0257367
789.508 .0257223
790.217 .0257078
790.925 .0256931
791.633 .0256783
792.341 .0256636
793.048 .0256489
793.755 .0256339
794.462 .0256188
795.169 .0256032
795.875 .0255875
796.581 .0255714
797.287 .0255556
797.993 .0255393
798.698 .0255232
799.403 .0255074
800.108 .0254921
800.812 .0254771
801.517 .0254628
802.221 .0254493
802.924 .0254363
803.628 .0254235
804.331 .0254114
805.034 .0253996
805.736 .0253876
806.439 .0253753
807.141 .0253628
807.843 .0253502
808.544 .0253377
809.245 .0253249
809.946 .0253122
810.647 .0253001
811.347 .0252883
812.047 .0252763
812.747 .0252646
813.447 .0252525
814.146 .0252398
814.845 .0252269
815.543 .0252139
816.242 .0252011
816.940 .0251888
817.638 .0251774
818.335 .0251668
819.032 .0251566
819.729 .0251465
820.426 .0251359
821.122 .0251248
821.818 .0251127
822.514 .0250991
823.209 .0250844
823.905 .0250696
824.599 .0250547
825.294 .0250404
825.988 .0250267
826.682 .0250139
827.376 .0250018
828.069 .0249900
828.762 .0249779
829.455 .0249655
830.147 .0249525
830.840 .0249389
831.531 .0249248
832.223 .0249110
832.914 .0248974
833.605 .0248845
834.296 .0248729
834.986 .0248621
835.676 .0248515
836.366 .0248410
837.055 .0248299
837.744 .0248184
838.433 .0248061
839.121 .0247932
839.809 .0247803
840.497 .0247684
841.185 .0247573
841.872 .0247474
842.559 .0247393
843.245 .0247328
843.932 .0247274
844.617 .0247234
845.303 .0247197
845.988 .0247161
846.673 .0247121
847.358 .0247073
848.042 .0247017
848.726 .0246959
849.410 .0246897
850.093 .0246831
850.776 .0246771
851.459 .0246711
852.141 .0246650
852.823 .0246592
853.505 .0246533
854.186 .0246467
854.867 .0246399
855.548 .0246322
856.228 .0246231
856.908 .0246139
857.588 .0246048
858.267 .0245959
858.946 .0245879
859.625 .0245808
860.303 .0245743
860.981 .0245684
861.659 .0245633
862.336 .0245576
863.013 .0245520
863.690 .0245463
864.366 .0245394
865.042 .0245320
865.718 .0245247
866.393 .0245175
867.068 .0245109
867.743 .0245054
868.417 .0245005
869.091 .0244956
869.765 .0244912
870.438 .0244869
871.111 .0244826
871.783 .0244784
872.456 .0244741
873.127 .0244691
873.799 .0244643
874.470 .0244593
875.141 .0244537
875.811 .0244485
876.481 .0244436
877.151 .0244385
877.820 .0244335
878.489 .0244287
879.158 .0244237
879.826 .0244185
880.494 .0244135
881.162 .0244082
881.829 .0244033
882.496 .0243986
883.163 .0243939
883.829 .0243896
884.495 .0243863
885.160 .0243834
885.825 .0243813
886.490 .0243801
887.154 .0243793
887.818 .0243790
888.482 .0243789
889.145 .0243786
889.808 .0243783
890.471 .0243780
891.133 .0243775
891.795 .0243764
892.456 .0243754
893.117 .0243739
893.778 .0243722
894.439 .0243704
895.099 .0243680
895.758 .0243652
896.417 .0243620
897.076 .0243581
897.735 .0243533
898.393 .0243480
899.051 .0243425
899.708 .0243368
900.365 .0243309
901.022 .0243249
901.678 .0243187
902.334 .0243132
902.990 .0243084
903.645 .0243039
904.300 .0243002
904.954 .0242972
905.608 .0242943
906.262 .0242920
906.915 .0242900
907.568 .0242885
908.221 .0242876
908.873 .0242871
909.525 .0242868
910.176 .0242867
910.828 .0242870
911.478 .0242873
912.129 .0242871
912.778 .0242865
913.428 .0242847
914.077 .0242816
914.726 .0242773
915.375 .0242716
916.023 .0242649
916.670 .0242578
917.318 .0242505
917.964 .0242429
918.611 .0242351
919.257 .0242272
919.903 .0242188
920.548 .0242105
921.193 .0242012
921.838 .0241912
922.482 .0241806
923.126 .0241695
923.770 .0241578
924.413 .0241463
925.056 .0241353
925.698 .0241251
926.340 .0241161
926.982 .0241076
927.623 .0240993
928.264 .0240914
928.904 .0240830
929.544 .0240741
930.184 .0240640
930.823 .0240534
931.462 .0240420
932.101 .0240304
932.739 .0240187
933.377 .0240069
934.014 .0239954
934.651 .0239838
935.288 .0239710
935.924 .0239569
936.560 .0239418
937.196 .0239257
937.831 .0239085
938.466 .0238907
939.100 .0238724
939.734 .0238541
940.368 .0238358
941.001 .0238177
941.634 .0237997
942.266 .0237819
942.899 .0237638
943.530 .0237447
944.162 .0237249
944.793 .0237044
945.423 .0236837
946.053 .0236627
946.683 .0236417
947.313 .0236205
947.942 .0235987
948.571 .0235765
949.199 .0235536
949.827 .0235301
950.455 .0235057
951.082 .0234809
951.709 .0234556
952.335 .0234300
952.961 .0234048
953.587 .0233800
954.212 .0233556
954.837 .0233317
955.462 .0233081
956.086 .0232851
956.710 .0232628
957.334 .0232418
957.957 .0232222
958.579 .0232035
959.202 .0231860
959.824 .0231694
960.445 .0231534
961.067 .0231384
961.688 .0231239
962.308 .0231098
962.928 .0230964
963.548 .0230829
964.168 .0230695
964.787 .0230564
965.406 .0230435
966.024 .0230312
966.642 .0230187
967.260 .0230063
967.877 .0229941
968.494 .0229816
969.110 .0229688
969.727 .0229552
970.342 .0229416
970.958 .0229272
971.573 .0229118
972.188 .0228961
972.802 .0228801
973.416 .0228642
974.030 .0228483
974.643 .0228326
975.256 .0228178
975.869 .0228040
976.481 .0227906
977.093 .0227780
977.705 .0227669
978.316 .0227566
978.927 .0227472
979.538 .0227391
980.148 .0227321
980.758 .0227256
981.367 .0227195
981.977 .0227142
982.586 .0227086
983.194 .0227031
983.802 .0226973
984.410 .0226910
985.018 .0226845
985.625 .0226772
986.232 .0226689
986.838 .0226598
987.445 .0226502
988.050 .0226390
988.656 .0226266
989.261 .0226131
989.866 .0225983
990.471 .0225829
991.075 .0225673
991.679 .0225518
992.282 .0225371
992.886 .0225233
993.489 .0225107
994.091 .0224994
994.694 .0224892
995.296 .0224801
995.897 .0224717
996.499 .0224642
997.100 .0224571
997.701 .0224506
998.301 .0224449
998.901 .0224395
999.501 .0224352
1000.101 .0224312
1000.700 .0224273
1001.299 .0224230
1001.898 .0224184
1002.496 .0224127
1003.094 .0224064
1003.692 .0223994
1004.289 .0223918
1004.887 .0223843
1005.484 .0223766
1006.080 .0223688
1006.677 .0223610
1007.273 .0223536
1007.868 .0223470
1008.464 .0223408
1009.059 .0223361
1009.654 .0223317
1010.249 .0223288
1010.843 .0223272
1011.437 .0223264
1012.031 .0223267
1012.625 .0223279
1013.218 .0223300
1013.811 .0223328
1014.404 .0223363
1014.997 .0223407
1015.589 .0223458
1016.181 .0223516
1016.773 .0223577
1017.365 .0223638
1017.956 .0223692
1018.547 .0223733
1019.138 .0223759
1019.728 .0223775
1020.319 .0223780
1020.909 .0223779
1021.499 .0223778
1022.088 .0223779
1022.678 .0223785
1023.267 .0223794
1023.856 .0223809
1024.445 .0223821
1025.033 .0223826
1025.621 .0223824
1026.209 .0223809
1026.797 .0223788
1027.385 .0223760
1027.972 .0223736
1028.560 .0223723
1029.147 .0223714
1029.734 .0223712
1030.320 .0223708
1030.907 .0223704
1031.493 .0223696
1032.079 .0223679
1032.665 .0223657
1033.250 .0223631
1033.836 .0223606
1034.421 .0223588
1035.006 .0223577
1035.591 .0223586
1036.176 .0223609
1036.761 .0223649
1037.345 .0223695
1037.929 .0223732
1038.514 .0223758
1039.097 .0223777
1039.681 .0223784
1040.265 .0223794
1040.848 .0223807
1041.432 .0223837
1042.015 .0223882
1042.598 .0223942
1043.181 .0224009
1043.764 .0224080
1044.346 .0224148
1044.929 .0224199
1045.511 .0224224
1046.094 .0224235
1046.676 .0224228
1047.258 .0224213
1047.840 .0224209
1048.422 .0224230
1049.003 .0224274
1049.585 .0224348
1050.166 .0224444
1050.748 .0224557
1051.329 .0224674
1051.910 .0224790
1052.491 .0224892
1053.072 .0224979
1053.653 .0225045
1054.234 .0225099
1054.815 .0225145
1055.396 .0225198
1055.976 .0225259
1056.557 .0225321
1057.138 .0225386
1057.718 .0225449
1058.298 .0225490
1058.879 .0225516
1059.459 .0225517
1060.039 .0225498
1060.620 .0225443
1061.200 .0225372
1061.780 .0225285
1062.360 .0225182
1062.940 .0225092
1063.520 .0225008
1064.101 .0224937
1064.681 .0224882
1065.261 .0224830
1065.841 .0224775
1066.421 .0224730
1067.001 .0224680
1067.581 .0224626
1068.161 .0224577
1068.741 .0224553
1069.321 .0224550
1069.901 .0224576
1070.482 .0224645
1071.062 .0224740
1071.642 .0224850
1072.222 .0224977
1072.803 .0225092
1073.383 .0225200
1073.963 .0225286
1074.544 .0225356
1075.124 .0225405
1075.705 .0225438
1076.286 .0225459
1076.866 .0225469
1077.447 .0225478
1078.028 .0225482
1078.609 .0225455
1079.190 .0225411
1079.771 .0225355
1080.352 .0225284
1080.934 .0225203
1081.515 .0225116
1082.097 .0225045
1082.679 .0224994
1083.260 .0224967
1083.842 .0224977
1084.424 .0225026
1085.007 .0225134
1085.589 .0225276
1086.172 .0225441
1086.754 .0225626
1087.337 .0225822
1087.920 .0226003
1088.503 .0226181
1089.087 .0226349
1089.670 .0226508
1090.254 .0226669
1090.838 .0226833
1091.422 .0227013
1092.006 .0227197
1092.590 .0227387
1093.175 .0227573
1093.760 .0227729
1094.345 .0227864
1094.930 .0227942
1095.516 .0228003
1096.102 .0228062
1096.688 .0228133
1097.274 .0228216
1097.860 .0228322
1098.447 .0228443
1099.034 .0228561
1099.622 .0228644
1100.209 .0228674
1100.797 .0228649
1101.385 .0228559
1101.973 .0228407
1102.562 .0228209
1103.151 .0227995
1103.740 .0227800
1104.330 .0227615
1104.920 .0227460
1105.510 .0227318
1106.101 .0227173
1106.691 .0227030
1107.283 .0226864
1107.874 .0226704
1108.466 .0226524
1109.058 .0226369
1109.651 .0226236
1110.244 .0226147
1110.837 .0226118
1111.431 .0226145
1112.025 .0226235
1112.620 .0226393
1113.215 .0226597
1113.810 .0226836
1114.406 .0227118
1115.002 .0227421
1115.599 .0227721
1116.196 .0228013
1116.793 .0228263
1117.391 .0228477
1117.989 .0228639
1118.588 .0228799
1119.187 .0228918
1119.787 .0229027
1120.387 .0229133
1120.988 .0229201
1121.589 .0229271
1122.190 .0229306
1122.793 .0229278
1123.395 .0229204
1123.998 .0229086
1124.602 .0228927
1125.206 .0228750
1125.811 .0228605
1126.416 .0228504
1127.022 .0228456
1127.628 .0228452
1128.235 .0228479
1128.843 .0228516
1129.451 .0228559
1130.059 .0228597
1130.669 .0228641
1131.278 .0228728
1131.889 .0228836
1132.500 .0229029
1133.112 .0229326
1133.724 .0229715
1134.337 .0230192
1134.950 .0230702
1135.564 .0231247
1136.179 .0231796
1136.795 .0232360
1137.411 .0232950
1138.028 .0233609
1138.645 .0234370
1139.263 .0235276
1139.882 .0236280
1140.502 .0237423
1141.122 .0238655
1141.743 .0240047
1142.365 .0241632
1142.987 .0242487
1143.611 .0244074
1144.235 .0245050
1144.859 .0249015
1145.485 .0253416
