Measurement Sequence started on: 10-20-44-796
Integration time: 35
Scans to Average: 2 
>>>>>Begin Spectral Data<<<<<
432.953 .0199767
433.882 .0282998
434.810 .0337106
435.737 .0353410
436.662 .0354665
437.586 .0352191
438.509 .0362728
439.431 .0368485
440.351 .0371742
441.269 .0373960
442.187 .0375677
443.103 .0376662
444.018 .0377128
444.932 .0377260
445.844 .0376878
446.756 .0376224
447.666 .0375444
448.575 .0374456
449.482 .0373621
450.388 .0372816
451.294 .0372113
452.198 .0371432
453.100 .0370735
454.002 .0370040
454.902 .0369237
455.801 .0368448
456.699 .0367584
457.596 .0366811
458.492 .0366194
459.387 .0365690
460.280 .0365392
461.172 .0365318
462.064 .0365339
462.954 .0365434
463.843 .0365531
464.730 .0365558
465.617 .0365452
466.503 .0365221
467.387 .0364872
468.271 .0364429
469.153 .0363982
470.035 .0363529
470.915 .0363040
471.794 .0362567
472.673 .0362036
473.550 .0361472
474.426 .0360907
475.301 .0360294
476.175 .0359675
477.048 .0359042
477.920 .0358429
478.791 .0357831
479.661 .0357304
480.530 .0356849
481.398 .0356472
482.266 .0356184
483.132 .0355956
483.997 .0355746
484.861 .0355567
485.724 .0355432
486.587 .0355335
487.448 .0355281
488.308 .0355236
489.168 .0355205
490.026 .0355224
490.884 .0355248
491.741 .0355249
492.597 .0355206
493.452 .0355121
494.306 .0354956
495.159 .0354714
496.011 .0354399
496.862 .0354024
497.713 .0353628
498.562 .0353160
499.411 .0352613
500.259 .0351988
501.106 .0351274
501.952 .0350464
502.798 .0349559
503.642 .0348569
504.486 .0347491
505.329 .0346337
506.171 .0345144
507.012 .0343907
507.852 .0342663
508.692 .0341391
509.531 .0340067
510.369 .0338752
511.206 .0337429
512.043 .0336126
512.878 .0334865
513.713 .0333684
514.547 .0332548
515.381 .0331441
516.213 .0330338
517.045 .0329214
517.876 .0327982
518.706 .0326674
519.536 .0325278
520.365 .0323849
521.193 .0322461
522.020 .0321154
522.847 .0319929
523.673 .0318805
524.498 .0317661
525.323 .0316426
526.146 .0315044
526.969 .0313593
527.792 .0312009
528.614 .0310351
529.435 .0308798
530.255 .0307428
531.075 .0306267
531.894 .0305361
532.712 .0304611
533.530 .0303908
534.347 .0303141
535.163 .0302133
535.979 .0300934
536.794 .0299640
537.608 .0298412
538.422 .0297319
539.235 .0296518
540.048 .0296110
540.860 .0295984
541.671 .0296118
542.481 .0296403
543.292 .0296641
544.101 .0296801
544.910 .0296799
545.718 .0296730
546.526 .0296613
547.333 .0296597
548.139 .0296743
548.945 .0297083
549.750 .0297570
550.555 .0298141
551.359 .0298745
552.162 .0299357
552.965 .0299950
553.768 .0300447
554.569 .0300901
555.371 .0301333
556.171 .0301757
556.972 .0302225
557.771 .0302664
558.570 .0303116
559.369 .0303535
560.167 .0303889
560.964 .0304197
561.761 .0304454
562.558 .0304754
563.354 .0305098
564.149 .0305543
564.944 .0306059
565.738 .0306620
566.532 .0307222
567.325 .0307808
568.118 .0308316
568.910 .0308781
569.702 .0309203
570.494 .0309607
571.285 .0310057
572.075 .0310595
572.865 .0311230
573.654 .0311950
574.443 .0312703
575.232 .0313474
576.020 .0314213
576.807 .0314892
577.594 .0315497
578.381 .0316037
579.167 .0316546
579.952 .0317030
580.738 .0317498
581.522 .0317987
582.307 .0318489
583.091 .0319018
583.874 .0319542
584.657 .0320040
585.440 .0320514
586.222 .0320921
587.004 .0321271
587.785 .0321580
588.566 .0321832
589.346 .0322055
590.126 .0322238
590.906 .0322401
591.685 .0322538
592.464 .0322643
593.242 .0322711
594.020 .0322752
594.797 .0322786
595.575 .0322790
596.351 .0322756
597.128 .0322716
597.904 .0322661
598.679 .0322594
599.454 .0322517
600.229 .0322422
601.004 .0322323
601.778 .0322233
602.551 .0322127
603.325 .0322019
604.097 .0321912
604.870 .0321796
605.642 .0321676
606.414 .0321546
607.185 .0321401
607.956 .0321234
608.727 .0321067
609.497 .0320897
610.267 .0320711
611.037 .0320533
611.806 .0320351
612.575 .0320171
613.344 .0319991
614.112 .0319795
614.880 .0319580
615.647 .0319352
616.414 .0319114
617.181 .0318853
617.948 .0318586
618.714 .0318315
619.480 .0318045
620.245 .0317776
621.011 .0317502
621.775 .0317229
622.540 .0316952
623.304 .0316684
624.068 .0316412
624.832 .0316142
625.595 .0315893
626.358 .0315662
627.120 .0315457
627.883 .0315265
628.645 .0315085
629.406 .0314911
630.168 .0314733
630.929 .0314548
631.689 .0314348
632.450 .0314141
633.210 .0313935
633.970 .0313724
634.729 .0313514
635.489 .0313305
636.248 .0313090
637.006 .0312866
637.765 .0312635
638.523 .0312381
639.280 .0312120
640.038 .0311858
640.795 .0311612
641.552 .0311385
642.309 .0311185
643.065 .0311018
643.821 .0310879
644.577 .0310766
645.332 .0310662
646.088 .0310550
646.843 .0310434
647.597 .0310298
648.352 .0310150
649.106 .0309987
649.860 .0309817
650.613 .0309644
651.367 .0309471
652.120 .0309296
652.872 .0309112
653.625 .0308919
654.377 .0308717
655.129 .0308503
655.881 .0308287
656.632 .0308063
657.384 .0307842
658.135 .0307632
658.885 .0307435
659.636 .0307248
660.386 .0307076
661.136 .0306906
661.885 .0306747
662.635 .0306591
663.384 .0306447
664.133 .0306310
664.881 .0306191
665.630 .0306085
666.378 .0305989
667.126 .0305901
667.874 .0305812
668.621 .0305715
669.368 .0305614
670.115 .0305496
670.862 .0305365
671.608 .0305227
672.354 .0305086
673.100 .0304946
673.846 .0304818
674.591 .0304695
675.337 .0304583
676.082 .0304474
676.826 .0304362
677.571 .0304240
678.315 .0304107
679.059 .0303966
679.803 .0303815
680.547 .0303665
681.290 .0303511
682.033 .0303356
682.776 .0303203
683.518 .0303048
684.261 .0302891
685.003 .0302734
685.745 .0302573
686.487 .0302404
687.228 .0302232
687.969 .0302053
688.710 .0301867
689.451 .0301674
690.192 .0301467
690.932 .0301247
691.672 .0301012
692.412 .0300767
693.152 .0300514
693.891 .0300264
694.630 .0300020
695.369 .0299787
696.108 .0299566
696.846 .0299355
697.585 .0299154
698.323 .0298958
699.061 .0298765
699.798 .0298573
700.536 .0298376
701.273 .0298179
702.010 .0297983
702.746 .0297786
703.483 .0297592
704.219 .0297405
704.955 .0297223
705.691 .0297044
706.427 .0296875
707.162 .0296710
707.897 .0296544
708.632 .0296383
709.367 .0296219
710.101 .0296047
710.835 .0295872
711.569 .0295689
712.303 .0295499
713.037 .0295309
713.770 .0295116
714.503 .0294919
715.236 .0294734
715.969 .0294552
716.702 .0294366
717.434 .0294179
718.166 .0293987
718.898 .0293785
719.629 .0293567
720.361 .0293342
721.092 .0293107
721.823 .0292866
722.554 .0292623
723.284 .0292375
724.014 .0292131
724.744 .0291889
725.474 .0291651
726.204 .0291417
726.933 .0291195
727.662 .0290982
728.391 .0290779
729.120 .0290589
729.849 .0290412
730.577 .0290244
731.305 .0290077
732.033 .0289918
732.760 .0289756
733.488 .0289594
734.215 .0289430
734.942 .0289266
735.669 .0289105
736.395 .0288945
737.122 .0288792
737.848 .0288642
738.573 .0288497
739.299 .0288355
740.024 .0288210
740.750 .0288067
741.474 .0287918
742.199 .0287765
742.924 .0287611
743.648 .0287454
744.372 .0287295
745.096 .0287148
745.819 .0287013
746.543 .0286890
747.266 .0286787
747.989 .0286699
748.711 .0286624
749.434 .0286552
750.156 .0286478
750.878 .0286396
751.599 .0286311
752.321 .0286216
753.042 .0286115
753.763 .0286024
754.484 .0285942
755.205 .0285866
755.925 .0285800
756.645 .0285739
757.365 .0285671
758.085 .0285592
758.804 .0285492
759.523 .0285363
760.242 .0285214
760.961 .0285038
761.679 .0284844
762.397 .0284642
763.115 .0284439
763.833 .0284231
764.551 .0284024
765.268 .0283825
765.985 .0283625
766.702 .0283427
767.418 .0283233
768.134 .0283040
768.850 .0282852
769.566 .0282670
770.282 .0282494
770.997 .0282331
771.712 .0282185
772.427 .0282052
773.142 .0281934
773.856 .0281828
774.570 .0281723
775.284 .0281617
775.998 .0281509
776.711 .0281397
777.424 .0281275
778.137 .0281149
778.849 .0281017
779.562 .0280883
780.274 .0280756
780.986 .0280633
781.697 .0280519
782.409 .0280416
783.120 .0280320
783.831 .0280228
784.541 .0280143
785.252 .0280067
785.962 .0279999
786.671 .0279942
787.381 .0279901
788.090 .0279867
788.799 .0279845
789.508 .0279828
790.217 .0279810
790.925 .0279787
791.633 .0279754
792.341 .0279703
793.048 .0279638
793.755 .0279555
794.462 .0279457
795.169 .0279348
795.875 .0279231
796.581 .0279108
797.287 .0278980
797.993 .0278846
798.698 .0278709
799.403 .0278567
800.108 .0278422
800.812 .0278272
801.517 .0278122
802.221 .0277975
802.924 .0277832
803.628 .0277699
804.331 .0277580
805.034 .0277476
805.736 .0277388
806.439 .0277313
807.141 .0277246
807.843 .0277187
808.544 .0277123
809.245 .0277049
809.946 .0276968
810.647 .0276880
811.347 .0276783
812.047 .0276688
812.747 .0276599
813.447 .0276515
814.146 .0276436
814.845 .0276365
815.543 .0276296
816.242 .0276225
816.940 .0276149
817.638 .0276058
818.335 .0275958
819.032 .0275851
819.729 .0275735
820.426 .0275618
821.122 .0275504
821.818 .0275389
822.514 .0275274
823.209 .0275157
823.905 .0275035
824.599 .0274906
825.294 .0274771
825.988 .0274627
826.682 .0274470
827.376 .0274304
828.069 .0274130
828.762 .0273950
829.455 .0273769
830.147 .0273584
830.840 .0273402
831.531 .0273227
832.223 .0273062
832.914 .0272907
833.605 .0272772
834.296 .0272653
834.986 .0272551
835.676 .0272460
836.366 .0272376
837.055 .0272292
837.744 .0272208
838.433 .0272120
839.121 .0272030
839.809 .0271938
840.497 .0271845
841.185 .0271754
841.872 .0271668
842.559 .0271583
843.245 .0271498
843.932 .0271406
844.617 .0271305
845.303 .0271191
845.988 .0271060
846.673 .0270917
847.358 .0270765
848.042 .0270610
848.726 .0270456
849.410 .0270299
850.093 .0270147
850.776 .0270003
851.459 .0269863
852.141 .0269723
852.823 .0269586
853.505 .0269448
854.186 .0269308
854.867 .0269168
855.548 .0269028
856.228 .0268895
856.908 .0268770
857.588 .0268651
858.267 .0268538
858.946 .0268430
859.625 .0268324
860.303 .0268221
860.981 .0268122
861.659 .0268022
862.336 .0267918
863.013 .0267812
863.690 .0267702
864.366 .0267590
865.042 .0267473
865.718 .0267356
866.393 .0267239
867.068 .0267121
867.743 .0266995
868.417 .0266862
869.091 .0266726
869.765 .0266585
870.438 .0266438
871.111 .0266288
871.783 .0266139
872.456 .0265989
873.127 .0265845
873.799 .0265704
874.470 .0265567
875.141 .0265438
875.811 .0265310
876.481 .0265183
877.151 .0265061
877.820 .0264944
878.489 .0264837
879.158 .0264737
879.826 .0264647
880.494 .0264559
881.162 .0264476
881.829 .0264395
882.496 .0264306
883.163 .0264207
883.829 .0264105
884.495 .0263991
885.160 .0263875
885.825 .0263752
886.490 .0263631
887.154 .0263514
887.818 .0263405
888.482 .0263301
889.145 .0263205
889.808 .0263124
890.471 .0263056
891.133 .0262997
891.795 .0262952
892.456 .0262916
893.117 .0262884
893.778 .0262858
894.439 .0262833
895.099 .0262802
895.758 .0262766
896.417 .0262727
897.076 .0262680
897.735 .0262630
898.393 .0262577
899.051 .0262519
899.708 .0262453
900.365 .0262378
901.022 .0262288
901.678 .0262186
902.334 .0262076
902.990 .0261959
903.645 .0261836
904.300 .0261723
904.954 .0261613
905.608 .0261515
906.262 .0261432
906.915 .0261363
907.568 .0261299
908.221 .0261243
908.873 .0261186
909.525 .0261130
910.176 .0261068
910.828 .0261003
911.478 .0260929
912.129 .0260850
912.778 .0260759
913.428 .0260657
914.077 .0260544
914.726 .0260421
915.375 .0260283
916.023 .0260144
916.670 .0259997
917.318 .0259846
917.964 .0259695
918.611 .0259543
919.257 .0259392
919.903 .0259243
920.548 .0259094
921.193 .0258949
921.838 .0258812
922.482 .0258683
923.126 .0258561
923.770 .0258453
924.413 .0258360
925.056 .0258274
925.698 .0258196
926.340 .0258123
926.982 .0258050
927.623 .0257976
928.264 .0257899
928.904 .0257813
929.544 .0257724
930.184 .0257631
930.823 .0257536
931.462 .0257442
932.101 .0257349
932.739 .0257254
933.377 .0257156
934.014 .0257050
934.651 .0256937
935.288 .0256816
935.924 .0256687
936.560 .0256554
937.196 .0256417
937.831 .0256276
938.466 .0256132
939.100 .0255989
939.734 .0255842
940.368 .0255690
941.001 .0255533
941.634 .0255374
942.266 .0255210
942.899 .0255045
943.530 .0254882
944.162 .0254724
944.793 .0254570
945.423 .0254417
946.053 .0254263
946.683 .0254111
947.313 .0253956
947.942 .0253794
948.571 .0253623
949.199 .0253449
949.827 .0253268
950.455 .0253089
951.082 .0252920
951.709 .0252762
952.335 .0252616
952.961 .0252486
953.587 .0252364
954.212 .0252246
954.837 .0252132
955.462 .0252017
956.086 .0251900
956.710 .0251787
957.334 .0251672
957.957 .0251559
958.579 .0251457
959.202 .0251359
959.824 .0251258
960.445 .0251157
961.067 .0251048
961.688 .0250926
962.308 .0250791
962.928 .0250642
963.548 .0250478
964.168 .0250304
964.787 .0250124
965.406 .0249939
966.024 .0249757
966.642 .0249581
967.260 .0249407
967.877 .0249243
968.494 .0249087
969.110 .0248936
969.727 .0248798
970.342 .0248678
970.958 .0248577
971.573 .0248497
972.188 .0248436
972.802 .0248391
973.416 .0248357
974.030 .0248327
974.643 .0248291
975.256 .0248253
975.869 .0248210
976.481 .0248158
977.093 .0248100
977.705 .0248044
978.316 .0247992
978.927 .0247942
979.538 .0247895
980.148 .0247849
980.758 .0247800
981.367 .0247751
981.977 .0247697
982.586 .0247642
983.194 .0247592
983.802 .0247547
984.410 .0247502
985.018 .0247471
985.625 .0247446
986.232 .0247422
986.838 .0247405
987.445 .0247387
988.050 .0247365
988.656 .0247337
989.261 .0247307
989.866 .0247265
990.471 .0247219
991.075 .0247166
991.679 .0247099
992.282 .0247028
992.886 .0246949
993.489 .0246863
994.091 .0246774
994.694 .0246691
995.296 .0246607
995.897 .0246528
996.499 .0246461
997.100 .0246397
997.701 .0246343
998.301 .0246298
998.901 .0246260
999.501 .0246226
1000.101 .0246198
1000.700 .0246170
1001.299 .0246139
1001.898 .0246113
1002.496 .0246083
1003.094 .0246054
1003.692 .0246025
1004.289 .0246004
1004.887 .0245993
1005.484 .0245996
1006.080 .0246010
1006.677 .0246025
1007.273 .0246045
1007.868 .0246058
1008.464 .0246061
1009.059 .0246058
1009.654 .0246051
1010.249 .0246048
1010.843 .0246046
1011.437 .0246056
1012.031 .0246072
1012.625 .0246102
1013.218 .0246138
1013.811 .0246178
1014.404 .0246207
1014.997 .0246218
1015.589 .0246205
1016.181 .0246170
1016.773 .0246120
1017.365 .0246058
1017.956 .0245985
1018.547 .0245912
1019.138 .0245835
1019.728 .0245758
1020.319 .0245682
1020.909 .0245615
1021.499 .0245548
1022.088 .0245481
1022.678 .0245407
1023.267 .0245331
1023.856 .0245257
1024.445 .0245194
1025.033 .0245140
1025.621 .0245103
1026.209 .0245079
1026.797 .0245061
1027.385 .0245048
1027.972 .0245040
1028.560 .0245035
1029.147 .0245035
1029.734 .0245042
1030.320 .0245054
1030.907 .0245071
1031.493 .0245103
1032.079 .0245146
1032.665 .0245205
1033.250 .0245274
1033.836 .0245343
1034.421 .0245406
1035.006 .0245462
1035.591 .0245508
1036.176 .0245540
1036.761 .0245568
1037.345 .0245597
1037.929 .0245626
1038.514 .0245660
1039.097 .0245688
1039.681 .0245721
1040.265 .0245754
1040.848 .0245779
1041.432 .0245787
1042.015 .0245779
1042.598 .0245752
1043.181 .0245711
1043.764 .0245665
1044.346 .0245622
1044.929 .0245592
1045.511 .0245585
1046.094 .0245598
1046.676 .0245633
1047.258 .0245673
1047.840 .0245709
1048.422 .0245732
1049.003 .0245743
1049.585 .0245723
1050.166 .0245670
1050.748 .0245606
1051.329 .0245535
1051.910 .0245468
1052.491 .0245414
1053.072 .0245368
1053.653 .0245334
1054.234 .0245296
1054.815 .0245248
1055.396 .0245189
1055.976 .0245122
1056.557 .0245047
1057.138 .0244978
1057.718 .0244923
1058.298 .0244889
1058.879 .0244881
1059.459 .0244895
1060.039 .0244923
1060.620 .0244948
1061.200 .0244961
1061.780 .0244947
1062.360 .0244922
1062.940 .0244910
1063.520 .0244900
1064.101 .0244917
1064.681 .0244961
1065.261 .0245015
1065.841 .0245078
1066.421 .0245130
1067.001 .0245142
1067.581 .0245107
1068.161 .0245030
1068.741 .0244911
1069.321 .0244766
1069.901 .0244639
1070.482 .0244532
1071.062 .0244457
1071.642 .0244416
1072.222 .0244379
1072.803 .0244318
1073.383 .0244233
1073.963 .0244109
1074.544 .0243940
1075.124 .0243749
1075.705 .0243544
1076.286 .0243350
1076.866 .0243212
1077.447 .0243113
1078.028 .0243046
1078.609 .0243015
1079.190 .0243005
1079.771 .0242991
1080.352 .0242962
1080.934 .0242928
1081.515 .0242899
1082.097 .0242899
1082.679 .0242928
1083.260 .0242977
1083.842 .0243071
1084.424 .0243201
1085.007 .0243322
1085.589 .0243451
1086.172 .0243567
1086.754 .0243660
1087.337 .0243740
1087.920 .0243817
1088.503 .0243898
1089.087 .0243989
1089.670 .0244090
1090.254 .0244183
1090.838 .0244257
1091.422 .0244299
1092.006 .0244264
1092.590 .0244160
1093.175 .0243991
1093.760 .0243744
1094.345 .0243420
1094.930 .0243076
1095.516 .0242716
1096.102 .0242356
1096.688 .0242022
1097.274 .0241732
1097.860 .0241483
1098.447 .0241268
1099.034 .0241079
1099.622 .0240902
1100.209 .0240746
1100.797 .0240608
1101.385 .0240458
1101.973 .0240342
1102.562 .0240263
1103.151 .0240226
1103.740 .0240233
1104.330 .0240305
1104.920 .0240405
1105.510 .0240514
1106.101 .0240636
1106.691 .0240723
1107.283 .0240757
1107.874 .0240751
1108.466 .0240699
1109.058 .0240623
1109.651 .0240548
1110.244 .0240497
1110.837 .0240476
1111.431 .0240526
1112.025 .0240622
1112.620 .0240731
1113.215 .0240880
1113.810 .0241043
1114.406 .0241215
1115.002 .0241378
1115.599 .0241541
1116.196 .0241695
1116.793 .0241856
1117.391 .0242054
1117.989 .0242272
1118.588 .0242516
1119.187 .0242775
1119.787 .0243025
1120.387 .0243266
1120.988 .0243490
1121.589 .0243704
1122.190 .0243897
1122.793 .0244105
1123.395 .0244320
1123.998 .0244555
1124.602 .0244827
1125.206 .0245170
1125.811 .0245596
1126.416 .0246094
1127.022 .0246634
1127.628 .0247210
1128.235 .0247800
1128.843 .0248383
1129.451 .0248942
1130.059 .0249456
1130.669 .0249931
1131.278 .0250376
1131.889 .0250777
1132.500 .0251167
1133.112 .0251527
1133.724 .0251867
1134.337 .0252135
1134.950 .0252314
1135.564 .0252397
1136.179 .0252361
1136.795 .0252284
1137.411 .0252196
1138.028 .0252117
1138.645 .0252119
1139.263 .0252228
1139.882 .0252380
1140.502 .0252573
1141.122 .0252850
1141.743 .0253334
1142.365 .0254095
1142.987 .0252520
1143.611 .0252901
1144.235 .0255001
1144.859 .0260351
1145.485 .0264905
