Measurement Sequence started on: 10-20-44-796
Integration time: 35
Scans to Average: 2 
>>>>>Begin Spectral Data<<<<<
432.953 .0587686
433.882 .0404704
434.810 .0389222
435.737 .0364456
436.662 .0347332
437.586 .0359215
438.509 .0345091
439.431 .0338812
440.351 .0334141
441.269 .0331048
442.187 .0328996
443.103 .0327531
444.018 .0326957
444.932 .0326828
445.844 .0327037
446.756 .0327670
447.666 .0328365
448.575 .0329062
449.482 .0329663
450.388 .0330119
451.294 .0330458
452.198 .0330703
453.100 .0330805
454.002 .0330899
454.902 .0330948
455.801 .0330992
456.699 .0331024
457.596 .0331017
458.492 .0330955
459.387 .0330837
460.280 .0330685
461.172 .0330396
462.064 .0330049
462.954 .0329690
463.843 .0329253
464.730 .0328841
465.617 .0328505
466.503 .0328191
467.387 .0327948
468.271 .0327748
469.153 .0327623
470.035 .0327543
470.915 .0327579
471.794 .0327654
472.673 .0327746
473.550 .0327898
474.426 .0328066
475.301 .0328244
476.175 .0328453
477.048 .0328656
477.920 .0328854
478.791 .0329046
479.661 .0329197
480.530 .0329261
481.398 .0329277
482.266 .0329193
483.132 .0329030
483.997 .0328769
484.861 .0328418
485.724 .0328014
486.587 .0327582
487.448 .0327143
488.308 .0326684
489.168 .0326205
490.026 .0325688
490.884 .0325128
491.741 .0324524
492.597 .0323850
493.452 .0323154
494.306 .0322456
495.159 .0321755
496.011 .0321066
496.862 .0320439
497.713 .0319862
498.562 .0319326
499.411 .0318817
500.259 .0318297
501.106 .0317769
501.952 .0317244
502.798 .0316696
503.642 .0316170
504.486 .0315673
505.329 .0315226
506.171 .0314822
507.012 .0314470
507.852 .0314124
508.692 .0313749
509.531 .0313325
510.369 .0312815
511.206 .0312202
512.043 .0311496
512.878 .0310659
513.713 .0309741
514.547 .0308713
515.381 .0307568
516.213 .0306287
517.045 .0304894
517.876 .0303343
518.706 .0301616
519.536 .0299708
520.365 .0297627
521.193 .0295439
522.020 .0293220
522.847 .0290995
523.673 .0288840
524.498 .0286802
525.323 .0284869
526.146 .0282972
526.969 .0281211
527.792 .0279448
528.614 .0277633
529.435 .0275783
530.255 .0273904
531.075 .0272004
531.894 .0270193
532.712 .0268530
533.530 .0267057
534.347 .0265787
535.163 .0264719
535.979 .0263808
536.794 .0263109
537.608 .0262592
538.422 .0262238
539.235 .0262033
540.048 .0261985
540.860 .0262022
541.671 .0262201
542.481 .0262490
543.292 .0262858
544.101 .0263318
544.910 .0263776
545.718 .0264296
546.526 .0264850
547.333 .0265392
548.139 .0265965
548.945 .0266571
549.750 .0267195
550.555 .0267790
551.359 .0268389
552.162 .0268965
552.965 .0269530
553.768 .0270140
554.569 .0270791
555.371 .0271455
556.171 .0272206
556.972 .0273019
557.771 .0273920
558.570 .0274890
559.369 .0275856
560.167 .0276794
560.964 .0277671
561.761 .0278424
562.558 .0279055
563.354 .0279582
564.149 .0280056
564.944 .0280484
565.738 .0280921
566.532 .0281358
567.325 .0281814
568.118 .0282284
568.910 .0282769
569.702 .0283256
570.494 .0283746
571.285 .0284226
572.075 .0284738
572.865 .0285290
573.654 .0285885
574.443 .0286519
575.232 .0287205
576.020 .0287946
576.807 .0288735
577.594 .0289534
578.381 .0290324
579.167 .0291095
579.952 .0291851
580.738 .0292581
581.522 .0293297
582.307 .0294004
583.091 .0294705
583.874 .0295405
584.657 .0296080
585.440 .0296719
586.222 .0297313
587.004 .0297854
587.785 .0298341
588.566 .0298771
589.346 .0299139
590.126 .0299452
590.906 .0299724
591.685 .0299976
592.464 .0300190
593.242 .0300371
594.020 .0300515
594.797 .0300620
595.575 .0300677
596.351 .0300685
597.128 .0300653
597.904 .0300586
598.679 .0300494
599.454 .0300374
600.229 .0300245
601.004 .0300107
601.778 .0299965
602.551 .0299823
603.325 .0299675
604.097 .0299526
604.870 .0299381
605.642 .0299239
606.414 .0299103
607.185 .0298968
607.956 .0298842
608.727 .0298718
609.497 .0298598
610.267 .0298468
611.037 .0298327
611.806 .0298173
612.575 .0298012
613.344 .0297834
614.112 .0297658
614.880 .0297492
615.647 .0297338
616.414 .0297203
617.181 .0297077
617.948 .0296954
618.714 .0296839
619.480 .0296726
620.245 .0296608
621.011 .0296474
621.775 .0296336
622.540 .0296197
623.304 .0296062
624.068 .0295938
624.832 .0295829
625.595 .0295742
626.358 .0295674
627.120 .0295613
627.883 .0295546
628.645 .0295474
629.406 .0295392
630.168 .0295301
630.929 .0295197
631.689 .0295079
632.450 .0294954
633.210 .0294824
633.970 .0294696
634.729 .0294565
635.489 .0294426
636.248 .0294289
637.006 .0294144
637.765 .0293988
638.523 .0293816
639.280 .0293626
640.038 .0293428
640.795 .0293222
641.552 .0293009
642.309 .0292791
643.065 .0292581
643.821 .0292382
644.577 .0292188
645.332 .0291997
646.088 .0291813
646.843 .0291627
647.597 .0291442
648.352 .0291255
649.106 .0291063
649.860 .0290879
650.613 .0290703
651.367 .0290535
652.120 .0290390
652.872 .0290259
653.625 .0290143
654.377 .0290037
655.129 .0289936
655.881 .0289826
656.632 .0289706
657.384 .0289575
658.135 .0289435
658.885 .0289290
659.636 .0289145
660.386 .0288993
661.136 .0288845
661.885 .0288703
662.635 .0288558
663.384 .0288409
664.133 .0288261
664.881 .0288100
665.630 .0287929
666.378 .0287751
667.126 .0287569
667.874 .0287383
668.621 .0287199
669.368 .0287021
670.115 .0286845
670.862 .0286675
671.608 .0286513
672.354 .0286355
673.100 .0286205
673.846 .0286060
674.591 .0285915
675.337 .0285773
676.082 .0285636
676.826 .0285501
677.571 .0285368
678.315 .0285241
679.059 .0285118
679.803 .0284995
680.547 .0284877
681.290 .0284758
682.033 .0284630
682.776 .0284497
683.518 .0284358
684.261 .0284212
685.003 .0284060
685.745 .0283905
686.487 .0283751
687.228 .0283603
687.969 .0283459
688.710 .0283319
689.451 .0283180
690.192 .0283046
690.932 .0282909
691.672 .0282764
692.412 .0282617
693.152 .0282464
693.891 .0282305
694.630 .0282145
695.369 .0281984
696.108 .0281820
696.846 .0281649
697.585 .0281479
698.323 .0281308
699.061 .0281139
699.798 .0280968
700.536 .0280797
701.273 .0280631
702.010 .0280468
702.746 .0280304
703.483 .0280143
704.219 .0279992
704.955 .0279846
705.691 .0279703
706.427 .0279566
707.162 .0279433
707.897 .0279305
708.632 .0279177
709.367 .0279051
710.101 .0278923
710.835 .0278790
711.569 .0278651
712.303 .0278503
713.037 .0278353
713.770 .0278199
714.503 .0278039
715.236 .0277879
715.969 .0277718
716.702 .0277556
717.434 .0277395
718.166 .0277235
718.898 .0277076
719.629 .0276920
720.361 .0276763
721.092 .0276606
721.823 .0276450
722.554 .0276294
723.284 .0276134
724.014 .0275969
724.744 .0275797
725.474 .0275612
726.204 .0275417
726.933 .0275211
727.662 .0274992
728.391 .0274769
729.120 .0274537
729.849 .0274305
730.577 .0274076
731.305 .0273852
732.033 .0273636
732.760 .0273427
733.488 .0273228
734.215 .0273034
734.942 .0272848
735.669 .0272665
736.395 .0272482
737.122 .0272303
737.848 .0272126
738.573 .0271949
739.299 .0271777
740.024 .0271607
740.750 .0271439
741.474 .0271275
742.199 .0271110
742.924 .0270945
743.648 .0270778
744.372 .0270604
745.096 .0270428
745.819 .0270247
746.543 .0270068
747.266 .0269890
747.989 .0269724
748.711 .0269573
749.434 .0269435
750.156 .0269316
750.878 .0269213
751.599 .0269127
752.321 .0269056
753.042 .0268993
753.763 .0268937
754.484 .0268883
755.205 .0268828
755.925 .0268776
756.645 .0268725
757.365 .0268674
758.085 .0268622
758.804 .0268565
759.523 .0268501
760.242 .0268425
760.961 .0268326
761.679 .0268207
762.397 .0268062
763.115 .0267891
763.833 .0267691
764.551 .0267474
765.268 .0267242
765.985 .0267001
766.702 .0266754
767.418 .0266507
768.134 .0266255
768.850 .0266004
769.566 .0265752
770.282 .0265501
770.997 .0265253
771.712 .0265009
772.427 .0264772
773.142 .0264553
773.856 .0264353
774.570 .0264173
775.284 .0264013
775.998 .0263875
776.711 .0263755
777.424 .0263645
778.137 .0263543
778.849 .0263447
779.562 .0263353
780.274 .0263262
780.986 .0263174
781.697 .0263090
782.409 .0263012
783.120 .0262940
783.831 .0262874
784.541 .0262810
785.252 .0262746
785.962 .0262680
786.671 .0262606
787.381 .0262525
788.090 .0262436
788.799 .0262336
789.508 .0262228
790.217 .0262118
790.925 .0261999
791.633 .0261878
792.341 .0261753
793.048 .0261625
793.755 .0261496
794.462 .0261364
795.169 .0261230
795.875 .0261096
796.581 .0260968
797.287 .0260843
797.993 .0260718
798.698 .0260601
799.403 .0260486
800.108 .0260372
800.812 .0260258
801.517 .0260142
802.221 .0260022
802.924 .0259900
803.628 .0259773
804.331 .0259648
805.034 .0259528
805.736 .0259410
806.439 .0259299
807.141 .0259195
807.843 .0259097
808.544 .0259002
809.245 .0258908
809.946 .0258810
810.647 .0258708
811.347 .0258604
812.047 .0258493
812.747 .0258384
813.447 .0258278
814.146 .0258175
814.845 .0258082
815.543 .0257998
816.242 .0257922
816.940 .0257851
817.638 .0257783
818.335 .0257709
819.032 .0257630
819.729 .0257544
820.426 .0257450
821.122 .0257352
821.818 .0257253
822.514 .0257152
823.209 .0257052
823.905 .0256959
824.599 .0256861
825.294 .0256764
825.988 .0256659
826.682 .0256543
827.376 .0256419
828.069 .0256283
828.762 .0256138
829.455 .0255984
830.147 .0255826
830.840 .0255667
831.531 .0255504
832.223 .0255346
832.914 .0255183
833.605 .0255020
834.296 .0254857
834.986 .0254697
835.676 .0254536
836.366 .0254383
837.055 .0254236
837.744 .0254097
838.433 .0253969
839.121 .0253852
839.809 .0253743
840.497 .0253643
841.185 .0253551
841.872 .0253461
842.559 .0253371
843.245 .0253283
843.932 .0253192
844.617 .0253106
845.303 .0253022
845.988 .0252935
846.673 .0252848
847.358 .0252764
848.042 .0252680
848.726 .0252592
849.410 .0252506
850.093 .0252416
850.776 .0252320
851.459 .0252218
852.141 .0252104
852.823 .0251980
853.505 .0251852
854.186 .0251719
854.867 .0251584
855.548 .0251449
856.228 .0251319
856.908 .0251195
857.588 .0251082
858.267 .0250977
858.946 .0250874
859.625 .0250774
860.303 .0250679
860.981 .0250579
861.659 .0250477
862.336 .0250375
863.013 .0250271
863.690 .0250168
864.366 .0250064
865.042 .0249958
865.718 .0249851
866.393 .0249741
867.068 .0249628
867.743 .0249507
868.417 .0249380
869.091 .0249244
869.765 .0249098
870.438 .0248947
871.111 .0248790
871.783 .0248628
872.456 .0248464
873.127 .0248300
873.799 .0248138
874.470 .0247980
875.141 .0247829
875.811 .0247689
876.481 .0247557
877.151 .0247439
877.820 .0247330
878.489 .0247232
879.158 .0247142
879.826 .0247056
880.494 .0246969
881.162 .0246882
881.829 .0246791
882.496 .0246694
883.163 .0246594
883.829 .0246490
884.495 .0246380
885.160 .0246271
885.825 .0246165
886.490 .0246064
887.154 .0245965
887.818 .0245873
888.482 .0245781
889.145 .0245690
889.808 .0245601
890.471 .0245508
891.133 .0245415
891.795 .0245324
892.456 .0245232
893.117 .0245140
893.778 .0245052
894.439 .0244967
895.099 .0244881
895.758 .0244796
896.417 .0244709
897.076 .0244613
897.735 .0244512
898.393 .0244405
899.051 .0244289
899.708 .0244169
900.365 .0244045
901.022 .0243919
901.678 .0243798
902.334 .0243685
902.990 .0243581
903.645 .0243488
904.300 .0243412
904.954 .0243344
905.608 .0243284
906.262 .0243233
906.915 .0243190
907.568 .0243145
908.221 .0243101
908.873 .0243051
909.525 .0242995
910.176 .0242934
910.828 .0242868
911.478 .0242796
912.129 .0242721
912.778 .0242643
913.428 .0242564
914.077 .0242483
914.726 .0242402
915.375 .0242321
916.023 .0242242
916.670 .0242166
917.318 .0242090
917.964 .0242014
918.611 .0241943
919.257 .0241874
919.903 .0241811
920.548 .0241755
921.193 .0241708
921.838 .0241674
922.482 .0241655
923.126 .0241647
923.770 .0241647
924.413 .0241644
925.056 .0241638
925.698 .0241620
926.340 .0241585
926.982 .0241534
927.623 .0241466
928.264 .0241387
928.904 .0241304
929.544 .0241217
930.184 .0241131
930.823 .0241049
931.462 .0240968
932.101 .0240884
932.739 .0240793
933.377 .0240686
934.014 .0240559
934.651 .0240412
935.288 .0240248
935.924 .0240066
936.560 .0239880
937.196 .0239698
937.831 .0239519
938.466 .0239351
939.100 .0239191
939.734 .0239037
940.368 .0238889
941.001 .0238744
941.634 .0238597
942.266 .0238446
942.899 .0238294
943.530 .0238139
944.162 .0237988
944.793 .0237844
945.423 .0237710
946.053 .0237587
946.683 .0237480
947.313 .0237388
947.942 .0237301
948.571 .0237217
949.199 .0237129
949.827 .0237028
950.455 .0236912
951.082 .0236779
951.709 .0236627
952.335 .0236462
952.961 .0236297
953.587 .0236129
954.212 .0235965
954.837 .0235804
955.462 .0235649
956.086 .0235498
956.710 .0235353
957.334 .0235208
957.957 .0235056
958.579 .0234904
959.202 .0234751
959.824 .0234599
960.445 .0234457
961.067 .0234327
961.688 .0234215
962.308 .0234123
962.928 .0234045
963.548 .0233977
964.168 .0233919
964.787 .0233865
965.406 .0233809
966.024 .0233749
966.642 .0233687
967.260 .0233626
967.877 .0233568
968.494 .0233513
969.110 .0233463
969.727 .0233419
970.342 .0233378
970.958 .0233341
971.573 .0233310
972.188 .0233281
972.802 .0233255
973.416 .0233234
974.030 .0233217
974.643 .0233203
975.256 .0233193
975.869 .0233185
976.481 .0233179
977.093 .0233175
977.705 .0233173
978.316 .0233175
978.927 .0233184
979.538 .0233199
980.148 .0233223
980.758 .0233258
981.367 .0233303
981.977 .0233352
982.586 .0233401
983.194 .0233446
983.802 .0233483
984.410 .0233508
985.018 .0233522
985.625 .0233525
986.232 .0233526
986.838 .0233523
987.445 .0233518
988.050 .0233510
988.656 .0233498
989.261 .0233486
989.866 .0233464
990.471 .0233426
991.075 .0233375
991.679 .0233309
992.282 .0233231
992.886 .0233144
993.489 .0233058
994.091 .0232972
994.694 .0232892
995.296 .0232819
995.897 .0232747
996.499 .0232678
997.100 .0232602
997.701 .0232521
998.301 .0232433
998.901 .0232343
999.501 .0232252
1000.101 .0232168
1000.700 .0232098
1001.299 .0232037
1001.898 .0231986
1002.496 .0231944
1003.094 .0231909
1003.692 .0231879
1004.289 .0231848
1004.887 .0231821
1005.484 .0231794
1006.080 .0231775
1006.677 .0231755
1007.273 .0231741
1007.868 .0231730
1008.464 .0231720
1009.059 .0231713
1009.654 .0231708
1010.249 .0231709
1010.843 .0231718
1011.437 .0231733
1012.031 .0231753
1012.625 .0231778
1013.218 .0231813
1013.811 .0231841
1014.404 .0231873
1014.997 .0231899
1015.589 .0231918
1016.181 .0231934
1016.773 .0231949
1017.365 .0231966
1017.956 .0231980
1018.547 .0231994
1019.138 .0232000
1019.728 .0231995
1020.319 .0231981
1020.909 .0231952
1021.499 .0231913
1022.088 .0231871
1022.678 .0231820
1023.267 .0231765
1023.856 .0231710
1024.445 .0231658
1025.033 .0231609
1025.621 .0231567
1026.209 .0231533
1026.797 .0231506
1027.385 .0231489
1027.972 .0231489
1028.560 .0231502
1029.147 .0231524
1029.734 .0231552
1030.320 .0231577
1030.907 .0231596
1031.493 .0231605
1032.079 .0231598
1032.665 .0231586
1033.250 .0231558
1033.836 .0231524
1034.421 .0231487
1035.006 .0231445
1035.591 .0231404
1036.176 .0231363
1036.761 .0231321
1037.345 .0231279
1037.929 .0231222
1038.514 .0231162
1039.097 .0231100
1039.681 .0231050
1040.265 .0231007
1040.848 .0230978
1041.432 .0230973
1042.015 .0230982
1042.598 .0231006
1043.181 .0231039
1043.764 .0231076
1044.346 .0231116
1044.929 .0231153
1045.511 .0231185
1046.094 .0231203
1046.676 .0231213
1047.258 .0231206
1047.840 .0231198
1048.422 .0231179
1049.003 .0231144
1049.585 .0231098
1050.166 .0231044
1050.748 .0230989
1051.329 .0230923
1051.910 .0230858
1052.491 .0230794
1053.072 .0230733
1053.653 .0230682
1054.234 .0230621
1054.815 .0230568
1055.396 .0230517
1055.976 .0230459
1056.557 .0230399
1057.138 .0230337
1057.718 .0230274
1058.298 .0230221
1058.879 .0230190
1059.459 .0230171
1060.039 .0230164
1060.620 .0230161
1061.200 .0230152
1061.780 .0230130
1062.360 .0230083
1062.940 .0230009
1063.520 .0229906
1064.101 .0229786
1064.681 .0229635
1065.261 .0229468
1065.841 .0229287
1066.421 .0229102
1067.001 .0228920
1067.581 .0228743
1068.161 .0228564
1068.741 .0228406
1069.321 .0228261
1069.901 .0228138
1070.482 .0228027
1071.062 .0227928
1071.642 .0227828
1072.222 .0227739
1072.803 .0227648
1073.383 .0227561
1073.963 .0227481
1074.544 .0227431
1075.124 .0227387
1075.705 .0227367
1076.286 .0227360
1076.866 .0227375
1077.447 .0227384
1078.028 .0227383
1078.609 .0227350
1079.190 .0227302
1079.771 .0227236
1080.352 .0227168
1080.934 .0227098
1081.515 .0227062
1082.097 .0227044
1082.679 .0227053
1083.260 .0227072
1083.842 .0227105
1084.424 .0227127
1085.007 .0227138
1085.589 .0227120
1086.172 .0227075
1086.754 .0227004
1087.337 .0226935
1087.920 .0226872
1088.503 .0226831
1089.087 .0226796
1089.670 .0226761
1090.254 .0226719
1090.838 .0226653
1091.422 .0226560
1092.006 .0226433
1092.590 .0226277
1093.175 .0226107
1093.760 .0225929
1094.345 .0225753
1094.930 .0225600
1095.516 .0225485
1096.102 .0225405
1096.688 .0225349
1097.274 .0225318
1097.860 .0225287
1098.447 .0225260
1099.034 .0225227
1099.622 .0225176
1100.209 .0225096
1100.797 .0225028
1101.385 .0224946
1101.973 .0224892
1102.562 .0224861
1103.151 .0224873
1103.740 .0224924
1104.330 .0225010
1104.920 .0225114
1105.510 .0225229
1106.101 .0225341
1106.691 .0225437
1107.283 .0225487
1107.874 .0225512
1108.466 .0225483
1109.058 .0225418
1109.651 .0225312
1110.244 .0225191
1110.837 .0225065
1111.431 .0224942
1112.025 .0224817
1112.620 .0224716
1113.215 .0224638
1113.810 .0224566
1114.406 .0224520
1115.002 .0224488
1115.599 .0224466
1116.196 .0224445
1116.793 .0224421
1117.391 .0224399
1117.989 .0224397
1118.588 .0224429
1119.187 .0224483
1119.787 .0224567
1120.387 .0224692
1120.988 .0224823
1121.589 .0224984
1122.190 .0225130
1122.793 .0225260
1123.395 .0225351
1123.998 .0225431
1124.602 .0225483
1125.206 .0225542
1125.811 .0225637
1126.416 .0225811
1127.022 .0226070
1127.628 .0226409
1128.235 .0226784
1128.843 .0227177
1129.451 .0227574
1130.059 .0227961
1130.669 .0228304
1131.278 .0228635
1131.889 .0228930
1132.500 .0229232
1133.112 .0229519
1133.724 .0229805
1134.337 .0230093
1134.950 .0230376
1135.564 .0230652
1136.179 .0230882
1136.795 .0231080
1137.411 .0231267
1138.028 .0231458
1138.645 .0231703
1139.263 .0231985
1139.882 .0232295
1140.502 .0232674
1141.122 .0233167
1141.743 .0233764
1142.365 .0234512
1142.987 .0234097
1143.611 .0235502
1144.235 .0237449
1144.859 .0238646
1145.485 .0240602
