Measurement Sequence started on: 10-20-44-796
Integration time: 35
Scans to Average: 2 
>>>>>Begin Spectral Data<<<<<
432.953 .0337308
433.882 .0383485
434.810 .0422731
435.737 .0407253
436.662 .0379326
437.586 .0384113
438.509 .0382955
439.431 .0380094
440.351 .0376752
441.269 .0374394
442.187 .0373010
443.103 .0371680
444.018 .0370614
444.932 .0369805
445.844 .0369323
446.756 .0369164
447.666 .0369407
448.575 .0369851
449.482 .0370565
450.388 .0371428
451.294 .0372459
452.198 .0373572
453.100 .0374859
454.002 .0376275
454.902 .0377811
455.801 .0379271
456.699 .0380658
457.596 .0381856
458.492 .0382918
459.387 .0383822
460.280 .0384556
461.172 .0385177
462.064 .0385716
462.954 .0386190
463.843 .0386562
464.730 .0386814
465.617 .0386972
466.503 .0386983
467.387 .0386855
468.271 .0386510
469.153 .0386050
470.035 .0385416
470.915 .0384756
471.794 .0384055
472.673 .0383340
473.550 .0382651
474.426 .0381982
475.301 .0381398
476.175 .0380875
477.048 .0380377
477.920 .0379906
478.791 .0379418
479.661 .0378966
480.530 .0378426
481.398 .0377844
482.266 .0377251
483.132 .0376710
483.997 .0376199
484.861 .0375798
485.724 .0375537
486.587 .0375424
487.448 .0375439
488.308 .0375526
489.168 .0375632
490.026 .0375725
490.884 .0375765
491.741 .0375712
492.597 .0375599
493.452 .0375451
494.306 .0375218
495.159 .0375013
496.011 .0374829
496.862 .0374635
497.713 .0374412
498.562 .0374125
499.411 .0373726
500.259 .0373170
501.106 .0372440
501.952 .0371529
502.798 .0370468
503.642 .0369339
504.486 .0368081
505.329 .0366751
506.171 .0365412
507.012 .0364022
507.852 .0362607
508.692 .0361202
509.531 .0359782
510.369 .0358392
511.206 .0357041
512.043 .0355735
512.878 .0354445
513.713 .0353193
514.547 .0351922
515.381 .0350644
516.213 .0349351
517.045 .0348030
517.876 .0346578
518.706 .0345113
519.536 .0343680
520.365 .0342273
521.193 .0340863
522.020 .0339493
522.847 .0338108
523.673 .0336643
524.498 .0334996
525.323 .0333167
526.146 .0331168
526.969 .0329120
527.792 .0327019
528.614 .0324917
529.435 .0322977
530.255 .0321247
531.075 .0319726
531.894 .0318494
532.712 .0317393
533.530 .0316276
534.347 .0315177
535.163 .0314095
535.979 .0312929
536.794 .0311806
537.608 .0310824
538.422 .0309994
539.235 .0309439
540.048 .0309031
540.860 .0308808
541.671 .0308848
542.481 .0309086
543.292 .0309354
544.101 .0309639
544.910 .0310017
545.718 .0310297
546.526 .0310505
547.333 .0310774
548.139 .0310922
548.945 .0311120
549.750 .0311283
550.555 .0311443
551.359 .0311658
552.162 .0311994
552.965 .0312392
553.768 .0312904
554.569 .0313495
555.371 .0314068
556.171 .0314545
556.972 .0315016
557.771 .0315419
558.570 .0315730
559.369 .0316080
560.167 .0316518
560.964 .0316974
561.761 .0317608
562.558 .0318335
563.354 .0319236
564.149 .0320201
564.944 .0321154
565.738 .0322046
566.532 .0322784
567.325 .0323438
568.118 .0323918
568.910 .0324296
569.702 .0324696
570.494 .0325055
571.285 .0325442
572.075 .0325843
572.865 .0326265
573.654 .0326681
574.443 .0327067
575.232 .0327417
576.020 .0327699
576.807 .0327957
577.594 .0328207
578.381 .0328470
579.167 .0328772
579.952 .0329140
580.738 .0329537
581.522 .0329996
582.307 .0330464
583.091 .0330933
583.874 .0331408
584.657 .0331864
585.440 .0332294
586.222 .0332665
587.004 .0332981
587.785 .0333244
588.566 .0333437
589.346 .0333569
590.126 .0333640
590.906 .0333677
591.685 .0333678
592.464 .0333627
593.242 .0333542
594.020 .0333416
594.797 .0333261
595.575 .0333091
596.351 .0332903
597.128 .0332694
597.904 .0332484
598.679 .0332260
599.454 .0332025
600.229 .0331786
601.004 .0331545
601.778 .0331282
602.551 .0331018
603.325 .0330739
604.097 .0330436
604.870 .0330120
605.642 .0329801
606.414 .0329475
607.185 .0329145
607.956 .0328816
608.727 .0328498
609.497 .0328207
610.267 .0327956
611.037 .0327733
611.806 .0327552
612.575 .0327412
613.344 .0327290
614.112 .0327181
614.880 .0327084
615.647 .0326983
616.414 .0326873
617.181 .0326755
617.948 .0326634
618.714 .0326519
619.480 .0326412
620.245 .0326315
621.011 .0326215
621.775 .0326104
622.540 .0325959
623.304 .0325768
624.068 .0325540
624.832 .0325281
625.595 .0325002
626.358 .0324723
627.120 .0324466
627.883 .0324240
628.645 .0324039
629.406 .0323868
630.168 .0323706
630.929 .0323534
631.689 .0323328
632.450 .0323090
633.210 .0322828
633.970 .0322554
634.729 .0322281
635.489 .0322018
636.248 .0321781
637.006 .0321570
637.765 .0321365
638.523 .0321159
639.280 .0320939
640.038 .0320693
640.795 .0320420
641.552 .0320128
642.309 .0319833
643.065 .0319561
643.821 .0319321
644.577 .0319134
645.332 .0318989
646.088 .0318876
646.843 .0318784
647.597 .0318699
648.352 .0318610
649.106 .0318500
649.860 .0318359
650.613 .0318200
651.367 .0318025
652.120 .0317855
652.872 .0317681
653.625 .0317514
654.377 .0317358
655.129 .0317203
655.881 .0317052
656.632 .0316894
657.384 .0316725
658.135 .0316554
658.885 .0316364
659.636 .0316154
660.386 .0315922
661.136 .0315674
661.885 .0315415
662.635 .0315156
663.384 .0314897
664.133 .0314637
664.881 .0314372
665.630 .0314112
666.378 .0313842
667.126 .0313566
667.874 .0313280
668.621 .0312977
669.368 .0312673
670.115 .0312367
670.862 .0312052
671.608 .0311753
672.354 .0311470
673.100 .0311208
673.846 .0310960
674.591 .0310728
675.337 .0310508
676.082 .0310298
676.826 .0310097
677.571 .0309900
678.315 .0309706
679.059 .0309518
679.803 .0309323
680.547 .0309127
681.290 .0308921
682.033 .0308703
682.776 .0308475
683.518 .0308241
684.261 .0307999
685.003 .0307758
685.745 .0307513
686.487 .0307276
687.228 .0307042
687.969 .0306811
688.710 .0306576
689.451 .0306337
690.192 .0306089
690.932 .0305826
691.672 .0305549
692.412 .0305271
693.152 .0304981
693.891 .0304688
694.630 .0304389
695.369 .0304084
696.108 .0303778
696.846 .0303474
697.585 .0303168
698.323 .0302872
699.061 .0302587
699.798 .0302311
700.536 .0302043
701.273 .0301787
702.010 .0301536
702.746 .0301292
703.483 .0301059
704.219 .0300834
704.955 .0300616
705.691 .0300416
706.427 .0300229
707.162 .0300058
707.897 .0299902
708.632 .0299750
709.367 .0299594
710.101 .0299431
710.835 .0299253
711.569 .0299053
712.303 .0298840
713.037 .0298615
713.770 .0298382
714.503 .0298154
715.236 .0297925
715.969 .0297706
716.702 .0297498
717.434 .0297299
718.166 .0297102
718.898 .0296908
719.629 .0296715
720.361 .0296519
721.092 .0296327
721.823 .0296136
722.554 .0295951
723.284 .0295780
724.014 .0295615
724.744 .0295458
725.474 .0295304
726.204 .0295154
726.933 .0295002
727.662 .0294854
728.391 .0294703
729.120 .0294550
729.849 .0294404
730.577 .0294264
731.305 .0294133
732.033 .0294008
732.760 .0293890
733.488 .0293773
734.215 .0293657
734.942 .0293541
735.669 .0293414
736.395 .0293296
737.122 .0293178
737.848 .0293066
738.573 .0292958
739.299 .0292855
740.024 .0292755
740.750 .0292653
741.474 .0292554
742.199 .0292445
742.924 .0292331
743.648 .0292219
744.372 .0292102
745.096 .0291997
745.819 .0291903
746.543 .0291823
747.266 .0291751
747.989 .0291694
748.711 .0291643
749.434 .0291590
750.156 .0291541
750.878 .0291491
751.599 .0291442
752.321 .0291396
753.042 .0291355
753.763 .0291317
754.484 .0291285
755.205 .0291251
755.925 .0291209
756.645 .0291158
757.365 .0291091
758.085 .0291006
758.804 .0290909
759.523 .0290800
760.242 .0290679
760.961 .0290542
761.679 .0290398
762.397 .0290243
763.115 .0290080
763.833 .0289901
764.551 .0289716
765.268 .0289527
765.985 .0289334
766.702 .0289138
767.418 .0288945
768.134 .0288759
768.850 .0288580
769.566 .0288407
770.282 .0288240
770.997 .0288070
771.712 .0287900
772.427 .0287718
773.142 .0287529
773.856 .0287333
774.570 .0287130
775.284 .0286926
775.998 .0286730
776.711 .0286543
777.424 .0286364
778.137 .0286188
778.849 .0286012
779.562 .0285828
780.274 .0285632
780.986 .0285420
781.697 .0285195
782.409 .0284967
783.120 .0284747
783.831 .0284536
784.541 .0284347
785.252 .0284182
785.962 .0284043
786.671 .0283921
787.381 .0283806
788.090 .0283690
788.799 .0283570
789.508 .0283435
790.217 .0283284
790.925 .0283124
791.633 .0282958
792.341 .0282787
793.048 .0282618
793.755 .0282447
794.462 .0282274
795.169 .0282097
795.875 .0281912
796.581 .0281721
797.287 .0281523
797.993 .0281322
798.698 .0281124
799.403 .0280937
800.108 .0280761
800.812 .0280592
801.517 .0280429
802.221 .0280276
802.924 .0280121
803.628 .0279972
804.331 .0279831
805.034 .0279699
805.736 .0279582
806.439 .0279477
807.141 .0279385
807.843 .0279305
808.544 .0279222
809.245 .0279133
809.946 .0279017
810.647 .0278876
811.347 .0278704
812.047 .0278505
812.747 .0278292
813.447 .0278069
814.146 .0277847
814.845 .0277637
815.543 .0277437
816.242 .0277245
816.940 .0277055
817.638 .0276863
818.335 .0276655
819.032 .0276429
819.729 .0276188
820.426 .0275940
821.122 .0275694
821.818 .0275460
822.514 .0275235
823.209 .0275032
823.905 .0274851
824.599 .0274678
825.294 .0274517
825.988 .0274360
826.682 .0274202
827.376 .0274041
828.069 .0273874
828.762 .0273698
829.455 .0273513
830.147 .0273327
830.840 .0273133
831.531 .0272939
832.223 .0272753
832.914 .0272572
833.605 .0272404
834.296 .0272255
834.986 .0272116
835.676 .0271984
836.366 .0271859
837.055 .0271730
837.744 .0271591
838.433 .0271445
839.121 .0271289
839.809 .0271130
840.497 .0270984
841.185 .0270851
841.872 .0270735
842.559 .0270648
843.245 .0270581
843.932 .0270524
844.617 .0270474
845.303 .0270417
845.988 .0270346
846.673 .0270260
847.358 .0270158
848.042 .0270043
848.726 .0269928
849.410 .0269818
850.093 .0269718
850.776 .0269632
851.459 .0269560
852.141 .0269495
852.823 .0269434
853.505 .0269369
854.186 .0269289
854.867 .0269199
855.548 .0269095
856.228 .0268984
856.908 .0268871
857.588 .0268760
858.267 .0268659
858.946 .0268571
859.625 .0268499
860.303 .0268441
860.981 .0268395
861.659 .0268353
862.336 .0268307
863.013 .0268260
863.690 .0268203
864.366 .0268134
865.042 .0268059
865.718 .0267984
866.393 .0267905
867.068 .0267827
867.743 .0267751
868.417 .0267682
869.091 .0267622
869.765 .0267565
870.438 .0267508
871.111 .0267445
871.783 .0267382
872.456 .0267316
873.127 .0267247
873.799 .0267187
874.470 .0267135
875.141 .0267089
875.811 .0267056
876.481 .0267030
877.151 .0267014
877.820 .0267006
878.489 .0267010
879.158 .0267013
879.826 .0267010
880.494 .0267007
881.162 .0267000
881.829 .0266995
882.496 .0266991
883.163 .0266979
883.829 .0266974
884.495 .0266971
885.160 .0266968
885.825 .0266965
886.490 .0266975
887.154 .0266986
887.818 .0267003
888.482 .0267018
889.145 .0267029
889.808 .0267037
890.471 .0267039
891.133 .0267031
891.795 .0267012
892.456 .0266990
893.117 .0266965
893.778 .0266940
894.439 .0266930
895.099 .0266919
895.758 .0266916
896.417 .0266911
897.076 .0266903
897.735 .0266874
898.393 .0266833
899.051 .0266775
899.708 .0266712
900.365 .0266647
901.022 .0266586
901.678 .0266537
902.334 .0266504
902.990 .0266486
903.645 .0266471
904.300 .0266456
904.954 .0266437
905.608 .0266403
906.262 .0266358
906.915 .0266299
907.568 .0266232
908.221 .0266159
908.873 .0266094
909.525 .0266032
910.176 .0265970
910.828 .0265910
911.478 .0265843
912.129 .0265764
912.778 .0265670
913.428 .0265564
914.077 .0265450
914.726 .0265338
915.375 .0265235
916.023 .0265138
916.670 .0265058
917.318 .0264991
917.964 .0264931
918.611 .0264873
919.257 .0264817
919.903 .0264758
920.548 .0264696
921.193 .0264636
921.838 .0264578
922.482 .0264530
923.126 .0264491
923.770 .0264457
924.413 .0264426
925.056 .0264388
925.698 .0264334
926.340 .0264260
926.982 .0264171
927.623 .0264061
928.264 .0263933
928.904 .0263796
929.544 .0263649
930.184 .0263499
930.823 .0263339
931.462 .0263178
932.101 .0263016
932.739 .0262856
933.377 .0262692
934.014 .0262527
934.651 .0262370
935.288 .0262223
935.924 .0262080
936.560 .0261945
937.196 .0261811
937.831 .0261675
938.466 .0261529
939.100 .0261374
939.734 .0261205
940.368 .0261031
941.001 .0260855
941.634 .0260684
942.266 .0260516
942.899 .0260353
943.530 .0260189
944.162 .0260024
944.793 .0259856
945.423 .0259671
946.053 .0259462
946.683 .0259236
947.313 .0258991
947.942 .0258731
948.571 .0258460
949.199 .0258188
949.827 .0257915
950.455 .0257652
951.082 .0257391
951.709 .0257125
952.335 .0256861
952.961 .0256595
953.587 .0256322
954.212 .0256049
954.837 .0255779
955.462 .0255510
956.086 .0255257
956.710 .0255026
957.334 .0254815
957.957 .0254617
958.579 .0254436
959.202 .0254261
959.824 .0254087
960.445 .0253910
961.067 .0253722
961.688 .0253537
962.308 .0253360
962.928 .0253190
963.548 .0253025
964.168 .0252867
964.787 .0252714
965.406 .0252557
966.024 .0252397
966.642 .0252230
967.260 .0252051
967.877 .0251867
968.494 .0251687
969.110 .0251505
969.727 .0251326
970.342 .0251154
970.958 .0250985
971.573 .0250819
972.188 .0250647
972.802 .0250470
973.416 .0250290
974.030 .0250114
974.643 .0249944
975.256 .0249774
975.869 .0249622
976.481 .0249474
977.093 .0249334
977.705 .0249199
978.316 .0249069
978.927 .0248938
979.538 .0248815
980.148 .0248697
980.758 .0248592
981.367 .0248499
981.977 .0248423
982.586 .0248357
983.194 .0248304
983.802 .0248246
984.410 .0248179
985.018 .0248091
985.625 .0247990
986.232 .0247860
986.838 .0247718
987.445 .0247562
988.050 .0247410
988.656 .0247261
989.261 .0247119
989.866 .0246977
990.471 .0246836
991.075 .0246683
991.679 .0246520
992.282 .0246341
992.886 .0246152
993.489 .0245961
994.091 .0245782
994.694 .0245612
995.296 .0245469
995.897 .0245347
996.499 .0245239
997.100 .0245141
997.701 .0245039
998.301 .0244928
998.901 .0244809
999.501 .0244687
1000.101 .0244566
1000.700 .0244460
1001.299 .0244369
1001.898 .0244288
1002.496 .0244222
1003.094 .0244166
1003.692 .0244100
1004.289 .0244024
1004.887 .0243936
1005.484 .0243826
1006.080 .0243705
1006.677 .0243577
1007.273 .0243444
1007.868 .0243332
1008.464 .0243232
1009.059 .0243146
1009.654 .0243073
1010.249 .0243019
1010.843 .0242969
1011.437 .0242926
1012.031 .0242895
1012.625 .0242871
1013.218 .0242856
1013.811 .0242852
1014.404 .0242848
1014.997 .0242857
1015.589 .0242874
1016.181 .0242885
1016.773 .0242895
1017.365 .0242908
1017.956 .0242905
1018.547 .0242888
1019.138 .0242854
1019.728 .0242809
1020.319 .0242761
1020.909 .0242711
1021.499 .0242647
1022.088 .0242584
1022.678 .0242525
1023.267 .0242469
1023.856 .0242414
1024.445 .0242370
1025.033 .0242328
1025.621 .0242289
1026.209 .0242246
1026.797 .0242197
1027.385 .0242150
1027.972 .0242107
1028.560 .0242063
1029.147 .0242024
1029.734 .0241988
1030.320 .0241945
1030.907 .0241898
1031.493 .0241858
1032.079 .0241808
1032.665 .0241762
1033.250 .0241709
1033.836 .0241650
1034.421 .0241601
1035.006 .0241564
1035.591 .0241545
1036.176 .0241548
1036.761 .0241576
1037.345 .0241604
1037.929 .0241628
1038.514 .0241644
1039.097 .0241644
1039.681 .0241632
1040.265 .0241619
1040.848 .0241599
1041.432 .0241575
1042.015 .0241552
1042.598 .0241522
1043.181 .0241496
1043.764 .0241473
1044.346 .0241432
1044.929 .0241379
1045.511 .0241321
1046.094 .0241253
1046.676 .0241180
1047.258 .0241112
1047.840 .0241057
1048.422 .0241011
1049.003 .0240978
1049.585 .0240940
1050.166 .0240903
1050.748 .0240872
1051.329 .0240840
1051.910 .0240795
1052.491 .0240761
1053.072 .0240717
1053.653 .0240677
1054.234 .0240640
1054.815 .0240594
1055.396 .0240542
1055.976 .0240495
1056.557 .0240441
1057.138 .0240408
1057.718 .0240390
1058.298 .0240406
1058.879 .0240440
1059.459 .0240504
1060.039 .0240578
1060.620 .0240657
1061.200 .0240749
1061.780 .0240843
1062.360 .0240922
1062.940 .0241007
1063.520 .0241083
1064.101 .0241154
1064.681 .0241225
1065.261 .0241286
1065.841 .0241331
1066.421 .0241361
1067.001 .0241359
1067.581 .0241331
1068.161 .0241290
1068.741 .0241243
1069.321 .0241186
1069.901 .0241124
1070.482 .0241063
1071.062 .0240992
1071.642 .0240917
1072.222 .0240829
1072.803 .0240708
1073.383 .0240566
1073.963 .0240409
1074.544 .0240240
1075.124 .0240075
1075.705 .0239940
1076.286 .0239841
1076.866 .0239786
1077.447 .0239766
1078.028 .0239763
1078.609 .0239779
1079.190 .0239815
1079.771 .0239850
1080.352 .0239872
1080.934 .0239891
1081.515 .0239931
1082.097 .0239986
1082.679 .0240086
1083.260 .0240232
1083.842 .0240421
1084.424 .0240661
1085.007 .0240923
1085.589 .0241188
1086.172 .0241453
1086.754 .0241705
1087.337 .0241917
1087.920 .0242105
1088.503 .0242273
1089.087 .0242418
1089.670 .0242572
1090.254 .0242756
1090.838 .0242954
1091.422 .0243168
1092.006 .0243366
1092.590 .0243529
1093.175 .0243647
1093.760 .0243724
1094.345 .0243714
1094.930 .0243663
1095.516 .0243582
1096.102 .0243476
1096.688 .0243365
1097.274 .0243278
1097.860 .0243175
1098.447 .0243079
1099.034 .0242940
1099.622 .0242733
1100.209 .0242439
1100.797 .0242079
1101.385 .0241630
1101.973 .0241162
1102.562 .0240708
1103.151 .0240290
1103.740 .0239929
1104.330 .0239675
1104.920 .0239486
1105.510 .0239374
1106.101 .0239317
1106.691 .0239303
1107.283 .0239325
1107.874 .0239389
1108.466 .0239465
1109.058 .0239603
1109.651 .0239803
1110.244 .0240076
1110.837 .0240410
1111.431 .0240831
1112.025 .0241294
1112.620 .0241799
1113.215 .0242306
1113.810 .0242809
1114.406 .0243300
1115.002 .0243745
1115.599 .0244116
1116.196 .0244425
1116.793 .0244643
1117.391 .0244785
1117.989 .0244848
1118.588 .0244884
1119.187 .0244866
1119.787 .0244857
1120.387 .0244847
1120.988 .0244868
1121.589 .0244897
1122.190 .0244931
1122.793 .0244958
1123.395 .0244990
1123.998 .0245012
1124.602 .0245055
1125.206 .0245168
1125.811 .0245408
1126.416 .0245799
1127.022 .0246373
1127.628 .0247085
1128.235 .0247915
1128.843 .0248758
1129.451 .0249582
1130.059 .0250280
1130.669 .0250852
1131.278 .0251319
1131.889 .0251684
1132.500 .0252032
1133.112 .0252394
1133.724 .0252835
1134.337 .0253390
1134.950 .0254010
1135.564 .0254686
1136.179 .0255382
1136.795 .0256049
1137.411 .0256650
1138.028 .0257193
1138.645 .0257815
1139.263 .0258516
1139.882 .0259325
1140.502 .0260448
1141.122 .0261892
1141.743 .0263668
1142.365 .0265305
1142.987 .0265806
1143.611 .0271479
1144.235 .0274274
1144.859 .0275936
1145.485 .0266269
