Measurement Sequence started on: 10-20-44-796
Integration time: 35
Scans to Average: 2 
>>>>>Begin Spectral Data<<<<<
432.953 .0336439
433.882 .0267593
434.810 .0257273
435.737 .0286723
436.662 .0291087
437.586 .0292288
438.509 .0294822
439.431 .0299941
440.351 .0305280
441.269 .0310025
442.187 .0315021
443.103 .0320270
444.018 .0325537
444.932 .0330536
445.844 .0334999
446.756 .0339038
447.666 .0342669
448.575 .0345552
449.482 .0347863
450.388 .0349702
451.294 .0351110
452.198 .0352222
453.100 .0352978
454.002 .0353478
454.902 .0353746
455.801 .0353741
456.699 .0353552
457.596 .0353129
458.492 .0352453
459.387 .0351640
460.280 .0350840
461.172 .0349973
462.064 .0349117
462.954 .0348459
463.843 .0347960
464.730 .0347582
465.617 .0347349
466.503 .0347202
467.387 .0347013
468.271 .0346810
469.153 .0346454
470.035 .0345965
470.915 .0345452
471.794 .0344891
472.673 .0344324
473.550 .0343848
474.426 .0343433
475.301 .0343001
476.175 .0342663
477.048 .0342383
477.920 .0342026
478.791 .0341630
479.661 .0341235
480.530 .0340789
481.398 .0340295
482.266 .0339811
483.132 .0339382
483.997 .0339056
484.861 .0338859
485.724 .0338733
486.587 .0338716
487.448 .0338781
488.308 .0338872
489.168 .0338924
490.026 .0338951
490.884 .0338896
491.741 .0338766
492.597 .0338572
493.452 .0338367
494.306 .0338160
495.159 .0337978
496.011 .0337837
496.862 .0337708
497.713 .0337528
498.562 .0337243
499.411 .0336868
500.259 .0336373
501.106 .0335727
501.952 .0334975
502.798 .0334138
503.642 .0333321
504.486 .0332550
505.329 .0331808
506.171 .0331093
507.012 .0330393
507.852 .0329671
508.692 .0328818
509.531 .0327858
510.369 .0326778
511.206 .0325601
512.043 .0324335
512.878 .0323055
513.713 .0321696
514.547 .0320400
515.381 .0319113
516.213 .0317820
517.045 .0316453
517.876 .0314968
518.706 .0313323
519.536 .0311532
520.365 .0309543
521.193 .0307432
522.020 .0305154
522.847 .0302924
523.673 .0300703
524.498 .0298603
525.323 .0296636
526.146 .0294872
526.969 .0293244
527.792 .0291671
528.614 .0290003
529.435 .0288394
530.255 .0286719
531.075 .0284994
531.894 .0283189
532.712 .0281403
533.530 .0279635
534.347 .0278006
535.163 .0276462
535.979 .0275128
536.794 .0274010
537.608 .0273211
538.422 .0272660
539.235 .0272416
540.048 .0272482
540.860 .0272745
541.671 .0273104
542.481 .0273535
543.292 .0273779
544.101 .0273948
544.910 .0274036
545.718 .0274061
546.526 .0274070
547.333 .0274249
548.139 .0274607
548.945 .0275132
549.750 .0275780
550.555 .0276485
551.359 .0277104
552.162 .0277562
552.965 .0277816
553.768 .0277828
554.569 .0277796
555.371 .0277789
556.171 .0277812
556.972 .0278106
557.771 .0278595
558.570 .0279282
559.369 .0280095
560.167 .0280993
560.964 .0281958
561.761 .0282886
562.558 .0283850
563.354 .0284862
564.149 .0285932
564.944 .0287077
565.738 .0288256
566.532 .0289470
567.325 .0290647
568.118 .0291744
568.910 .0292762
569.702 .0293736
570.494 .0294648
571.285 .0295538
572.075 .0296401
572.865 .0297307
573.654 .0298211
574.443 .0299066
575.232 .0299883
576.020 .0300628
576.807 .0301270
577.594 .0301829
578.381 .0302306
579.167 .0302759
579.952 .0303185
580.738 .0303639
581.522 .0304128
582.307 .0304686
583.091 .0305265
583.874 .0305842
584.657 .0306409
585.440 .0306950
586.222 .0307424
587.004 .0307850
587.785 .0308245
588.566 .0308634
589.346 .0308981
590.126 .0309304
590.906 .0309584
591.685 .0309842
592.464 .0310047
593.242 .0310210
594.020 .0310333
594.797 .0310432
595.575 .0310498
596.351 .0310542
597.128 .0310567
597.904 .0310559
598.679 .0310520
599.454 .0310446
600.229 .0310334
601.004 .0310192
601.778 .0310026
602.551 .0309861
603.325 .0309702
604.097 .0309553
604.870 .0309411
605.642 .0309284
606.414 .0309161
607.185 .0309028
607.956 .0308883
608.727 .0308724
609.497 .0308550
610.267 .0308363
611.037 .0308170
611.806 .0307980
612.575 .0307796
613.344 .0307614
614.112 .0307421
614.880 .0307214
615.647 .0306976
616.414 .0306705
617.181 .0306411
617.948 .0306096
618.714 .0305768
619.480 .0305443
620.245 .0305126
621.011 .0304825
621.775 .0304535
622.540 .0304264
623.304 .0304003
624.068 .0303763
624.832 .0303525
625.595 .0303303
626.358 .0303106
627.120 .0302935
627.883 .0302787
628.645 .0302674
629.406 .0302577
630.168 .0302491
630.929 .0302401
631.689 .0302312
632.450 .0302198
633.210 .0302070
633.970 .0301912
634.729 .0301740
635.489 .0301549
636.248 .0301348
637.006 .0301130
637.765 .0300906
638.523 .0300663
639.280 .0300397
640.038 .0300109
640.795 .0299803
641.552 .0299480
642.309 .0299164
643.065 .0298849
643.821 .0298552
644.577 .0298270
645.332 .0298019
646.088 .0297796
646.843 .0297601
647.597 .0297414
648.352 .0297226
649.106 .0297041
649.860 .0296841
650.613 .0296620
651.367 .0296391
652.120 .0296160
652.872 .0295934
653.625 .0295716
654.377 .0295521
655.129 .0295341
655.881 .0295188
656.632 .0295047
657.384 .0294902
658.135 .0294754
658.885 .0294594
659.636 .0294420
660.386 .0294242
661.136 .0294070
661.885 .0293906
662.635 .0293758
663.384 .0293646
664.133 .0293559
664.881 .0293499
665.630 .0293460
666.378 .0293440
667.126 .0293423
667.874 .0293405
668.621 .0293367
669.368 .0293310
670.115 .0293230
670.862 .0293123
671.608 .0292993
672.354 .0292845
673.100 .0292695
673.846 .0292542
674.591 .0292386
675.337 .0292235
676.082 .0292077
676.826 .0291918
677.571 .0291741
678.315 .0291551
679.059 .0291343
679.803 .0291119
680.547 .0290897
681.290 .0290676
682.033 .0290466
682.776 .0290276
683.518 .0290103
684.261 .0289935
685.003 .0289769
685.745 .0289595
686.487 .0289412
687.228 .0289219
687.969 .0289019
688.710 .0288817
689.451 .0288613
690.192 .0288416
690.932 .0288222
691.672 .0288028
692.412 .0287841
693.152 .0287643
693.891 .0287441
694.630 .0287229
695.369 .0287016
696.108 .0286807
696.846 .0286608
697.585 .0286420
698.323 .0286238
699.061 .0286057
699.798 .0285872
700.536 .0285676
701.273 .0285470
702.010 .0285254
702.746 .0285032
703.483 .0284809
704.219 .0284588
704.955 .0284377
705.691 .0284182
706.427 .0284004
707.162 .0283838
707.897 .0283685
708.632 .0283540
709.367 .0283406
710.101 .0283282
710.835 .0283159
711.569 .0283043
712.303 .0282932
713.037 .0282828
713.770 .0282726
714.503 .0282620
715.236 .0282515
715.969 .0282401
716.702 .0282280
717.434 .0282145
718.166 .0281997
718.898 .0281839
719.629 .0281673
720.361 .0281499
721.092 .0281313
721.823 .0281119
722.554 .0280918
723.284 .0280721
724.014 .0280515
724.744 .0280303
725.474 .0280080
726.204 .0279850
726.933 .0279617
727.662 .0279370
728.391 .0279124
729.120 .0278878
729.849 .0278639
730.577 .0278407
731.305 .0278176
732.033 .0277966
732.760 .0277761
733.488 .0277566
734.215 .0277375
734.942 .0277188
735.669 .0277008
736.395 .0276835
737.122 .0276672
737.848 .0276526
738.573 .0276394
739.299 .0276274
740.024 .0276166
740.750 .0276063
741.474 .0275959
742.199 .0275847
742.924 .0275724
743.648 .0275592
744.372 .0275440
745.096 .0275286
745.819 .0275127
746.543 .0274969
747.266 .0274817
747.989 .0274670
748.711 .0274535
749.434 .0274408
750.156 .0274292
750.878 .0274188
751.599 .0274099
752.321 .0274034
753.042 .0273985
753.763 .0273960
754.484 .0273956
755.205 .0273965
755.925 .0273985
756.645 .0274005
757.365 .0274015
758.085 .0274011
758.804 .0273992
759.523 .0273950
760.242 .0273880
760.961 .0273784
761.679 .0273667
762.397 .0273528
763.115 .0273373
763.833 .0273202
764.551 .0273014
765.268 .0272817
765.985 .0272608
766.702 .0272389
767.418 .0272159
768.134 .0271923
768.850 .0271683
769.566 .0271446
770.282 .0271213
770.997 .0270984
771.712 .0270774
772.427 .0270585
773.142 .0270420
773.856 .0270270
774.570 .0270139
775.284 .0270015
775.998 .0269891
776.711 .0269759
777.424 .0269614
778.137 .0269460
778.849 .0269291
779.562 .0269114
780.274 .0268933
780.986 .0268751
781.697 .0268579
782.409 .0268416
783.120 .0268269
783.831 .0268128
784.541 .0268001
785.252 .0267887
785.962 .0267788
786.671 .0267698
787.381 .0267614
788.090 .0267530
788.799 .0267446
789.508 .0267353
790.217 .0267253
790.925 .0267150
791.633 .0267049
792.341 .0266947
793.048 .0266853
793.755 .0266758
794.462 .0266664
795.169 .0266564
795.875 .0266457
796.581 .0266338
797.287 .0266205
797.993 .0266057
798.698 .0265902
799.403 .0265744
800.108 .0265589
800.812 .0265439
801.517 .0265306
802.221 .0265182
802.924 .0265065
803.628 .0264958
804.331 .0264855
805.034 .0264754
805.736 .0264657
806.439 .0264562
807.141 .0264470
807.843 .0264377
808.544 .0264278
809.245 .0264169
809.946 .0264054
810.647 .0263928
811.347 .0263789
812.047 .0263647
812.747 .0263506
813.447 .0263362
814.146 .0263220
814.845 .0263088
815.543 .0262958
816.242 .0262835
816.940 .0262714
817.638 .0262594
818.335 .0262475
819.032 .0262357
819.729 .0262239
820.426 .0262120
821.122 .0261998
821.818 .0261865
822.514 .0261721
823.209 .0261572
823.905 .0261412
824.599 .0261246
825.294 .0261079
825.988 .0260918
826.682 .0260759
827.376 .0260604
828.069 .0260453
828.762 .0260294
829.455 .0260125
830.147 .0259936
830.840 .0259734
831.531 .0259523
832.223 .0259306
832.914 .0259095
833.605 .0258900
834.296 .0258730
834.986 .0258592
835.676 .0258484
836.366 .0258403
837.055 .0258336
837.744 .0258271
838.433 .0258197
839.121 .0258113
839.809 .0258023
840.497 .0257933
841.185 .0257851
841.872 .0257786
842.559 .0257734
843.245 .0257703
843.932 .0257694
844.617 .0257697
845.303 .0257697
845.988 .0257687
846.673 .0257656
847.358 .0257605
848.042 .0257535
848.726 .0257456
849.410 .0257371
850.093 .0257286
850.776 .0257203
851.459 .0257115
852.141 .0257025
852.823 .0256934
853.505 .0256829
854.186 .0256714
854.867 .0256583
855.548 .0256443
856.228 .0256296
856.908 .0256154
857.588 .0256018
858.267 .0255887
858.946 .0255767
859.625 .0255651
860.303 .0255536
860.981 .0255431
861.659 .0255325
862.336 .0255218
863.013 .0255105
863.690 .0254991
864.366 .0254867
865.042 .0254742
865.718 .0254619
866.393 .0254499
867.068 .0254383
867.743 .0254272
868.417 .0254166
869.091 .0254065
869.765 .0253966
870.438 .0253861
871.111 .0253748
871.783 .0253633
872.456 .0253506
873.127 .0253381
873.799 .0253256
874.470 .0253145
875.141 .0253044
875.811 .0252951
876.481 .0252870
877.151 .0252797
877.820 .0252730
878.489 .0252666
879.158 .0252605
879.826 .0252547
880.494 .0252485
881.162 .0252428
881.829 .0252368
882.496 .0252308
883.163 .0252237
883.829 .0252162
884.495 .0252081
885.160 .0252004
885.825 .0251927
886.490 .0251863
887.154 .0251817
887.818 .0251789
888.482 .0251779
889.145 .0251781
889.808 .0251788
890.471 .0251797
891.133 .0251800
891.795 .0251794
892.456 .0251775
893.117 .0251752
893.778 .0251728
894.439 .0251713
895.099 .0251703
895.758 .0251699
896.417 .0251699
897.076 .0251702
897.735 .0251696
898.393 .0251677
899.051 .0251649
899.708 .0251607
900.365 .0251555
901.022 .0251493
901.678 .0251424
902.334 .0251353
902.990 .0251286
903.645 .0251225
904.300 .0251170
904.954 .0251124
905.608 .0251081
906.262 .0251042
906.915 .0251008
907.568 .0250970
908.221 .0250931
908.873 .0250889
909.525 .0250842
910.176 .0250783
910.828 .0250716
911.478 .0250639
912.129 .0250560
912.778 .0250484
913.428 .0250409
914.077 .0250336
914.726 .0250272
915.375 .0250217
916.023 .0250170
916.670 .0250129
917.318 .0250090
917.964 .0250045
918.611 .0249993
919.257 .0249928
919.903 .0249849
920.548 .0249764
921.193 .0249681
921.838 .0249598
922.482 .0249514
923.126 .0249432
923.770 .0249351
924.413 .0249272
925.056 .0249193
925.698 .0249106
926.340 .0249012
926.982 .0248911
927.623 .0248810
928.264 .0248706
928.904 .0248608
929.544 .0248519
930.184 .0248439
930.823 .0248372
931.462 .0248304
932.101 .0248233
932.739 .0248159
933.377 .0248079
934.014 .0247989
934.651 .0247888
935.288 .0247778
935.924 .0247664
936.560 .0247551
937.196 .0247432
937.831 .0247308
938.466 .0247187
939.100 .0247063
939.734 .0246928
940.368 .0246785
941.001 .0246636
941.634 .0246478
942.266 .0246322
942.899 .0246164
943.530 .0246002
944.162 .0245845
944.793 .0245690
945.423 .0245537
946.053 .0245390
946.683 .0245246
947.313 .0245103
947.942 .0244964
948.571 .0244830
949.199 .0244691
949.827 .0244551
950.455 .0244422
951.082 .0244293
951.709 .0244174
952.335 .0244058
952.961 .0243941
953.587 .0243829
954.212 .0243726
954.837 .0243629
955.462 .0243541
956.086 .0243464
956.710 .0243398
957.334 .0243340
957.957 .0243288
958.579 .0243232
959.202 .0243176
959.824 .0243115
960.445 .0243038
961.067 .0242941
961.688 .0242836
962.308 .0242722
962.928 .0242609
963.548 .0242499
964.168 .0242391
964.787 .0242281
965.406 .0242168
966.024 .0242045
966.642 .0241903
967.260 .0241743
967.877 .0241560
968.494 .0241361
969.110 .0241153
969.727 .0240937
970.342 .0240727
970.958 .0240532
971.573 .0240356
972.188 .0240194
972.802 .0240040
973.416 .0239902
974.030 .0239769
974.643 .0239640
975.256 .0239516
975.869 .0239399
976.481 .0239290
977.093 .0239192
977.705 .0239106
978.316 .0239037
978.927 .0238975
979.538 .0238927
980.148 .0238881
980.758 .0238833
981.367 .0238784
981.977 .0238735
982.586 .0238683
983.194 .0238633
983.802 .0238579
984.410 .0238526
985.018 .0238469
985.625 .0238409
986.232 .0238346
986.838 .0238276
987.445 .0238197
988.050 .0238109
988.656 .0238014
989.261 .0237920
989.866 .0237829
990.471 .0237740
991.075 .0237649
991.679 .0237557
992.282 .0237463
992.886 .0237364
993.489 .0237259
994.091 .0237149
994.694 .0237042
995.296 .0236942
995.897 .0236853
996.499 .0236771
997.100 .0236710
997.701 .0236671
998.301 .0236652
998.901 .0236646
999.501 .0236649
1000.101 .0236663
1000.700 .0236684
1001.299 .0236706
1001.898 .0236734
1002.496 .0236768
1003.094 .0236810
1003.692 .0236865
1004.289 .0236929
1004.887 .0236997
1005.484 .0237070
1006.080 .0237136
1006.677 .0237193
1007.273 .0237231
1007.868 .0237243
1008.464 .0237230
1009.059 .0237202
1009.654 .0237162
1010.249 .0237109
1010.843 .0237053
1011.437 .0237001
1012.031 .0236949
1012.625 .0236894
1013.218 .0236833
1013.811 .0236762
1014.404 .0236686
1014.997 .0236599
1015.589 .0236507
1016.181 .0236416
1016.773 .0236327
1017.365 .0236244
1017.956 .0236167
1018.547 .0236087
1019.138 .0236009
1019.728 .0235932
1020.319 .0235855
1020.909 .0235775
1021.499 .0235693
1022.088 .0235608
1022.678 .0235519
1023.267 .0235433
1023.856 .0235345
1024.445 .0235252
1025.033 .0235153
1025.621 .0235043
1026.209 .0234932
1026.797 .0234821
1027.385 .0234720
1027.972 .0234632
1028.560 .0234573
1029.147 .0234545
1029.734 .0234539
1030.320 .0234555
1030.907 .0234595
1031.493 .0234654
1032.079 .0234718
1032.665 .0234785
1033.250 .0234857
1033.836 .0234927
1034.421 .0235000
1035.006 .0235077
1035.591 .0235158
1036.176 .0235228
1036.761 .0235284
1037.345 .0235317
1037.929 .0235323
1038.514 .0235300
1039.097 .0235239
1039.681 .0235151
1040.265 .0235039
1040.848 .0234900
1041.432 .0234736
1042.015 .0234559
1042.598 .0234389
1043.181 .0234199
1043.764 .0234007
1044.346 .0233817
1044.929 .0233625
1045.511 .0233438
1046.094 .0233272
1046.676 .0233128
1047.258 .0233010
1047.840 .0232920
1048.422 .0232861
1049.003 .0232817
1049.585 .0232802
1050.166 .0232797
1050.748 .0232800
1051.329 .0232824
1051.910 .0232864
1052.491 .0232908
1053.072 .0232979
1053.653 .0233063
1054.234 .0233148
1054.815 .0233235
1055.396 .0233324
1055.976 .0233389
1056.557 .0233425
1057.138 .0233444
1057.718 .0233437
1058.298 .0233413
1058.879 .0233373
1059.459 .0233304
1060.039 .0233227
1060.620 .0233144
1061.200 .0233029
1061.780 .0232898
1062.360 .0232756
1062.940 .0232610
1063.520 .0232453
1064.101 .0232303
1064.681 .0232149
1065.261 .0232005
1065.841 .0231872
1066.421 .0231757
1067.001 .0231631
1067.581 .0231516
1068.161 .0231380
1068.741 .0231247
1069.321 .0231117
1069.901 .0230993
1070.482 .0230881
1071.062 .0230809
1071.642 .0230772
1072.222 .0230759
1072.803 .0230769
1073.383 .0230816
1073.963 .0230870
1074.544 .0230942
1075.124 .0230979
1075.705 .0230994
1076.286 .0230981
1076.866 .0230962
1077.447 .0230918
1078.028 .0230865
1078.609 .0230821
1079.190 .0230775
1079.771 .0230722
1080.352 .0230662
1080.934 .0230576
1081.515 .0230477
1082.097 .0230333
1082.679 .0230143
1083.260 .0229904
1083.842 .0229670
1084.424 .0229420
1085.007 .0229202
1085.589 .0229022
1086.172 .0228899
1086.754 .0228818
1087.337 .0228789
1087.920 .0228811
1088.503 .0228873
1089.087 .0228963
1089.670 .0229063
1090.254 .0229147
1090.838 .0229244
1091.422 .0229304
1092.006 .0229368
1092.590 .0229421
1093.175 .0229460
1093.760 .0229466
1094.345 .0229457
1094.930 .0229412
1095.516 .0229373
1096.102 .0229316
1096.688 .0229268
1097.274 .0229225
1097.860 .0229198
1098.447 .0229151
1099.034 .0229137
1099.622 .0229145
1100.209 .0229201
1100.797 .0229306
1101.385 .0229464
1101.973 .0229666
1102.562 .0229923
1103.151 .0230215
1103.740 .0230509
1104.330 .0230818
1104.920 .0231127
1105.510 .0231383
1106.101 .0231660
1106.691 .0231911
1107.283 .0232138
1107.874 .0232338
1108.466 .0232502
1109.058 .0232595
1109.651 .0232609
1110.244 .0232539
1110.837 .0232377
1111.431 .0232182
1112.025 .0231925
1112.620 .0231624
1113.215 .0231339
1113.810 .0231077
1114.406 .0230825
1115.002 .0230587
1115.599 .0230403
1116.196 .0230225
1116.793 .0230076
1117.391 .0229959
1117.989 .0229882
1118.588 .0229934
1119.187 .0230063
1119.787 .0230293
1120.387 .0230587
1120.988 .0230913
1121.589 .0231191
1122.190 .0231454
1122.793 .0231691
1123.395 .0231876
1123.998 .0232059
1124.602 .0232257
1125.206 .0232478
1125.811 .0232720
1126.416 .0232948
1127.022 .0233178
1127.628 .0233340
1128.235 .0233425
1128.843 .0233373
1129.451 .0233293
1130.059 .0233191
1130.669 .0233153
1131.278 .0233206
1131.889 .0233407
1132.500 .0233751
1133.112 .0234212
1133.724 .0234739
1134.337 .0235326
1134.950 .0235951
1135.564 .0236599
1136.179 .0237260
1136.795 .0237981
1137.411 .0238708
1138.028 .0239505
1138.645 .0240364
1139.263 .0241292
1139.882 .0242211
1140.502 .0243066
1141.122 .0243961
1141.743 .0244754
1142.365 .0245220
1142.987 .0245935
1143.611 .0245726
1144.235 .0249622
1144.859 .0248399
1145.485 .0240664
