Measurement Sequence started on: 10-20-44-796
Integration time: 35
Scans to Average: 2 
>>>>>Begin Spectral Data<<<<<
432.953 .0124746
433.882 .0312795
434.810 .0298403
435.737 .0310775
436.662 .0309981
437.586 .0300990
438.509 .0307041
439.431 .0306319
440.351 .0305976
441.269 .0305467
442.187 .0305314
443.103 .0305489
444.018 .0306271
444.932 .0307406
445.844 .0308989
446.756 .0310695
447.666 .0312748
448.575 .0314867
449.482 .0317014
450.388 .0319121
451.294 .0321156
452.198 .0323099
453.100 .0324953
454.002 .0326756
454.902 .0328488
455.801 .0330097
456.699 .0331565
457.596 .0332848
458.492 .0333905
459.387 .0334700
460.280 .0335199
461.172 .0335466
462.064 .0335615
462.954 .0335647
463.843 .0335635
464.730 .0335593
465.617 .0335539
466.503 .0335464
467.387 .0335318
468.271 .0335105
469.153 .0334806
470.035 .0334446
470.915 .0334044
471.794 .0333631
472.673 .0333236
473.550 .0332880
474.426 .0332603
475.301 .0332381
476.175 .0332179
477.048 .0331982
477.920 .0331776
478.791 .0331556
479.661 .0331317
480.530 .0331079
481.398 .0330844
482.266 .0330668
483.132 .0330544
483.997 .0330458
484.861 .0330472
485.724 .0330565
486.587 .0330681
487.448 .0330821
488.308 .0330949
489.168 .0331033
490.026 .0331071
490.884 .0331078
491.741 .0331009
492.597 .0330901
493.452 .0330763
494.306 .0330569
495.159 .0330364
496.011 .0330153
496.862 .0329903
497.713 .0329600
498.562 .0329272
499.411 .0328859
500.259 .0328372
501.106 .0327865
501.952 .0327306
502.798 .0326712
503.642 .0326095
504.486 .0325444
505.329 .0324758
506.171 .0324068
507.012 .0323370
507.852 .0322639
508.692 .0321932
509.531 .0321187
510.369 .0320381
511.206 .0319526
512.043 .0318615
512.878 .0317587
513.713 .0316426
514.547 .0315123
515.381 .0313664
516.213 .0312116
517.045 .0310523
517.876 .0308886
518.706 .0307260
519.536 .0305641
520.365 .0304002
521.193 .0302314
522.020 .0300609
522.847 .0298860
523.673 .0297129
524.498 .0295387
525.323 .0293604
526.146 .0291899
526.969 .0290326
527.792 .0288905
528.614 .0287609
529.435 .0286424
530.255 .0285238
531.075 .0283994
531.894 .0282702
532.712 .0281275
533.530 .0279814
534.347 .0278346
535.163 .0276873
535.979 .0275531
536.794 .0274367
537.608 .0273376
538.422 .0272608
539.235 .0272055
540.048 .0271569
540.860 .0271113
541.671 .0270669
542.481 .0270253
543.292 .0269886
544.101 .0269575
544.910 .0269328
545.718 .0269132
546.526 .0268996
547.333 .0268855
548.139 .0268740
548.945 .0268679
549.750 .0268577
550.555 .0268488
551.359 .0268450
552.162 .0268456
552.965 .0268600
553.768 .0268853
554.569 .0269269
555.371 .0269813
556.171 .0270470
556.972 .0271206
557.771 .0272006
558.570 .0272869
559.369 .0273779
560.167 .0274710
560.964 .0275696
561.761 .0276711
562.558 .0277822
563.354 .0279013
564.149 .0280252
564.944 .0281502
565.738 .0282787
566.532 .0284025
567.325 .0285223
568.118 .0286318
568.910 .0287310
569.702 .0288229
570.494 .0289077
571.285 .0289860
572.075 .0290604
572.865 .0291328
573.654 .0292039
574.443 .0292715
575.232 .0293397
576.020 .0294057
576.807 .0294704
577.594 .0295340
578.381 .0295970
579.167 .0296581
579.952 .0297205
580.738 .0297825
581.522 .0298456
582.307 .0299100
583.091 .0299753
583.874 .0300394
584.657 .0301006
585.440 .0301580
586.222 .0302097
587.004 .0302540
587.785 .0302921
588.566 .0303226
589.346 .0303465
590.126 .0303636
590.906 .0303749
591.685 .0303812
592.464 .0303840
593.242 .0303825
594.020 .0303788
594.797 .0303732
595.575 .0303669
596.351 .0303592
597.128 .0303523
597.904 .0303469
598.679 .0303425
599.454 .0303379
600.229 .0303348
601.004 .0303316
601.778 .0303287
602.551 .0303255
603.325 .0303224
604.097 .0303186
604.870 .0303146
605.642 .0303100
606.414 .0303051
607.185 .0302987
607.956 .0302908
608.727 .0302804
609.497 .0302687
610.267 .0302551
611.037 .0302398
611.806 .0302236
612.575 .0302078
613.344 .0301913
614.112 .0301740
614.880 .0301561
615.647 .0301373
616.414 .0301175
617.181 .0300969
617.948 .0300755
618.714 .0300533
619.480 .0300316
620.245 .0300110
621.011 .0299912
621.775 .0299728
622.540 .0299546
623.304 .0299364
624.068 .0299183
624.832 .0298999
625.595 .0298810
626.358 .0298626
627.120 .0298452
627.883 .0298275
628.645 .0298105
629.406 .0297943
630.168 .0297786
630.929 .0297636
631.689 .0297486
632.450 .0297330
633.210 .0297168
633.970 .0297000
634.729 .0296825
635.489 .0296645
636.248 .0296462
637.006 .0296267
637.765 .0296063
638.523 .0295852
639.280 .0295633
640.038 .0295416
640.795 .0295213
641.552 .0295019
642.309 .0294836
643.065 .0294664
643.821 .0294499
644.577 .0294330
645.332 .0294164
646.088 .0293993
646.843 .0293818
647.597 .0293641
648.352 .0293463
649.106 .0293287
649.860 .0293118
650.613 .0292953
651.367 .0292784
652.120 .0292616
652.872 .0292448
653.625 .0292268
654.377 .0292087
655.129 .0291905
655.881 .0291726
656.632 .0291549
657.384 .0291382
658.135 .0291215
658.885 .0291051
659.636 .0290891
660.386 .0290731
661.136 .0290571
661.885 .0290421
662.635 .0290278
663.384 .0290143
664.133 .0290019
664.881 .0289901
665.630 .0289774
666.378 .0289650
667.126 .0289514
667.874 .0289359
668.621 .0289187
669.368 .0288999
670.115 .0288799
670.862 .0288602
671.608 .0288417
672.354 .0288247
673.100 .0288094
673.846 .0287963
674.591 .0287835
675.337 .0287710
676.082 .0287582
676.826 .0287448
677.571 .0287307
678.315 .0287160
679.059 .0287009
679.803 .0286863
680.547 .0286728
681.290 .0286604
682.033 .0286489
682.776 .0286383
683.518 .0286270
684.261 .0286146
685.003 .0286010
685.745 .0285858
686.487 .0285693
687.228 .0285520
687.969 .0285338
688.710 .0285150
689.451 .0284962
690.192 .0284769
690.932 .0284573
691.672 .0284377
692.412 .0284182
693.152 .0283987
693.891 .0283802
694.630 .0283628
695.369 .0283462
696.108 .0283308
696.846 .0283163
697.585 .0283015
698.323 .0282863
699.061 .0282701
699.798 .0282529
700.536 .0282354
701.273 .0282176
702.010 .0281998
702.746 .0281824
703.483 .0281659
704.219 .0281500
704.955 .0281342
705.691 .0281186
706.427 .0281027
707.162 .0280864
707.897 .0280697
708.632 .0280527
709.367 .0280354
710.101 .0280183
710.835 .0280017
711.569 .0279853
712.303 .0279693
713.037 .0279539
713.770 .0279393
714.503 .0279253
715.236 .0279118
715.969 .0278984
716.702 .0278848
717.434 .0278713
718.166 .0278573
718.898 .0278423
719.629 .0278265
720.361 .0278100
721.092 .0277926
721.823 .0277747
722.554 .0277560
723.284 .0277365
724.014 .0277165
724.744 .0276955
725.474 .0276736
726.204 .0276514
726.933 .0276296
727.662 .0276084
728.391 .0275881
729.120 .0275688
729.849 .0275506
730.577 .0275333
731.305 .0275168
732.033 .0275008
732.760 .0274847
733.488 .0274691
734.215 .0274534
734.942 .0274381
735.669 .0274232
736.395 .0274085
737.122 .0273942
737.848 .0273795
738.573 .0273645
739.299 .0273482
740.024 .0273312
740.750 .0273141
741.474 .0272966
742.199 .0272793
742.924 .0272623
743.648 .0272453
744.372 .0272286
745.096 .0272123
745.819 .0271958
746.543 .0271795
747.266 .0271637
747.989 .0271487
748.711 .0271354
749.434 .0271241
750.156 .0271155
750.878 .0271092
751.599 .0271055
752.321 .0271032
753.042 .0271014
753.763 .0271002
754.484 .0270982
755.205 .0270957
755.925 .0270924
756.645 .0270878
757.365 .0270827
758.085 .0270773
758.804 .0270712
759.523 .0270642
760.242 .0270561
760.961 .0270462
761.679 .0270345
762.397 .0270211
763.115 .0270053
763.833 .0269873
764.551 .0269680
765.268 .0269476
765.985 .0269262
766.702 .0269046
767.418 .0268827
768.134 .0268613
768.850 .0268405
769.566 .0268200
770.282 .0268001
770.997 .0267815
771.712 .0267643
772.427 .0267484
773.142 .0267341
773.856 .0267212
774.570 .0267092
775.284 .0266983
775.998 .0266875
776.711 .0266770
777.424 .0266662
778.137 .0266551
778.849 .0266435
779.562 .0266315
780.274 .0266194
780.986 .0266073
781.697 .0265957
782.409 .0265845
783.120 .0265738
783.831 .0265637
784.541 .0265544
785.252 .0265455
785.962 .0265369
786.671 .0265282
787.381 .0265190
788.090 .0265095
788.799 .0264990
789.508 .0264874
790.217 .0264751
790.925 .0264620
791.633 .0264479
792.341 .0264326
793.048 .0264170
793.755 .0264004
794.462 .0263834
795.169 .0263661
795.875 .0263483
796.581 .0263303
797.287 .0263129
797.993 .0262958
798.698 .0262794
799.403 .0262643
800.108 .0262505
800.812 .0262381
801.517 .0262272
802.221 .0262173
802.924 .0262086
803.628 .0262012
804.331 .0261945
805.034 .0261879
805.736 .0261816
806.439 .0261753
807.141 .0261682
807.843 .0261609
808.544 .0261528
809.245 .0261437
809.946 .0261332
810.647 .0261215
811.347 .0261088
812.047 .0260951
812.747 .0260805
813.447 .0260653
814.146 .0260500
814.845 .0260348
815.543 .0260196
816.242 .0260051
816.940 .0259912
817.638 .0259780
818.335 .0259651
819.032 .0259523
819.729 .0259399
820.426 .0259278
821.122 .0259156
821.818 .0259035
822.514 .0258916
823.209 .0258795
823.905 .0258674
824.599 .0258552
825.294 .0258428
825.988 .0258298
826.682 .0258162
827.376 .0258017
828.069 .0257862
828.762 .0257701
829.455 .0257529
830.147 .0257349
830.840 .0257165
831.531 .0256973
832.223 .0256778
832.914 .0256582
833.605 .0256393
834.296 .0256209
834.986 .0256034
835.676 .0255871
836.366 .0255721
837.055 .0255587
837.744 .0255466
838.433 .0255358
839.121 .0255265
839.809 .0255185
840.497 .0255116
841.185 .0255054
841.872 .0255003
842.559 .0254959
843.245 .0254918
843.932 .0254879
844.617 .0254840
845.303 .0254801
845.988 .0254760
846.673 .0254716
847.358 .0254665
848.042 .0254609
848.726 .0254543
849.410 .0254468
850.093 .0254377
850.776 .0254273
851.459 .0254152
852.141 .0254014
852.823 .0253867
853.505 .0253709
854.186 .0253546
854.867 .0253386
855.548 .0253233
856.228 .0253088
856.908 .0252953
857.588 .0252832
858.267 .0252722
858.946 .0252623
859.625 .0252532
860.303 .0252449
860.981 .0252377
861.659 .0252314
862.336 .0252261
863.013 .0252219
863.690 .0252191
864.366 .0252168
865.042 .0252150
865.718 .0252131
866.393 .0252107
867.068 .0252074
867.743 .0252025
868.417 .0251958
869.091 .0251876
869.765 .0251780
870.438 .0251671
871.111 .0251557
871.783 .0251441
872.456 .0251321
873.127 .0251202
873.799 .0251083
874.470 .0250961
875.141 .0250836
875.811 .0250712
876.481 .0250588
877.151 .0250470
877.820 .0250361
878.489 .0250261
879.158 .0250176
879.826 .0250102
880.494 .0250039
881.162 .0249981
881.829 .0249927
882.496 .0249871
883.163 .0249808
883.829 .0249740
884.495 .0249670
885.160 .0249601
885.825 .0249539
886.490 .0249482
887.154 .0249436
887.818 .0249397
888.482 .0249360
889.145 .0249321
889.808 .0249277
890.471 .0249223
891.133 .0249159
891.795 .0249085
892.456 .0249010
893.117 .0248936
893.778 .0248870
894.439 .0248813
895.099 .0248763
895.758 .0248718
896.417 .0248679
897.076 .0248636
897.735 .0248597
898.393 .0248555
899.051 .0248513
899.708 .0248477
900.365 .0248453
901.022 .0248440
901.678 .0248441
902.334 .0248453
902.990 .0248477
903.645 .0248500
904.300 .0248524
904.954 .0248535
905.608 .0248538
906.262 .0248534
906.915 .0248524
907.568 .0248506
908.221 .0248492
908.873 .0248479
909.525 .0248470
910.176 .0248458
910.828 .0248440
911.478 .0248407
912.129 .0248359
912.778 .0248293
913.428 .0248212
914.077 .0248116
914.726 .0248017
915.375 .0247917
916.023 .0247825
916.670 .0247737
917.318 .0247654
917.964 .0247568
918.611 .0247477
919.257 .0247372
919.903 .0247250
920.548 .0247110
921.193 .0246963
921.838 .0246810
922.482 .0246662
923.126 .0246520
923.770 .0246386
924.413 .0246261
925.056 .0246142
925.698 .0246022
926.340 .0245905
926.982 .0245786
927.623 .0245669
928.264 .0245558
928.904 .0245462
929.544 .0245375
930.184 .0245303
930.823 .0245240
931.462 .0245182
932.101 .0245122
932.739 .0245057
933.377 .0244974
934.014 .0244884
934.651 .0244789
935.288 .0244685
935.924 .0244582
936.560 .0244484
937.196 .0244386
937.831 .0244290
938.466 .0244192
939.100 .0244087
939.734 .0243969
940.368 .0243851
941.001 .0243727
941.634 .0243601
942.266 .0243487
942.899 .0243378
943.530 .0243278
944.162 .0243194
944.793 .0243114
945.423 .0243032
946.053 .0242948
946.683 .0242856
947.313 .0242743
947.942 .0242612
948.571 .0242460
949.199 .0242287
949.827 .0242102
950.455 .0241909
951.082 .0241709
951.709 .0241516
952.335 .0241335
952.961 .0241161
953.587 .0241000
954.212 .0240848
954.837 .0240699
955.462 .0240550
956.086 .0240405
956.710 .0240262
957.334 .0240120
957.957 .0239984
958.579 .0239856
959.202 .0239739
959.824 .0239636
960.445 .0239541
961.067 .0239452
961.688 .0239368
962.308 .0239278
962.928 .0239175
963.548 .0239060
964.168 .0238935
964.787 .0238798
965.406 .0238658
966.024 .0238516
966.642 .0238372
967.260 .0238234
967.877 .0238108
968.494 .0237990
969.110 .0237880
969.727 .0237775
970.342 .0237677
970.958 .0237584
971.573 .0237498
972.188 .0237410
972.802 .0237322
973.416 .0237238
974.030 .0237148
974.643 .0237053
975.256 .0236961
975.869 .0236873
976.481 .0236789
977.093 .0236716
977.705 .0236651
978.316 .0236587
978.927 .0236528
979.538 .0236470
980.148 .0236405
980.758 .0236336
981.367 .0236262
981.977 .0236186
982.586 .0236117
983.194 .0236053
983.802 .0235994
984.410 .0235941
985.018 .0235892
985.625 .0235839
986.232 .0235779
986.838 .0235714
987.445 .0235641
988.050 .0235562
988.656 .0235485
989.261 .0235411
989.866 .0235340
990.471 .0235277
991.075 .0235219
991.679 .0235165
992.282 .0235113
992.886 .0235060
993.489 .0235015
994.091 .0234983
994.694 .0234970
995.296 .0234966
995.897 .0234979
996.499 .0235001
997.100 .0235021
997.701 .0235042
998.301 .0235057
998.901 .0235062
999.501 .0235066
1000.101 .0235067
1000.700 .0235072
1001.299 .0235085
1001.898 .0235106
1002.496 .0235128
1003.094 .0235148
1003.692 .0235154
1004.289 .0235137
1004.887 .0235103
1005.484 .0235050
1006.080 .0234983
1006.677 .0234907
1007.273 .0234829
1007.868 .0234748
1008.464 .0234673
1009.059 .0234596
1009.654 .0234515
1010.249 .0234431
1010.843 .0234334
1011.437 .0234225
1012.031 .0234104
1012.625 .0233974
1013.218 .0233843
1013.811 .0233716
1014.404 .0233598
1014.997 .0233482
1015.589 .0233381
1016.181 .0233288
1016.773 .0233204
1017.365 .0233138
1017.956 .0233076
1018.547 .0233027
1019.138 .0232991
1019.728 .0232970
1020.319 .0232973
1020.909 .0233003
1021.499 .0233055
1022.088 .0233122
1022.678 .0233205
1023.267 .0233293
1023.856 .0233384
1024.445 .0233474
1025.033 .0233559
1025.621 .0233636
1026.209 .0233704
1026.797 .0233758
1027.385 .0233801
1027.972 .0233843
1028.560 .0233878
1029.147 .0233909
1029.734 .0233937
1030.320 .0233956
1030.907 .0233969
1031.493 .0233977
1032.079 .0233979
1032.665 .0233978
1033.250 .0233977
1033.836 .0233977
1034.421 .0233984
1035.006 .0234012
1035.591 .0234053
1036.176 .0234113
1036.761 .0234184
1037.345 .0234251
1037.929 .0234304
1038.514 .0234330
1039.097 .0234330
1039.681 .0234299
1040.265 .0234246
1040.848 .0234171
1041.432 .0234080
1042.015 .0233990
1042.598 .0233901
1043.181 .0233815
1043.764 .0233730
1044.346 .0233632
1044.929 .0233517
1045.511 .0233385
1046.094 .0233235
1046.676 .0233081
1047.258 .0232936
1047.840 .0232805
1048.422 .0232704
1049.003 .0232627
1049.585 .0232577
1050.166 .0232541
1050.748 .0232515
1051.329 .0232484
1051.910 .0232441
1052.491 .0232388
1053.072 .0232317
1053.653 .0232237
1054.234 .0232173
1054.815 .0232117
1055.396 .0232080
1055.976 .0232052
1056.557 .0232030
1057.138 .0232015
1057.718 .0232003
1058.298 .0231982
1058.879 .0231967
1059.459 .0231960
1060.039 .0231963
1060.620 .0231970
1061.200 .0231991
1061.780 .0232018
1062.360 .0232036
1062.940 .0232054
1063.520 .0232058
1064.101 .0232043
1064.681 .0232021
1065.261 .0231988
1065.841 .0231960
1066.421 .0231937
1067.001 .0231908
1067.581 .0231875
1068.161 .0231839
1068.741 .0231795
1069.321 .0231723
1069.901 .0231642
1070.482 .0231555
1071.062 .0231469
1071.642 .0231391
1072.222 .0231332
1072.803 .0231288
1073.383 .0231265
1073.963 .0231249
1074.544 .0231233
1075.124 .0231214
1075.705 .0231196
1076.286 .0231166
1076.866 .0231153
1077.447 .0231145
1078.028 .0231144
1078.609 .0231145
1079.190 .0231151
1079.771 .0231146
1080.352 .0231123
1080.934 .0231068
1081.515 .0230989
1082.097 .0230888
1082.679 .0230793
1083.260 .0230693
1083.842 .0230610
1084.424 .0230553
1085.007 .0230510
1085.589 .0230463
1086.172 .0230408
1086.754 .0230327
1087.337 .0230234
1087.920 .0230130
1088.503 .0230024
1089.087 .0229920
1089.670 .0229832
1090.254 .0229773
1090.838 .0229727
1091.422 .0229691
1092.006 .0229653
1092.590 .0229598
1093.175 .0229538
1093.760 .0229460
1094.345 .0229369
1094.930 .0229284
1095.516 .0229212
1096.102 .0229169
1096.688 .0229123
1097.274 .0229078
1097.860 .0229012
1098.447 .0228926
1099.034 .0228813
1099.622 .0228694
1100.209 .0228571
1100.797 .0228474
1101.385 .0228402
1101.973 .0228373
1102.562 .0228363
1103.151 .0228384
1103.740 .0228406
1104.330 .0228428
1104.920 .0228429
1105.510 .0228429
1106.101 .0228412
1106.691 .0228415
1107.283 .0228423
1107.874 .0228458
1108.466 .0228495
1109.058 .0228558
1109.651 .0228612
1110.244 .0228673
1110.837 .0228727
1111.431 .0228789
1112.025 .0228860
1112.620 .0228959
1113.215 .0229076
1113.810 .0229233
1114.406 .0229402
1115.002 .0229580
1115.599 .0229726
1116.196 .0229831
1116.793 .0229880
1117.391 .0229897
1117.989 .0229856
1118.588 .0229807
1119.187 .0229741
1119.787 .0229674
1120.387 .0229614
1120.988 .0229563
1121.589 .0229509
1122.190 .0229458
1122.793 .0229420
1123.395 .0229390
1123.998 .0229372
1124.602 .0229399
1125.206 .0229464
1125.811 .0229586
1126.416 .0229746
1127.022 .0229928
1127.628 .0230112
1128.235 .0230330
1128.843 .0230532
1129.451 .0230762
1130.059 .0231013
1130.669 .0231288
1131.278 .0231590
1131.889 .0231877
1132.500 .0232186
1133.112 .0232467
1133.724 .0232739
1134.337 .0232987
1134.950 .0233176
1135.564 .0233350
1136.179 .0233513
1136.795 .0233724
1137.411 .0234007
1138.028 .0234393
1138.645 .0234922
1139.263 .0235538
1139.882 .0236247
1140.502 .0237043
1141.122 .0237831
1141.743 .0238749
1142.365 .0239701
1142.987 .0239794
1143.611 .0241734
1144.235 .0240556
1144.859 .0245331
1145.485 .0245747
