Measurement Sequence started on: 10-20-44-796
Integration time: 35
Scans to Average: 2 
>>>>>Begin Spectral Data<<<<<
432.953 .0392902
433.882 .0367719
434.810 .0351178
435.737 .0346969
436.662 .0338965
437.586 .0338011
438.509 .0332499
439.431 .0328602
440.351 .0325853
441.269 .0323838
442.187 .0322497
443.103 .0321749
444.018 .0321399
444.932 .0321369
445.844 .0321514
446.756 .0321763
447.666 .0322189
448.575 .0322665
449.482 .0323231
450.388 .0323900
451.294 .0324591
452.198 .0325365
453.100 .0325983
454.002 .0326624
454.902 .0327151
455.801 .0327573
456.699 .0327899
457.596 .0328169
458.492 .0328376
459.387 .0328543
460.280 .0328629
461.172 .0328668
462.064 .0328627
462.954 .0328502
463.843 .0328279
464.730 .0327976
465.617 .0327597
466.503 .0327203
467.387 .0326706
468.271 .0326219
469.153 .0325708
470.035 .0325213
470.915 .0324747
471.794 .0324307
472.673 .0323915
473.550 .0323531
474.426 .0323181
475.301 .0322877
476.175 .0322609
477.048 .0322376
477.920 .0322152
478.791 .0321946
479.661 .0321745
480.530 .0321551
481.398 .0321350
482.266 .0321199
483.132 .0321103
483.997 .0321063
484.861 .0321083
485.724 .0321161
486.587 .0321297
487.448 .0321422
488.308 .0321509
489.168 .0321570
490.026 .0321573
490.884 .0321497
491.741 .0321364
492.597 .0321183
493.452 .0320974
494.306 .0320771
495.159 .0320544
496.011 .0320283
496.862 .0319980
497.713 .0319591
498.562 .0319052
499.411 .0318384
500.259 .0317590
501.106 .0316657
501.952 .0315653
502.798 .0314626
503.642 .0313531
504.486 .0312442
505.329 .0311366
506.171 .0310265
507.012 .0309143
507.852 .0307954
508.692 .0306676
509.531 .0305337
510.369 .0303956
511.206 .0302545
512.043 .0301120
512.878 .0299736
513.713 .0298347
514.547 .0296930
515.381 .0295484
516.213 .0293946
517.045 .0292313
517.876 .0290567
518.706 .0288664
519.536 .0286638
520.365 .0284537
521.193 .0282455
522.020 .0280443
522.847 .0278477
523.673 .0276564
524.498 .0274660
525.323 .0272721
526.146 .0270747
526.969 .0268739
527.792 .0266686
528.614 .0264661
529.435 .0262748
530.255 .0260999
531.075 .0259506
531.894 .0258305
532.712 .0257404
533.530 .0256718
534.347 .0256200
535.163 .0255734
535.979 .0255351
536.794 .0255126
537.608 .0255035
538.422 .0255124
539.235 .0255428
540.048 .0255901
540.860 .0256552
541.671 .0257302
542.481 .0258122
543.292 .0258916
544.101 .0259675
544.910 .0260301
545.718 .0260841
546.526 .0261328
547.333 .0261825
548.139 .0262362
548.945 .0262976
549.750 .0263592
550.555 .0264176
551.359 .0264701
552.162 .0265173
552.965 .0265535
553.768 .0265853
554.569 .0266117
555.371 .0266389
556.171 .0266675
556.972 .0267008
557.771 .0267416
558.570 .0267934
559.369 .0268518
560.167 .0269169
560.964 .0269860
561.761 .0270601
562.558 .0271369
563.354 .0272168
564.149 .0272976
564.944 .0273816
565.738 .0274647
566.532 .0275450
567.325 .0276208
568.118 .0276926
568.910 .0277618
569.702 .0278299
570.494 .0279019
571.285 .0279739
572.075 .0280480
572.865 .0281243
573.654 .0282005
574.443 .0282772
575.232 .0283521
576.020 .0284231
576.807 .0284917
577.594 .0285573
578.381 .0286219
579.167 .0286874
579.952 .0287579
580.738 .0288336
581.522 .0289121
582.307 .0289908
583.091 .0290677
583.874 .0291382
584.657 .0292020
585.440 .0292561
586.222 .0293018
587.004 .0293409
587.785 .0293749
588.566 .0294062
589.346 .0294363
590.126 .0294661
590.906 .0294953
591.685 .0295230
592.464 .0295484
593.242 .0295701
594.020 .0295877
594.797 .0296009
595.575 .0296109
596.351 .0296179
597.128 .0296230
597.904 .0296258
598.679 .0296278
599.454 .0296283
600.229 .0296274
601.004 .0296249
601.778 .0296209
602.551 .0296155
603.325 .0296083
604.097 .0295998
604.870 .0295900
605.642 .0295791
606.414 .0295679
607.185 .0295555
607.956 .0295432
608.727 .0295306
609.497 .0295184
610.267 .0295062
611.037 .0294947
611.806 .0294833
612.575 .0294726
613.344 .0294619
614.112 .0294509
614.880 .0294388
615.647 .0294257
616.414 .0294108
617.181 .0293949
617.948 .0293778
618.714 .0293600
619.480 .0293414
620.245 .0293227
621.011 .0293035
621.775 .0292840
622.540 .0292639
623.304 .0292439
624.068 .0292236
624.832 .0292037
625.595 .0291838
626.358 .0291645
627.120 .0291462
627.883 .0291285
628.645 .0291116
629.406 .0290950
630.168 .0290787
630.929 .0290626
631.689 .0290465
632.450 .0290307
633.210 .0290151
633.970 .0289993
634.729 .0289835
635.489 .0289672
636.248 .0289503
637.006 .0289331
637.765 .0289149
638.523 .0288959
639.280 .0288762
640.038 .0288550
640.795 .0288332
641.552 .0288104
642.309 .0287878
643.065 .0287650
643.821 .0287426
644.577 .0287214
645.332 .0287014
646.088 .0286833
646.843 .0286670
647.597 .0286524
648.352 .0286395
649.106 .0286275
649.860 .0286163
650.613 .0286057
651.367 .0285955
652.120 .0285855
652.872 .0285760
653.625 .0285669
654.377 .0285588
655.129 .0285515
655.881 .0285457
656.632 .0285408
657.384 .0285367
658.135 .0285324
658.885 .0285276
659.636 .0285218
660.386 .0285146
661.136 .0285057
661.885 .0284954
662.635 .0284840
663.384 .0284721
664.133 .0284597
664.881 .0284474
665.630 .0284352
666.378 .0284239
667.126 .0284123
667.874 .0284003
668.621 .0283874
669.368 .0283738
670.115 .0283595
670.862 .0283455
671.608 .0283321
672.354 .0283199
673.100 .0283094
673.846 .0283011
674.591 .0282948
675.337 .0282904
676.082 .0282873
676.826 .0282849
677.571 .0282823
678.315 .0282791
679.059 .0282750
679.803 .0282708
680.547 .0282669
681.290 .0282630
682.033 .0282589
682.776 .0282543
683.518 .0282488
684.261 .0282422
685.003 .0282344
685.745 .0282246
686.487 .0282128
687.228 .0281985
687.969 .0281820
688.710 .0281636
689.451 .0281439
690.192 .0281235
690.932 .0281030
691.672 .0280823
692.412 .0280618
693.152 .0280410
693.891 .0280204
694.630 .0280000
695.369 .0279796
696.108 .0279590
696.846 .0279381
697.585 .0279168
698.323 .0278960
699.061 .0278757
699.798 .0278567
700.536 .0278386
701.273 .0278213
702.010 .0278048
702.746 .0277886
703.483 .0277728
704.219 .0277569
704.955 .0277403
705.691 .0277231
706.427 .0277047
707.162 .0276851
707.897 .0276642
708.632 .0276426
709.367 .0276208
710.101 .0275988
710.835 .0275767
711.569 .0275549
712.303 .0275337
713.037 .0275134
713.770 .0274939
714.503 .0274750
715.236 .0274568
715.969 .0274392
716.702 .0274216
717.434 .0274045
718.166 .0273878
718.898 .0273711
719.629 .0273550
720.361 .0273390
721.092 .0273229
721.823 .0273061
722.554 .0272886
723.284 .0272704
724.014 .0272508
724.744 .0272297
725.474 .0272070
726.204 .0271835
726.933 .0271593
727.662 .0271349
728.391 .0271104
729.120 .0270867
729.849 .0270636
730.577 .0270411
731.305 .0270194
732.033 .0269979
732.760 .0269768
733.488 .0269557
734.215 .0269351
734.942 .0269148
735.669 .0268943
736.395 .0268746
737.122 .0268552
737.848 .0268363
738.573 .0268179
739.299 .0268000
740.024 .0267828
740.750 .0267657
741.474 .0267486
742.199 .0267319
742.924 .0267158
743.648 .0267003
744.372 .0266857
745.096 .0266721
745.819 .0266598
746.543 .0266485
747.266 .0266383
747.989 .0266301
748.711 .0266233
749.434 .0266176
750.156 .0266131
750.878 .0266093
751.599 .0266068
752.321 .0266048
753.042 .0266037
753.763 .0266035
754.484 .0266044
755.205 .0266055
755.925 .0266071
756.645 .0266093
757.365 .0266119
758.085 .0266141
758.804 .0266159
759.523 .0266160
760.242 .0266143
760.961 .0266105
761.679 .0266049
762.397 .0265968
763.115 .0265871
763.833 .0265750
764.551 .0265613
765.268 .0265454
765.985 .0265278
766.702 .0265081
767.418 .0264873
768.134 .0264650
768.850 .0264415
769.566 .0264172
770.282 .0263936
770.997 .0263709
771.712 .0263498
772.427 .0263307
773.142 .0263140
773.856 .0262988
774.570 .0262854
775.284 .0262731
775.998 .0262615
776.711 .0262503
777.424 .0262394
778.137 .0262285
778.849 .0262177
779.562 .0262073
780.274 .0261977
780.986 .0261887
781.697 .0261805
782.409 .0261721
783.120 .0261635
783.831 .0261543
784.541 .0261441
785.252 .0261324
785.962 .0261206
786.671 .0261078
787.381 .0260944
788.090 .0260808
788.799 .0260675
789.508 .0260546
790.217 .0260419
790.925 .0260292
791.633 .0260162
792.341 .0260030
793.048 .0259894
793.755 .0259751
794.462 .0259608
795.169 .0259467
795.875 .0259335
796.581 .0259210
797.287 .0259096
797.993 .0258984
798.698 .0258883
799.403 .0258782
800.108 .0258678
800.812 .0258564
801.517 .0258438
802.221 .0258306
802.924 .0258172
803.628 .0258036
804.331 .0257906
805.034 .0257787
805.736 .0257676
806.439 .0257564
807.141 .0257451
807.843 .0257331
808.544 .0257200
809.245 .0257056
809.946 .0256901
810.647 .0256738
811.347 .0256573
812.047 .0256412
812.747 .0256262
813.447 .0256127
814.146 .0255998
814.845 .0255875
815.543 .0255758
816.242 .0255638
816.940 .0255513
817.638 .0255381
818.335 .0255243
819.032 .0255101
819.729 .0254952
820.426 .0254799
821.122 .0254643
821.818 .0254483
822.514 .0254319
823.209 .0254151
823.905 .0253983
824.599 .0253812
825.294 .0253638
825.988 .0253463
826.682 .0253283
827.376 .0253096
828.069 .0252901
828.762 .0252698
829.455 .0252490
830.147 .0252276
830.840 .0252063
831.531 .0251856
832.223 .0251657
832.914 .0251466
833.605 .0251283
834.296 .0251103
834.986 .0250924
835.676 .0250740
836.366 .0250553
837.055 .0250361
837.744 .0250164
838.433 .0249963
839.121 .0249760
839.809 .0249555
840.497 .0249355
841.185 .0249157
841.872 .0248968
842.559 .0248789
843.245 .0248621
843.932 .0248460
844.617 .0248311
845.303 .0248168
845.988 .0248030
846.673 .0247897
847.358 .0247768
848.042 .0247643
848.726 .0247525
849.410 .0247418
850.093 .0247319
850.776 .0247235
851.459 .0247163
852.141 .0247091
852.823 .0247018
853.505 .0246936
854.186 .0246837
854.867 .0246723
855.548 .0246596
856.228 .0246457
856.908 .0246314
857.588 .0246175
858.267 .0246038
858.946 .0245908
859.625 .0245780
860.303 .0245656
860.981 .0245529
861.659 .0245407
862.336 .0245283
863.013 .0245163
863.690 .0245054
864.366 .0244957
865.042 .0244876
865.718 .0244810
866.393 .0244758
867.068 .0244716
867.743 .0244681
868.417 .0244649
869.091 .0244616
869.765 .0244583
870.438 .0244550
871.111 .0244512
871.783 .0244468
872.456 .0244416
873.127 .0244354
873.799 .0244281
874.470 .0244193
875.141 .0244094
875.811 .0243986
876.481 .0243868
877.151 .0243748
877.820 .0243627
878.489 .0243512
879.158 .0243401
879.826 .0243294
880.494 .0243193
881.162 .0243095
881.829 .0243002
882.496 .0242913
883.163 .0242832
883.829 .0242761
884.495 .0242702
885.160 .0242661
885.825 .0242639
886.490 .0242636
887.154 .0242651
887.818 .0242680
888.482 .0242720
889.145 .0242763
889.808 .0242803
890.471 .0242840
891.133 .0242869
891.795 .0242889
892.456 .0242905
893.117 .0242917
893.778 .0242926
894.439 .0242934
895.099 .0242939
895.758 .0242938
896.417 .0242931
897.076 .0242919
897.735 .0242901
898.393 .0242883
899.051 .0242866
899.708 .0242852
900.365 .0242848
901.022 .0242854
901.678 .0242869
902.334 .0242888
902.990 .0242909
903.645 .0242929
904.300 .0242941
904.954 .0242949
905.608 .0242949
906.262 .0242948
906.915 .0242945
907.568 .0242942
908.221 .0242935
908.873 .0242921
909.525 .0242898
910.176 .0242860
910.828 .0242803
911.478 .0242733
912.129 .0242645
912.778 .0242551
913.428 .0242457
914.077 .0242370
914.726 .0242289
915.375 .0242223
916.023 .0242165
916.670 .0242116
917.318 .0242065
917.964 .0242012
918.611 .0241950
919.257 .0241881
919.903 .0241809
920.548 .0241728
921.193 .0241649
921.838 .0241576
922.482 .0241503
923.126 .0241433
923.770 .0241359
924.413 .0241281
925.056 .0241192
925.698 .0241100
926.340 .0241003
926.982 .0240906
927.623 .0240815
928.264 .0240735
928.904 .0240664
929.544 .0240605
930.184 .0240551
930.823 .0240496
931.462 .0240440
932.101 .0240379
932.739 .0240308
933.377 .0240231
934.014 .0240149
934.651 .0240070
935.288 .0239991
935.924 .0239921
936.560 .0239852
937.196 .0239786
937.831 .0239717
938.466 .0239639
939.100 .0239546
939.734 .0239439
940.368 .0239312
941.001 .0239171
941.634 .0239017
942.266 .0238855
942.899 .0238686
943.530 .0238516
944.162 .0238337
944.793 .0238155
945.423 .0237963
946.053 .0237757
946.683 .0237536
947.313 .0237309
947.942 .0237070
948.571 .0236826
949.199 .0236578
949.827 .0236327
950.455 .0236074
951.082 .0235822
951.709 .0235566
952.335 .0235311
952.961 .0235057
953.587 .0234800
954.212 .0234540
954.837 .0234285
955.462 .0234034
956.086 .0233790
956.710 .0233562
957.334 .0233344
957.957 .0233136
958.579 .0232935
959.202 .0232738
959.824 .0232539
960.445 .0232340
961.067 .0232141
961.688 .0231942
962.308 .0231751
962.928 .0231571
963.548 .0231401
964.168 .0231247
964.787 .0231107
965.406 .0230980
966.024 .0230861
966.642 .0230748
967.260 .0230637
967.877 .0230528
968.494 .0230415
969.110 .0230305
969.727 .0230191
970.342 .0230079
970.958 .0229969
971.573 .0229858
972.188 .0229747
972.802 .0229642
973.416 .0229536
974.030 .0229429
974.643 .0229318
975.256 .0229207
975.869 .0229087
976.481 .0228959
977.093 .0228828
977.705 .0228696
978.316 .0228565
978.927 .0228437
979.538 .0228309
980.148 .0228186
980.758 .0228065
981.367 .0227949
981.977 .0227835
982.586 .0227726
983.194 .0227617
983.802 .0227508
984.410 .0227396
985.018 .0227286
985.625 .0227176
986.232 .0227068
986.838 .0226959
987.445 .0226852
988.050 .0226738
988.656 .0226622
989.261 .0226503
989.866 .0226382
990.471 .0226259
991.075 .0226139
991.679 .0226022
992.282 .0225910
992.886 .0225804
993.489 .0225707
994.091 .0225615
994.694 .0225534
995.296 .0225457
995.897 .0225380
996.499 .0225311
997.100 .0225242
997.701 .0225178
998.301 .0225120
998.901 .0225066
999.501 .0225021
1000.101 .0224975
1000.700 .0224931
1001.299 .0224885
1001.898 .0224836
1002.496 .0224785
1003.094 .0224729
1003.692 .0224673
1004.289 .0224613
1004.887 .0224551
1005.484 .0224490
1006.080 .0224429
1006.677 .0224370
1007.273 .0224313
1007.868 .0224256
1008.464 .0224209
1009.059 .0224169
1009.654 .0224142
1010.249 .0224137
1010.843 .0224155
1011.437 .0224197
1012.031 .0224253
1012.625 .0224323
1013.218 .0224397
1013.811 .0224472
1014.404 .0224544
1014.997 .0224611
1015.589 .0224677
1016.181 .0224743
1016.773 .0224806
1017.365 .0224868
1017.956 .0224928
1018.547 .0224972
1019.138 .0224996
1019.728 .0224992
1020.319 .0224956
1020.909 .0224890
1021.499 .0224805
1022.088 .0224713
1022.678 .0224620
1023.267 .0224544
1023.856 .0224485
1024.445 .0224443
1025.033 .0224416
1025.621 .0224391
1026.209 .0224364
1026.797 .0224326
1027.385 .0224280
1027.972 .0224226
1028.560 .0224176
1029.147 .0224142
1029.734 .0224132
1030.320 .0224148
1030.907 .0224188
1031.493 .0224247
1032.079 .0224315
1032.665 .0224386
1033.250 .0224453
1033.836 .0224512
1034.421 .0224566
1035.006 .0224618
1035.591 .0224670
1036.176 .0224716
1036.761 .0224768
1037.345 .0224823
1037.929 .0224878
1038.514 .0224931
1039.097 .0224978
1039.681 .0225022
1040.265 .0225066
1040.848 .0225113
1041.432 .0225151
1042.015 .0225181
1042.598 .0225203
1043.181 .0225215
1043.764 .0225215
1044.346 .0225214
1044.929 .0225209
1045.511 .0225202
1046.094 .0225206
1046.676 .0225211
1047.258 .0225214
1047.840 .0225223
1048.422 .0225229
1049.003 .0225227
1049.585 .0225217
1050.166 .0225201
1050.748 .0225181
1051.329 .0225171
1051.910 .0225174
1052.491 .0225182
1053.072 .0225206
1053.653 .0225238
1054.234 .0225271
1054.815 .0225307
1055.396 .0225345
1055.976 .0225375
1056.557 .0225414
1057.138 .0225460
1057.718 .0225511
1058.298 .0225575
1058.879 .0225649
1059.459 .0225727
1060.039 .0225800
1060.620 .0225847
1061.200 .0225870
1061.780 .0225864
1062.360 .0225842
1062.940 .0225802
1063.520 .0225757
1064.101 .0225719
1064.681 .0225687
1065.261 .0225665
1065.841 .0225661
1066.421 .0225673
1067.001 .0225700
1067.581 .0225719
1068.161 .0225734
1068.741 .0225749
1069.321 .0225756
1069.901 .0225755
1070.482 .0225759
1071.062 .0225764
1071.642 .0225783
1072.222 .0225802
1072.803 .0225829
1073.383 .0225864
1073.963 .0225908
1074.544 .0225959
1075.124 .0226007
1075.705 .0226062
1076.286 .0226117
1076.866 .0226162
1077.447 .0226217
1078.028 .0226272
1078.609 .0226334
1079.190 .0226395
1079.771 .0226463
1080.352 .0226532
1080.934 .0226598
1081.515 .0226664
1082.097 .0226748
1082.679 .0226832
1083.260 .0226923
1083.842 .0227005
1084.424 .0227082
1085.007 .0227157
1085.589 .0227211
1086.172 .0227247
1086.754 .0227274
1087.337 .0227289
1087.920 .0227295
1088.503 .0227288
1089.087 .0227293
1089.670 .0227301
1090.254 .0227313
1090.838 .0227318
1091.422 .0227313
1092.006 .0227283
1092.590 .0227228
1093.175 .0227146
1093.760 .0227061
1094.345 .0226976
1094.930 .0226897
1095.516 .0226840
1096.102 .0226813
1096.688 .0226819
1097.274 .0226859
1097.860 .0226934
1098.447 .0227031
1099.034 .0227136
1099.622 .0227256
1100.209 .0227380
1100.797 .0227502
1101.385 .0227614
1101.973 .0227726
1102.562 .0227829
1103.151 .0227916
1103.740 .0227988
1104.330 .0228032
1104.920 .0228078
1105.510 .0228114
1106.101 .0228138
1106.691 .0228159
1107.283 .0228170
1107.874 .0228164
1108.466 .0228133
1109.058 .0228084
1109.651 .0227997
1110.244 .0227874
1110.837 .0227750
1111.431 .0227622
1112.025 .0227518
1112.620 .0227461
1113.215 .0227474
1113.810 .0227562
1114.406 .0227713
1115.002 .0227885
1115.599 .0228045
1116.196 .0228162
1116.793 .0228181
1117.391 .0228100
1117.989 .0227920
1118.588 .0227660
1119.187 .0227360
1119.787 .0227056
1120.387 .0226806
1120.988 .0226617
1121.589 .0226519
1122.190 .0226481
1122.793 .0226491
1123.395 .0226499
1123.998 .0226459
1124.602 .0226387
1125.206 .0226287
1125.811 .0226177
1126.416 .0226106
1127.022 .0226129
1127.628 .0226269
1128.235 .0226540
1128.843 .0226978
1129.451 .0227538
1130.059 .0228186
1130.669 .0228862
1131.278 .0229523
1131.889 .0230106
1132.500 .0230616
1133.112 .0231039
1133.724 .0231391
1134.337 .0231729
1134.950 .0232052
1135.564 .0232391
1136.179 .0232734
1136.795 .0233096
1137.411 .0233425
1138.028 .0233718
1138.645 .0233951
1139.263 .0234109
1139.882 .0234225
1140.502 .0234337
1141.122 .0234428
1141.743 .0234488
1142.365 .0234585
1142.987 .0235134
1143.611 .0235941
1144.235 .0234826
1144.859 .0233532
1145.485 .0235430
