Measurement Sequence started on: 10-20-44-796
Integration time: 35
Scans to Average: 2 
>>>>>Begin Spectral Data<<<<<
432.953 .0319640
433.882 .0310526
434.810 .0328614
435.737 .0337569
436.662 .0337737
437.586 .0330997
438.509 .0331251
439.431 .0331150
440.351 .0330355
441.269 .0329417
442.187 .0328600
443.103 .0327799
444.018 .0327192
444.932 .0326677
445.844 .0325998
446.756 .0325472
447.666 .0325234
448.575 .0325277
449.482 .0325730
450.388 .0326327
451.294 .0326995
452.198 .0327605
453.100 .0328120
454.002 .0328554
454.902 .0328809
455.801 .0328976
456.699 .0329139
457.596 .0329392
458.492 .0329800
459.387 .0330272
460.280 .0330826
461.172 .0331318
462.064 .0331659
462.954 .0331774
463.843 .0331679
464.730 .0331410
465.617 .0331011
466.503 .0330551
467.387 .0330066
468.271 .0329556
469.153 .0329074
470.035 .0328637
470.915 .0328239
471.794 .0327850
472.673 .0327408
473.550 .0326948
474.426 .0326522
475.301 .0326117
476.175 .0325762
477.048 .0325453
477.920 .0325201
478.791 .0324976
479.661 .0324776
480.530 .0324597
481.398 .0324429
482.266 .0324288
483.132 .0324148
483.997 .0323950
484.861 .0323703
485.724 .0323411
486.587 .0323064
487.448 .0322688
488.308 .0322268
489.168 .0321815
490.026 .0321358
490.884 .0320901
491.741 .0320435
492.597 .0319949
493.452 .0319461
494.306 .0318929
495.159 .0318336
496.011 .0317699
496.862 .0317027
497.713 .0316348
498.562 .0315685
499.411 .0315047
500.259 .0314425
501.106 .0313823
501.952 .0313198
502.798 .0312534
503.642 .0311821
504.486 .0311011
505.329 .0310118
506.171 .0309160
507.012 .0308175
507.852 .0307144
508.692 .0306102
509.531 .0305074
510.369 .0304064
511.206 .0303071
512.043 .0302056
512.878 .0301020
513.713 .0299969
514.547 .0298891
515.381 .0297753
516.213 .0296576
517.045 .0295361
517.876 .0294079
518.706 .0292764
519.536 .0291461
520.365 .0290159
521.193 .0288863
522.020 .0287653
522.847 .0286490
523.673 .0285361
524.498 .0284234
525.323 .0283054
526.146 .0281838
526.969 .0280587
527.792 .0279261
528.614 .0277827
529.435 .0276411
530.255 .0275016
531.075 .0273590
531.894 .0272211
532.712 .0270893
533.530 .0269590
534.347 .0268297
535.163 .0267009
535.979 .0265700
536.794 .0264485
537.608 .0263404
538.422 .0262473
539.235 .0261774
540.048 .0261332
540.860 .0261094
541.671 .0261024
542.481 .0261084
543.292 .0261169
544.101 .0261211
544.910 .0261260
545.718 .0261250
546.526 .0261203
547.333 .0261165
548.139 .0261173
548.945 .0261290
549.750 .0261475
550.555 .0261682
551.359 .0261933
552.162 .0262182
552.965 .0262403
553.768 .0262573
554.569 .0262729
555.371 .0262925
556.171 .0263168
556.972 .0263498
557.771 .0263951
558.570 .0264587
559.369 .0265386
560.167 .0266322
560.964 .0267369
561.761 .0268514
562.558 .0269684
563.354 .0270904
564.149 .0272127
564.944 .0273336
565.738 .0274525
566.532 .0275680
567.325 .0276825
568.118 .0277920
568.910 .0278952
569.702 .0279941
570.494 .0280909
571.285 .0281856
572.075 .0282747
572.865 .0283605
573.654 .0284423
574.443 .0285201
575.232 .0285934
576.020 .0286616
576.807 .0287272
577.594 .0287915
578.381 .0288542
579.167 .0289163
579.952 .0289798
580.738 .0290461
581.522 .0291157
582.307 .0291871
583.091 .0292597
583.874 .0293310
584.657 .0293993
585.440 .0294625
586.222 .0295170
587.004 .0295628
587.785 .0295995
588.566 .0296302
589.346 .0296543
590.126 .0296727
590.906 .0296881
591.685 .0296997
592.464 .0297088
593.242 .0297147
594.020 .0297159
594.797 .0297135
595.575 .0297075
596.351 .0296982
597.128 .0296868
597.904 .0296742
598.679 .0296613
599.454 .0296486
600.229 .0296370
601.004 .0296258
601.778 .0296135
602.551 .0296023
603.325 .0295925
604.097 .0295836
604.870 .0295758
605.642 .0295693
606.414 .0295645
607.185 .0295607
607.956 .0295577
608.727 .0295552
609.497 .0295527
610.267 .0295501
611.037 .0295465
611.806 .0295421
612.575 .0295371
613.344 .0295311
614.112 .0295237
614.880 .0295155
615.647 .0295056
616.414 .0294933
617.181 .0294787
617.948 .0294630
618.714 .0294457
619.480 .0294268
620.245 .0294077
621.011 .0293884
621.775 .0293697
622.540 .0293520
623.304 .0293353
624.068 .0293200
624.832 .0293054
625.595 .0292913
626.358 .0292771
627.120 .0292638
627.883 .0292503
628.645 .0292362
629.406 .0292225
630.168 .0292080
630.929 .0291924
631.689 .0291759
632.450 .0291582
633.210 .0291391
633.970 .0291188
634.729 .0290970
635.489 .0290738
636.248 .0290498
637.006 .0290255
637.765 .0290011
638.523 .0289773
639.280 .0289548
640.038 .0289332
640.795 .0289133
641.552 .0288953
642.309 .0288790
643.065 .0288656
643.821 .0288542
644.577 .0288445
645.332 .0288363
646.088 .0288287
646.843 .0288211
647.597 .0288125
648.352 .0288024
649.106 .0287900
649.860 .0287748
650.613 .0287574
651.367 .0287382
652.120 .0287177
652.872 .0286974
653.625 .0286770
654.377 .0286568
655.129 .0286362
655.881 .0286149
656.632 .0285934
657.384 .0285712
658.135 .0285488
658.885 .0285261
659.636 .0285036
660.386 .0284828
661.136 .0284633
661.885 .0284462
662.635 .0284321
663.384 .0284203
664.133 .0284100
664.881 .0284010
665.630 .0283921
666.378 .0283829
667.126 .0283733
667.874 .0283629
668.621 .0283511
669.368 .0283387
670.115 .0283250
670.862 .0283110
671.608 .0282982
672.354 .0282865
673.100 .0282755
673.846 .0282662
674.591 .0282577
675.337 .0282494
676.082 .0282411
676.826 .0282328
677.571 .0282238
678.315 .0282141
679.059 .0282041
679.803 .0281940
680.547 .0281845
681.290 .0281759
682.033 .0281675
682.776 .0281598
683.518 .0281520
684.261 .0281429
685.003 .0281327
685.745 .0281214
686.487 .0281093
687.228 .0280960
687.969 .0280818
688.710 .0280672
689.451 .0280526
690.192 .0280381
690.932 .0280229
691.672 .0280079
692.412 .0279930
693.152 .0279778
693.891 .0279627
694.630 .0279476
695.369 .0279329
696.108 .0279185
696.846 .0279042
697.585 .0278894
698.323 .0278743
699.061 .0278591
699.798 .0278429
700.536 .0278264
701.273 .0278098
702.010 .0277930
702.746 .0277765
703.483 .0277610
704.219 .0277459
704.955 .0277311
705.691 .0277166
706.427 .0277019
707.162 .0276870
707.897 .0276722
708.632 .0276570
709.367 .0276419
710.101 .0276267
710.835 .0276111
711.569 .0275944
712.303 .0275775
713.037 .0275606
713.770 .0275433
714.503 .0275254
715.236 .0275069
715.969 .0274883
716.702 .0274696
717.434 .0274508
718.166 .0274321
718.898 .0274136
719.629 .0273953
720.361 .0273769
721.092 .0273585
721.823 .0273399
722.554 .0273215
723.284 .0273030
724.014 .0272840
724.744 .0272643
725.474 .0272436
726.204 .0272225
726.933 .0272010
727.662 .0271793
728.391 .0271574
729.120 .0271352
729.849 .0271135
730.577 .0270916
731.305 .0270697
732.033 .0270480
732.760 .0270258
733.488 .0270037
734.215 .0269816
734.942 .0269592
735.669 .0269375
736.395 .0269171
737.122 .0268984
737.848 .0268809
738.573 .0268654
739.299 .0268514
740.024 .0268385
740.750 .0268264
741.474 .0268146
742.199 .0268030
742.924 .0267915
743.648 .0267798
744.372 .0267676
745.096 .0267560
745.819 .0267443
746.543 .0267329
747.266 .0267222
747.989 .0267118
748.711 .0267018
749.434 .0266923
750.156 .0266832
750.878 .0266743
751.599 .0266661
752.321 .0266588
753.042 .0266521
753.763 .0266470
754.484 .0266423
755.205 .0266386
755.925 .0266359
756.645 .0266340
757.365 .0266317
758.085 .0266294
758.804 .0266265
759.523 .0266229
760.242 .0266186
760.961 .0266134
761.679 .0266074
762.397 .0266006
763.115 .0265924
763.833 .0265822
764.551 .0265703
765.268 .0265569
765.985 .0265417
766.702 .0265252
767.418 .0265079
768.134 .0264901
768.850 .0264727
769.566 .0264564
770.282 .0264414
770.997 .0264272
771.712 .0264139
772.427 .0264011
773.142 .0263884
773.856 .0263758
774.570 .0263635
775.284 .0263514
775.998 .0263402
776.711 .0263294
777.424 .0263190
778.137 .0263092
778.849 .0263001
779.562 .0262914
780.274 .0262829
780.986 .0262749
781.697 .0262674
782.409 .0262603
783.120 .0262544
783.831 .0262493
784.541 .0262453
785.252 .0262426
785.962 .0262406
786.671 .0262390
787.381 .0262376
788.090 .0262361
788.799 .0262345
789.508 .0262324
790.217 .0262295
790.925 .0262260
791.633 .0262219
792.341 .0262170
793.048 .0262105
793.755 .0262025
794.462 .0261932
795.169 .0261824
795.875 .0261701
796.581 .0261567
797.287 .0261428
797.993 .0261287
798.698 .0261150
799.403 .0261019
800.108 .0260894
800.812 .0260779
801.517 .0260668
802.221 .0260558
802.924 .0260445
803.628 .0260333
804.331 .0260220
805.034 .0260109
805.736 .0260001
806.439 .0259898
807.141 .0259805
807.843 .0259725
808.544 .0259648
809.245 .0259570
809.946 .0259488
810.647 .0259395
811.347 .0259287
812.047 .0259165
812.747 .0259029
813.447 .0258888
814.146 .0258745
814.845 .0258609
815.543 .0258476
816.242 .0258355
816.940 .0258242
817.638 .0258130
818.335 .0258013
819.032 .0257890
819.729 .0257757
820.426 .0257617
821.122 .0257467
821.818 .0257309
822.514 .0257145
823.209 .0256984
823.905 .0256827
824.599 .0256674
825.294 .0256523
825.988 .0256375
826.682 .0256225
827.376 .0256071
828.069 .0255911
828.762 .0255746
829.455 .0255575
830.147 .0255401
830.840 .0255224
831.531 .0255047
832.223 .0254875
832.914 .0254709
833.605 .0254552
834.296 .0254400
834.986 .0254249
835.676 .0254098
836.366 .0253943
837.055 .0253781
837.744 .0253609
838.433 .0253423
839.121 .0253228
839.809 .0253023
840.497 .0252816
841.185 .0252609
841.872 .0252407
842.559 .0252213
843.245 .0252027
843.932 .0251843
844.617 .0251664
845.303 .0251486
845.988 .0251315
846.673 .0251146
847.358 .0250986
848.042 .0250835
848.726 .0250696
849.410 .0250572
850.093 .0250467
850.776 .0250373
851.459 .0250287
852.141 .0250199
852.823 .0250108
853.505 .0250008
854.186 .0249900
854.867 .0249785
855.548 .0249664
856.228 .0249542
856.908 .0249421
857.588 .0249301
858.267 .0249187
858.946 .0249078
859.625 .0248973
860.303 .0248870
860.981 .0248771
861.659 .0248671
862.336 .0248570
863.013 .0248473
863.690 .0248383
864.366 .0248290
865.042 .0248201
865.718 .0248113
866.393 .0248025
867.068 .0247939
867.743 .0247853
868.417 .0247764
869.091 .0247675
869.765 .0247584
870.438 .0247479
871.111 .0247370
871.783 .0247255
872.456 .0247130
873.127 .0247001
873.799 .0246872
874.470 .0246742
875.141 .0246615
875.811 .0246497
876.481 .0246384
877.151 .0246279
877.820 .0246180
878.489 .0246087
879.158 .0245999
879.826 .0245917
880.494 .0245841
881.162 .0245767
881.829 .0245703
882.496 .0245637
883.163 .0245573
883.829 .0245514
884.495 .0245452
885.160 .0245393
885.825 .0245339
886.490 .0245293
887.154 .0245257
887.818 .0245230
888.482 .0245212
889.145 .0245199
889.808 .0245192
890.471 .0245183
891.133 .0245169
891.795 .0245153
892.456 .0245133
893.117 .0245111
893.778 .0245091
894.439 .0245069
895.099 .0245049
895.758 .0245033
896.417 .0245016
897.076 .0244999
897.735 .0244984
898.393 .0244972
899.051 .0244962
899.708 .0244954
900.365 .0244946
901.022 .0244939
901.678 .0244934
902.334 .0244930
902.990 .0244925
903.645 .0244925
904.300 .0244932
904.954 .0244941
905.608 .0244954
906.262 .0244968
906.915 .0244977
907.568 .0244975
908.221 .0244960
908.873 .0244929
909.525 .0244882
910.176 .0244828
910.828 .0244773
911.478 .0244717
912.129 .0244665
912.778 .0244616
913.428 .0244570
914.077 .0244524
914.726 .0244477
915.375 .0244421
916.023 .0244363
916.670 .0244306
917.318 .0244246
917.964 .0244189
918.611 .0244141
919.257 .0244101
919.903 .0244070
920.548 .0244043
921.193 .0244019
921.838 .0243993
922.482 .0243971
923.126 .0243948
923.770 .0243926
924.413 .0243904
925.056 .0243884
925.698 .0243869
926.340 .0243856
926.982 .0243845
927.623 .0243836
928.264 .0243829
928.904 .0243821
929.544 .0243805
930.184 .0243783
930.823 .0243749
931.462 .0243704
932.101 .0243643
932.739 .0243570
933.377 .0243485
934.014 .0243392
934.651 .0243293
935.288 .0243194
935.924 .0243092
936.560 .0242989
937.196 .0242891
937.831 .0242798
938.466 .0242706
939.100 .0242621
939.734 .0242540
940.368 .0242470
941.001 .0242405
941.634 .0242346
942.266 .0242289
942.899 .0242230
943.530 .0242163
944.162 .0242082
944.793 .0241985
945.423 .0241875
946.053 .0241746
946.683 .0241603
947.313 .0241445
947.942 .0241273
948.571 .0241087
949.199 .0240889
949.827 .0240674
950.455 .0240448
951.082 .0240213
951.709 .0239973
952.335 .0239728
952.961 .0239489
953.587 .0239257
954.212 .0239030
954.837 .0238814
955.462 .0238604
956.086 .0238397
956.710 .0238199
957.334 .0238002
957.957 .0237810
958.579 .0237626
959.202 .0237448
959.824 .0237278
960.445 .0237115
961.067 .0236959
961.688 .0236806
962.308 .0236657
962.928 .0236512
963.548 .0236364
964.168 .0236217
964.787 .0236070
965.406 .0235923
966.024 .0235781
966.642 .0235637
967.260 .0235495
967.877 .0235359
968.494 .0235226
969.110 .0235097
969.727 .0234974
970.342 .0234860
970.958 .0234756
971.573 .0234665
972.188 .0234584
972.802 .0234511
973.416 .0234449
974.030 .0234393
974.643 .0234333
975.256 .0234275
975.869 .0234216
976.481 .0234153
977.093 .0234092
977.705 .0234031
978.316 .0233966
978.927 .0233899
979.538 .0233822
980.148 .0233733
980.758 .0233630
981.367 .0233516
981.977 .0233388
982.586 .0233259
983.194 .0233138
983.802 .0233020
984.410 .0232908
985.018 .0232805
985.625 .0232709
986.232 .0232613
986.838 .0232516
987.445 .0232414
988.050 .0232302
988.656 .0232188
989.261 .0232065
989.866 .0231937
990.471 .0231810
991.075 .0231686
991.679 .0231555
992.282 .0231422
992.886 .0231290
993.489 .0231147
994.091 .0230997
994.694 .0230848
995.296 .0230693
995.897 .0230532
996.499 .0230372
997.100 .0230215
997.701 .0230070
998.301 .0229949
998.901 .0229844
999.501 .0229758
1000.101 .0229691
1000.700 .0229636
1001.299 .0229580
1001.898 .0229526
1002.496 .0229471
1003.094 .0229404
1003.692 .0229329
1004.289 .0229249
1004.887 .0229166
1005.484 .0229093
1006.080 .0229035
1006.677 .0228991
1007.273 .0228956
1007.868 .0228930
1008.464 .0228906
1009.059 .0228890
1009.654 .0228885
1010.249 .0228887
1010.843 .0228894
1011.437 .0228913
1012.031 .0228942
1012.625 .0228973
1013.218 .0229008
1013.811 .0229043
1014.404 .0229074
1014.997 .0229106
1015.589 .0229134
1016.181 .0229162
1016.773 .0229191
1017.365 .0229222
1017.956 .0229247
1018.547 .0229262
1019.138 .0229255
1019.728 .0229222
1020.319 .0229163
1020.909 .0229080
1021.499 .0228972
1022.088 .0228853
1022.678 .0228733
1023.267 .0228620
1023.856 .0228520
1024.445 .0228431
1025.033 .0228353
1025.621 .0228286
1026.209 .0228222
1026.797 .0228155
1027.385 .0228092
1027.972 .0228037
1028.560 .0227996
1029.147 .0227967
1029.734 .0227958
1030.320 .0227962
1030.907 .0227982
1031.493 .0228010
1032.079 .0228036
1032.665 .0228059
1033.250 .0228079
1033.836 .0228092
1034.421 .0228104
1035.006 .0228120
1035.591 .0228141
1036.176 .0228162
1036.761 .0228188
1037.345 .0228207
1037.929 .0228206
1038.514 .0228190
1039.097 .0228169
1039.681 .0228138
1040.265 .0228113
1040.848 .0228099
1041.432 .0228107
1042.015 .0228145
1042.598 .0228207
1043.181 .0228287
1043.764 .0228380
1044.346 .0228486
1044.929 .0228580
1045.511 .0228652
1046.094 .0228720
1046.676 .0228775
1047.258 .0228831
1047.840 .0228896
1048.422 .0228972
1049.003 .0229065
1049.585 .0229170
1050.166 .0229279
1050.748 .0229389
1051.329 .0229488
1051.910 .0229568
1052.491 .0229619
1053.072 .0229643
1053.653 .0229643
1054.234 .0229620
1054.815 .0229591
1055.396 .0229568
1055.976 .0229550
1056.557 .0229542
1057.138 .0229545
1057.718 .0229562
1058.298 .0229581
1058.879 .0229586
1059.459 .0229576
1060.039 .0229540
1060.620 .0229468
1061.200 .0229367
1061.780 .0229245
1062.360 .0229122
1062.940 .0229008
1063.520 .0228907
1064.101 .0228828
1064.681 .0228776
1065.261 .0228744
1065.841 .0228716
1066.421 .0228681
1067.001 .0228635
1067.581 .0228574
1068.161 .0228499
1068.741 .0228435
1069.321 .0228399
1069.901 .0228403
1070.482 .0228445
1071.062 .0228533
1071.642 .0228656
1072.222 .0228795
1072.803 .0228935
1073.383 .0229072
1073.963 .0229179
1074.544 .0229272
1075.124 .0229339
1075.705 .0229382
1076.286 .0229427
1076.866 .0229465
1077.447 .0229478
1078.028 .0229473
1078.609 .0229451
1079.190 .0229401
1079.771 .0229330
1080.352 .0229261
1080.934 .0229190
1081.515 .0229148
1082.097 .0229129
1082.679 .0229125
1083.260 .0229137
1083.842 .0229169
1084.424 .0229182
1085.007 .0229177
1085.589 .0229159
1086.172 .0229115
1086.754 .0229053
1087.337 .0228993
1087.920 .0228946
1088.503 .0228921
1089.087 .0228920
1089.670 .0228949
1090.254 .0228990
1090.838 .0229033
1091.422 .0229067
1092.006 .0229087
1092.590 .0229103
1093.175 .0229104
1093.760 .0229093
1094.345 .0229082
1094.930 .0229082
1095.516 .0229097
1096.102 .0229134
1096.688 .0229212
1097.274 .0229323
1097.860 .0229436
1098.447 .0229544
1099.034 .0229644
1099.622 .0229726
1100.209 .0229779
1100.797 .0229821
1101.385 .0229848
1101.973 .0229872
1102.562 .0229893
1103.151 .0229922
1103.740 .0229967
1104.330 .0230030
1104.920 .0230117
1105.510 .0230219
1106.101 .0230346
1106.691 .0230479
1107.283 .0230635
1107.874 .0230821
1108.466 .0231009
1109.058 .0231174
1109.651 .0231314
1110.244 .0231431
1110.837 .0231496
1111.431 .0231511
1112.025 .0231488
1112.620 .0231444
1113.215 .0231403
1113.810 .0231354
1114.406 .0231311
1115.002 .0231260
1115.599 .0231204
1116.196 .0231100
1116.793 .0230939
1117.391 .0230734
1117.989 .0230482
1118.588 .0230221
1119.187 .0229979
1119.787 .0229756
1120.387 .0229570
1120.988 .0229438
1121.589 .0229347
1122.190 .0229279
1122.793 .0229201
1123.395 .0229108
1123.998 .0229015
1124.602 .0228936
1125.206 .0228908
1125.811 .0228936
1126.416 .0229066
1127.022 .0229299
1127.628 .0229606
1128.235 .0229964
1128.843 .0230360
1129.451 .0230766
1130.059 .0231156
1130.669 .0231517
1131.278 .0231866
1131.889 .0232199
1132.500 .0232550
1133.112 .0232934
1133.724 .0233360
1134.337 .0233805
1134.950 .0234262
1135.564 .0234694
1136.179 .0235101
1136.795 .0235458
1137.411 .0235799
1138.028 .0236117
1138.645 .0236453
1139.263 .0236855
1139.882 .0237292
1140.502 .0237805
1141.122 .0238371
1141.743 .0239024
1142.365 .0239852
1142.987 .0240131
1143.611 .0241457
1144.235 .0240992
1144.859 .0243135
1145.485 .0247570
