Measurement Sequence started on: 10-20-44-796
Integration time: 35
Scans to Average: 2 
>>>>>Begin Spectral Data<<<<<
432.953 .0574365
433.882 .0474507
434.810 .0430626
435.737 .0420196
436.662 .0408626
437.586 .0422302
438.509 .0413532
439.431 .0409652
440.351 .0407719
441.269 .0406448
442.187 .0405643
443.103 .0405109
444.018 .0404867
444.932 .0404657
445.844 .0404719
446.756 .0404747
447.666 .0404616
448.575 .0404139
449.482 .0403485
450.388 .0402664
451.294 .0401756
452.198 .0400904
453.100 .0400033
454.002 .0399322
454.902 .0398722
455.801 .0398157
456.699 .0397645
457.596 .0397182
458.492 .0396733
459.387 .0396304
460.280 .0395927
461.172 .0395517
462.064 .0395181
462.954 .0394875
463.843 .0394547
464.730 .0394187
465.617 .0393792
466.503 .0393340
467.387 .0392790
468.271 .0392111
469.153 .0391363
470.035 .0390539
470.915 .0389707
471.794 .0388859
472.673 .0388012
473.550 .0387238
474.426 .0386514
475.301 .0385824
476.175 .0385257
477.048 .0384762
477.920 .0384378
478.791 .0384083
479.661 .0383886
480.530 .0383775
481.398 .0383714
482.266 .0383756
483.132 .0383888
483.997 .0384032
484.861 .0384221
485.724 .0384428
486.587 .0384645
487.448 .0384828
488.308 .0384924
489.168 .0384935
490.026 .0384854
490.884 .0384614
491.741 .0384215
492.597 .0383663
493.452 .0382985
494.306 .0382159
495.159 .0381194
496.011 .0380152
496.862 .0379024
497.713 .0377806
498.562 .0376534
499.411 .0375196
500.259 .0373843
501.106 .0372466
501.952 .0371106
502.798 .0369786
503.642 .0368507
504.486 .0367275
505.329 .0366111
506.171 .0365005
507.012 .0363933
507.852 .0362898
508.692 .0361927
509.531 .0361005
510.369 .0360121
511.206 .0359291
512.043 .0358548
512.878 .0357827
513.713 .0357102
514.547 .0356329
515.381 .0355500
516.213 .0354584
517.045 .0353559
517.876 .0352429
518.706 .0351208
519.536 .0349923
520.365 .0348587
521.193 .0347222
522.020 .0345824
522.847 .0344333
523.673 .0342754
524.498 .0341080
525.323 .0339258
526.146 .0337319
526.969 .0335346
527.792 .0333392
528.614 .0331360
529.435 .0329349
530.255 .0327335
531.075 .0325302
531.894 .0323224
532.712 .0321034
533.530 .0318746
534.347 .0316457
535.163 .0314213
535.979 .0312169
536.794 .0310457
537.608 .0309207
538.422 .0308377
539.235 .0307917
540.048 .0307761
540.860 .0307806
541.671 .0307946
542.481 .0308164
543.292 .0308348
544.101 .0308535
544.910 .0308781
545.718 .0309122
546.526 .0309596
547.333 .0310174
548.139 .0310861
548.945 .0311577
549.750 .0312210
550.555 .0312745
551.359 .0313111
552.162 .0313367
552.965 .0313552
553.768 .0313670
554.569 .0313792
555.371 .0313931
556.171 .0314174
556.972 .0314532
557.771 .0315028
558.570 .0315655
559.369 .0316362
560.167 .0317174
560.964 .0318028
561.761 .0318869
562.558 .0319679
563.354 .0320499
564.149 .0321270
564.944 .0321935
565.738 .0322565
566.532 .0323129
567.325 .0323663
568.118 .0324180
568.910 .0324705
569.702 .0325235
570.494 .0325777
571.285 .0326313
572.075 .0326811
572.865 .0327292
573.654 .0327716
574.443 .0328077
575.232 .0328411
576.020 .0328725
576.807 .0329024
577.594 .0329322
578.381 .0329679
579.167 .0330070
579.952 .0330531
580.738 .0331006
581.522 .0331493
582.307 .0331952
583.091 .0332386
583.874 .0332785
584.657 .0333144
585.440 .0333473
586.222 .0333788
587.004 .0334086
587.785 .0334381
588.566 .0334665
589.346 .0334942
590.126 .0335187
590.906 .0335396
591.685 .0335548
592.464 .0335621
593.242 .0335620
594.020 .0335562
594.797 .0335447
595.575 .0335298
596.351 .0335114
597.128 .0334904
597.904 .0334686
598.679 .0334460
599.454 .0334220
600.229 .0333967
601.004 .0333709
601.778 .0333440
602.551 .0333162
603.325 .0332891
604.097 .0332623
604.870 .0332377
605.642 .0332154
606.414 .0331938
607.185 .0331730
607.956 .0331521
608.727 .0331309
609.497 .0331091
610.267 .0330868
611.037 .0330636
611.806 .0330402
612.575 .0330169
613.344 .0329935
614.112 .0329708
614.880 .0329484
615.647 .0329255
616.414 .0329014
617.181 .0328763
617.948 .0328498
618.714 .0328222
619.480 .0327953
620.245 .0327693
621.011 .0327465
621.775 .0327257
622.540 .0327073
623.304 .0326912
624.068 .0326769
624.832 .0326629
625.595 .0326490
626.358 .0326346
627.120 .0326188
627.883 .0326019
628.645 .0325849
629.406 .0325680
630.168 .0325525
630.929 .0325376
631.689 .0325234
632.450 .0325093
633.210 .0324952
633.970 .0324789
634.729 .0324613
635.489 .0324420
636.248 .0324210
637.006 .0323984
637.765 .0323752
638.523 .0323514
639.280 .0323283
640.038 .0323059
640.795 .0322841
641.552 .0322623
642.309 .0322413
643.065 .0322202
643.821 .0321984
644.577 .0321762
645.332 .0321537
646.088 .0321305
646.843 .0321074
647.597 .0320839
648.352 .0320606
649.106 .0320373
649.860 .0320141
650.613 .0319908
651.367 .0319673
652.120 .0319437
652.872 .0319197
653.625 .0318952
654.377 .0318706
655.129 .0318451
655.881 .0318191
656.632 .0317924
657.384 .0317644
658.135 .0317350
658.885 .0317042
659.636 .0316722
660.386 .0316396
661.136 .0316062
661.885 .0315729
662.635 .0315404
663.384 .0315091
664.133 .0314785
664.881 .0314490
665.630 .0314197
666.378 .0313906
667.126 .0313605
667.874 .0313293
668.621 .0312972
669.368 .0312648
670.115 .0312332
670.862 .0312023
671.608 .0311731
672.354 .0311463
673.100 .0311212
673.846 .0310974
674.591 .0310738
675.337 .0310500
676.082 .0310248
676.826 .0309989
677.571 .0309724
678.315 .0309462
679.059 .0309210
679.803 .0308979
680.547 .0308770
681.290 .0308582
682.033 .0308404
682.776 .0308226
683.518 .0308046
684.261 .0307859
685.003 .0307656
685.745 .0307441
686.487 .0307222
687.228 .0307003
687.969 .0306784
688.710 .0306568
689.451 .0306364
690.192 .0306168
690.932 .0305972
691.672 .0305779
692.412 .0305588
693.152 .0305400
693.891 .0305215
694.630 .0305037
695.369 .0304873
696.108 .0304722
696.846 .0304582
697.585 .0304452
698.323 .0304338
699.061 .0304236
699.798 .0304133
700.536 .0304034
701.273 .0303939
702.010 .0303843
702.746 .0303743
703.483 .0303642
704.219 .0303542
704.955 .0303443
705.691 .0303340
706.427 .0303231
707.162 .0303117
707.897 .0302998
708.632 .0302870
709.367 .0302735
710.101 .0302601
710.835 .0302463
711.569 .0302324
712.303 .0302194
713.037 .0302069
713.770 .0301952
714.503 .0301832
715.236 .0301712
715.969 .0301588
716.702 .0301456
717.434 .0301319
718.166 .0301175
718.898 .0301032
719.629 .0300891
720.361 .0300751
721.092 .0300617
721.823 .0300483
722.554 .0300343
723.284 .0300197
724.014 .0300038
724.744 .0299865
725.474 .0299674
726.204 .0299476
726.933 .0299275
727.662 .0299067
728.391 .0298857
729.120 .0298648
729.849 .0298444
730.577 .0298248
731.305 .0298050
732.033 .0297858
732.760 .0297667
733.488 .0297477
734.215 .0297289
734.942 .0297104
735.669 .0296917
736.395 .0296734
737.122 .0296555
737.848 .0296381
738.573 .0296210
739.299 .0296044
740.024 .0295880
740.750 .0295720
741.474 .0295556
742.199 .0295379
742.924 .0295190
743.648 .0294995
744.372 .0294787
745.096 .0294574
745.819 .0294357
746.543 .0294140
747.266 .0293926
747.989 .0293723
748.711 .0293524
749.434 .0293327
750.156 .0293136
750.878 .0292946
751.599 .0292759
752.321 .0292578
753.042 .0292406
753.763 .0292248
754.484 .0292102
755.205 .0291967
755.925 .0291837
756.645 .0291708
757.365 .0291576
758.085 .0291435
758.804 .0291282
759.523 .0291116
760.242 .0290934
760.961 .0290735
761.679 .0290530
762.397 .0290311
763.115 .0290077
763.833 .0289826
764.551 .0289563
765.268 .0289286
765.985 .0288996
766.702 .0288703
767.418 .0288405
768.134 .0288112
768.850 .0287829
769.566 .0287547
770.282 .0287276
770.997 .0287012
771.712 .0286755
772.427 .0286502
773.142 .0286256
773.856 .0286011
774.570 .0285773
775.284 .0285543
775.998 .0285319
776.711 .0285104
777.424 .0284900
778.137 .0284699
778.849 .0284503
779.562 .0284313
780.274 .0284129
780.986 .0283945
781.697 .0283776
782.409 .0283614
783.120 .0283468
783.831 .0283338
784.541 .0283225
785.252 .0283131
785.962 .0283058
786.671 .0282994
787.381 .0282941
788.090 .0282893
788.799 .0282845
789.508 .0282786
790.217 .0282724
790.925 .0282652
791.633 .0282570
792.341 .0282482
793.048 .0282388
793.755 .0282286
794.462 .0282174
795.169 .0282051
795.875 .0281917
796.581 .0281777
797.287 .0281626
797.993 .0281469
798.698 .0281314
799.403 .0281164
800.108 .0281023
800.812 .0280898
801.517 .0280788
802.221 .0280691
802.924 .0280602
803.628 .0280522
804.331 .0280453
805.034 .0280394
805.736 .0280339
806.439 .0280292
807.141 .0280254
807.843 .0280222
808.544 .0280187
809.245 .0280155
809.946 .0280117
810.647 .0280071
811.347 .0280017
812.047 .0279954
812.747 .0279888
813.447 .0279828
814.146 .0279776
814.845 .0279737
815.543 .0279711
816.242 .0279701
816.940 .0279702
817.638 .0279716
818.335 .0279739
819.032 .0279760
819.729 .0279778
820.426 .0279791
821.122 .0279793
821.818 .0279785
822.514 .0279771
823.209 .0279750
823.905 .0279728
824.599 .0279701
825.294 .0279670
825.988 .0279632
826.682 .0279590
827.376 .0279533
828.069 .0279459
828.762 .0279367
829.455 .0279257
830.147 .0279135
830.840 .0279011
831.531 .0278892
832.223 .0278788
832.914 .0278701
833.605 .0278635
834.296 .0278588
834.986 .0278558
835.676 .0278533
836.366 .0278507
837.055 .0278471
837.744 .0278425
838.433 .0278361
839.121 .0278289
839.809 .0278212
840.497 .0278136
841.185 .0278067
841.872 .0278005
842.559 .0277957
843.245 .0277916
843.932 .0277879
844.617 .0277839
845.303 .0277789
845.988 .0277731
846.673 .0277661
847.358 .0277588
848.042 .0277515
848.726 .0277446
849.410 .0277384
850.093 .0277332
850.776 .0277290
851.459 .0277250
852.141 .0277204
852.823 .0277151
853.505 .0277082
854.186 .0276995
854.867 .0276900
855.548 .0276800
856.228 .0276702
856.908 .0276610
857.588 .0276524
858.267 .0276441
858.946 .0276355
859.625 .0276266
860.303 .0276165
860.981 .0276053
861.659 .0275929
862.336 .0275791
863.013 .0275649
863.690 .0275508
864.366 .0275367
865.042 .0275230
865.718 .0275096
866.393 .0274956
867.068 .0274805
867.743 .0274644
868.417 .0274470
869.091 .0274276
869.765 .0274070
870.438 .0273854
871.111 .0273627
871.783 .0273401
872.456 .0273175
873.127 .0272956
873.799 .0272755
874.470 .0272560
875.141 .0272373
875.811 .0272194
876.481 .0272020
877.151 .0271847
877.820 .0271675
878.489 .0271505
879.158 .0271334
879.826 .0271165
880.494 .0271000
881.162 .0270839
881.829 .0270685
882.496 .0270534
883.163 .0270382
883.829 .0270231
884.495 .0270072
885.160 .0269906
885.825 .0269734
886.490 .0269558
887.154 .0269382
887.818 .0269208
888.482 .0269037
889.145 .0268876
889.808 .0268731
890.471 .0268597
891.133 .0268474
891.795 .0268363
892.456 .0268257
893.117 .0268151
893.778 .0268046
894.439 .0267937
895.099 .0267823
895.758 .0267705
896.417 .0267581
897.076 .0267450
897.735 .0267323
898.393 .0267188
899.051 .0267049
899.708 .0266905
900.365 .0266748
901.022 .0266572
901.678 .0266381
902.334 .0266172
902.990 .0265950
903.645 .0265720
904.300 .0265492
904.954 .0265266
905.608 .0265056
906.262 .0264858
906.915 .0264673
907.568 .0264497
908.221 .0264325
908.873 .0264146
909.525 .0263963
910.176 .0263772
910.828 .0263575
911.478 .0263379
912.129 .0263189
912.778 .0263006
913.428 .0262836
914.077 .0262679
914.726 .0262532
915.375 .0262390
916.023 .0262254
916.670 .0262115
917.318 .0261979
917.964 .0261839
918.611 .0261698
919.257 .0261559
919.903 .0261425
920.548 .0261295
921.193 .0261173
921.838 .0261058
922.482 .0260945
923.126 .0260833
923.770 .0260721
924.413 .0260605
925.056 .0260487
925.698 .0260364
926.340 .0260237
926.982 .0260109
927.623 .0259976
928.264 .0259834
928.904 .0259688
929.544 .0259533
930.184 .0259370
930.823 .0259197
931.462 .0259012
932.101 .0258817
932.739 .0258616
933.377 .0258407
934.014 .0258191
934.651 .0257976
935.288 .0257762
935.924 .0257550
936.560 .0257347
937.196 .0257153
937.831 .0256969
938.466 .0256797
939.100 .0256631
939.734 .0256470
940.368 .0256310
941.001 .0256149
941.634 .0255988
942.266 .0255828
942.899 .0255670
943.530 .0255506
944.162 .0255346
944.793 .0255188
945.423 .0255025
946.053 .0254864
946.683 .0254701
947.313 .0254537
947.942 .0254372
948.571 .0254201
949.199 .0254029
949.827 .0253867
950.455 .0253714
951.082 .0253575
951.709 .0253454
952.335 .0253351
952.961 .0253265
953.587 .0253190
954.212 .0253125
954.837 .0253057
955.462 .0252988
956.086 .0252913
956.710 .0252831
957.334 .0252744
957.957 .0252652
958.579 .0252558
959.202 .0252465
959.824 .0252366
960.445 .0252257
961.067 .0252136
961.688 .0252004
962.308 .0251853
962.928 .0251693
963.548 .0251526
964.168 .0251363
964.787 .0251205
965.406 .0251062
966.024 .0250940
966.642 .0250841
967.260 .0250761
967.877 .0250697
968.494 .0250642
969.110 .0250593
969.727 .0250540
970.342 .0250487
970.958 .0250436
971.573 .0250396
972.188 .0250366
972.802 .0250359
973.416 .0250369
974.030 .0250397
974.643 .0250434
975.256 .0250484
975.869 .0250536
976.481 .0250580
977.093 .0250619
977.705 .0250661
978.316 .0250704
978.927 .0250751
979.538 .0250803
980.148 .0250864
980.758 .0250932
981.367 .0251005
981.977 .0251071
982.586 .0251139
983.194 .0251205
983.802 .0251271
984.410 .0251332
985.018 .0251398
985.625 .0251465
986.232 .0251535
986.838 .0251607
987.445 .0251674
988.050 .0251727
988.656 .0251770
989.261 .0251794
989.866 .0251803
990.471 .0251790
991.075 .0251761
991.679 .0251720
992.282 .0251675
992.886 .0251628
993.489 .0251586
994.091 .0251548
994.694 .0251520
995.296 .0251498
995.897 .0251482
996.499 .0251470
997.100 .0251465
997.701 .0251470
998.301 .0251484
998.901 .0251510
999.501 .0251555
1000.101 .0251622
1000.700 .0251717
1001.299 .0251836
1001.898 .0251971
1002.496 .0252119
1003.094 .0252272
1003.692 .0252420
1004.289 .0252557
1004.887 .0252685
1005.484 .0252802
1006.080 .0252899
1006.677 .0252973
1007.273 .0253028
1007.868 .0253063
1008.464 .0253084
1009.059 .0253095
1009.654 .0253097
1010.249 .0253094
1010.843 .0253092
1011.437 .0253088
1012.031 .0253080
1012.625 .0253073
1013.218 .0253062
1013.811 .0253044
1014.404 .0253021
1014.997 .0252995
1015.589 .0252966
1016.181 .0252948
1016.773 .0252955
1017.365 .0252979
1017.956 .0253026
1018.547 .0253091
1019.138 .0253166
1019.728 .0253252
1020.319 .0253343
1020.909 .0253439
1021.499 .0253531
1022.088 .0253631
1022.678 .0253724
1023.267 .0253811
1023.856 .0253895
1024.445 .0253974
1025.033 .0254039
1025.621 .0254083
1026.209 .0254111
1026.797 .0254116
1027.385 .0254106
1027.972 .0254088
1028.560 .0254062
1029.147 .0254038
1029.734 .0254011
1030.320 .0253986
1030.907 .0253958
1031.493 .0253943
1032.079 .0253938
1032.665 .0253937
1033.250 .0253938
1033.836 .0253943
1034.421 .0253940
1035.006 .0253931
1035.591 .0253906
1036.176 .0253866
1036.761 .0253807
1037.345 .0253742
1037.929 .0253664
1038.514 .0253585
1039.097 .0253512
1039.681 .0253455
1040.265 .0253405
1040.848 .0253359
1041.432 .0253313
1042.015 .0253262
1042.598 .0253210
1043.181 .0253157
1043.764 .0253095
1044.346 .0253046
1044.929 .0253007
1045.511 .0252985
1046.094 .0252975
1046.676 .0252983
1047.258 .0252999
1047.840 .0253018
1048.422 .0253037
1049.003 .0253039
1049.585 .0253030
1050.166 .0253002
1050.748 .0252953
1051.329 .0252883
1051.910 .0252797
1052.491 .0252684
1053.072 .0252557
1053.653 .0252421
1054.234 .0252279
1054.815 .0252141
1055.396 .0252022
1055.976 .0251917
1056.557 .0251830
1057.138 .0251759
1057.718 .0251695
1058.298 .0251616
1058.879 .0251541
1059.459 .0251449
1060.039 .0251346
1060.620 .0251235
1061.200 .0251124
1061.780 .0251014
1062.360 .0250918
1062.940 .0250838
1063.520 .0250771
1064.101 .0250722
1064.681 .0250680
1065.261 .0250634
1065.841 .0250586
1066.421 .0250546
1067.001 .0250502
1067.581 .0250452
1068.161 .0250409
1068.741 .0250367
1069.321 .0250320
1069.901 .0250278
1070.482 .0250234
1071.062 .0250187
1071.642 .0250129
1072.222 .0250068
1072.803 .0249995
1073.383 .0249921
1073.963 .0249838
1074.544 .0249745
1075.124 .0249646
1075.705 .0249547
1076.286 .0249420
1076.866 .0249272
1077.447 .0249116
1078.028 .0248929
1078.609 .0248707
1079.190 .0248471
1079.771 .0248205
1080.352 .0247923
1080.934 .0247633
1081.515 .0247338
1082.097 .0247058
1082.679 .0246816
1083.260 .0246613
1083.842 .0246450
1084.424 .0246348
1085.007 .0246300
1085.589 .0246301
1086.172 .0246351
1086.754 .0246433
1087.337 .0246540
1087.920 .0246685
1088.503 .0246833
1089.087 .0246960
1089.670 .0247077
1090.254 .0247166
1090.838 .0247203
1091.422 .0247195
1092.006 .0247116
1092.590 .0246979
1093.175 .0246787
1093.760 .0246551
1094.345 .0246270
1094.930 .0245981
1095.516 .0245686
1096.102 .0245387
1096.688 .0245106
1097.274 .0244849
1097.860 .0244607
1098.447 .0244414
1099.034 .0244264
1099.622 .0244142
1100.209 .0244053
1100.797 .0244024
1101.385 .0244040
1101.973 .0244120
1102.562 .0244226
1103.151 .0244365
1103.740 .0244502
1104.330 .0244622
1104.920 .0244682
1105.510 .0244681
1106.101 .0244640
1106.691 .0244530
1107.283 .0244373
1107.874 .0244182
1108.466 .0243945
1109.058 .0243711
1109.651 .0243478
1110.244 .0243264
1110.837 .0243046
1111.431 .0242859
1112.025 .0242697
1112.620 .0242573
1113.215 .0242481
1113.810 .0242414
1114.406 .0242386
1115.002 .0242388
1115.599 .0242382
1116.196 .0242353
1116.793 .0242326
1117.391 .0242304
1117.989 .0242278
1118.588 .0242308
1119.187 .0242345
1119.787 .0242418
1120.387 .0242500
1120.988 .0242587
1121.589 .0242665
1122.190 .0242706
1122.793 .0242713
1123.395 .0242705
1123.998 .0242709
1124.602 .0242731
1125.206 .0242780
1125.811 .0242910
1126.416 .0243127
1127.022 .0243399
1127.628 .0243724
1128.235 .0244072
1128.843 .0244415
1129.451 .0244760
1130.059 .0245076
1130.669 .0245403
1131.278 .0245763
1131.889 .0246122
1132.500 .0246491
1133.112 .0246870
1133.724 .0247253
1134.337 .0247605
1134.950 .0247914
1135.564 .0248219
1136.179 .0248515
1136.795 .0248842
1137.411 .0249233
1138.028 .0249684
1138.645 .0250278
1139.263 .0250998
1139.882 .0251717
1140.502 .0252591
1141.122 .0253552
1141.743 .0254888
1142.365 .0256416
1142.987 .0254596
1143.611 .0259273
1144.235 .0260134
1144.859 .0268723
1145.485 .0268548
