Measurement Sequence started on: 10-20-44-796
Integration time: 35
Scans to Average: 2 
>>>>>Begin Spectral Data<<<<<
432.953 .0407792
433.882 .0349077
434.810 .0383980
435.737 .0367810
436.662 .0371624
437.586 .0379879
438.509 .0379983
439.431 .0381242
440.351 .0380991
441.269 .0380939
442.187 .0380567
443.103 .0379842
444.018 .0379193
444.932 .0378711
445.844 .0378135
446.756 .0377315
447.666 .0376342
448.575 .0375020
449.482 .0373699
450.388 .0372583
451.294 .0371643
452.198 .0370965
453.100 .0370570
454.002 .0370554
454.902 .0370736
455.801 .0371061
456.699 .0371330
457.596 .0371576
458.492 .0371759
459.387 .0371865
460.280 .0371861
461.172 .0371807
462.064 .0371784
462.954 .0371691
463.843 .0371564
464.730 .0371425
465.617 .0371183
466.503 .0370923
467.387 .0370610
468.271 .0370272
469.153 .0369914
470.035 .0369555
470.915 .0369183
471.794 .0368777
472.673 .0368382
473.550 .0367946
474.426 .0367500
475.301 .0367112
476.175 .0366763
477.048 .0366432
477.920 .0366114
478.791 .0365784
479.661 .0365423
480.530 .0365025
481.398 .0364573
482.266 .0364100
483.132 .0363642
483.997 .0363201
484.861 .0362787
485.724 .0362451
486.587 .0362181
487.448 .0361926
488.308 .0361666
489.168 .0361364
490.026 .0360998
490.884 .0360559
491.741 .0360042
492.597 .0359506
493.452 .0358984
494.306 .0358476
495.159 .0357996
496.011 .0357540
496.862 .0357048
497.713 .0356476
498.562 .0355787
499.411 .0354997
500.259 .0354077
501.106 .0353068
501.952 .0352003
502.798 .0350928
503.642 .0349867
504.486 .0348824
505.329 .0347809
506.171 .0346832
507.012 .0345895
507.852 .0344968
508.692 .0344062
509.531 .0343200
510.369 .0342360
511.206 .0341540
512.043 .0340738
512.878 .0339907
513.713 .0339007
514.547 .0338037
515.381 .0337044
516.213 .0335969
517.045 .0334864
517.876 .0333723
518.706 .0332556
519.536 .0331399
520.365 .0330220
521.193 .0328942
522.020 .0327647
522.847 .0326267
523.673 .0324774
524.498 .0323120
525.323 .0321419
526.146 .0319706
526.969 .0318042
527.792 .0316435
528.614 .0314873
529.435 .0313348
530.255 .0311946
531.075 .0310549
531.894 .0309206
532.712 .0307892
533.530 .0306564
534.347 .0305229
535.163 .0303874
535.979 .0302536
536.794 .0301281
537.608 .0300124
538.422 .0299133
539.235 .0298274
540.048 .0297544
540.860 .0296978
541.671 .0296563
542.481 .0296303
543.292 .0296126
544.101 .0295991
544.910 .0295933
545.718 .0295975
546.526 .0296130
547.333 .0296439
548.139 .0296861
548.945 .0297488
549.750 .0298187
550.555 .0298966
551.359 .0299782
552.162 .0300616
552.965 .0301471
553.768 .0302253
554.569 .0302939
555.371 .0303548
556.171 .0304065
556.972 .0304534
557.771 .0304934
558.570 .0305331
559.369 .0305751
560.167 .0306214
560.964 .0306675
561.761 .0307169
562.558 .0307649
563.354 .0308135
564.149 .0308563
564.944 .0308923
565.738 .0309238
566.532 .0309550
567.325 .0309893
568.118 .0310313
568.910 .0310834
569.702 .0311469
570.494 .0312178
571.285 .0312957
572.075 .0313729
572.865 .0314472
573.654 .0315149
574.443 .0315753
575.232 .0316260
576.020 .0316709
576.807 .0317128
577.594 .0317578
578.381 .0318103
579.167 .0318678
579.952 .0319301
580.738 .0319960
581.522 .0320631
582.307 .0321266
583.091 .0321858
583.874 .0322396
584.657 .0322868
585.440 .0323283
586.222 .0323640
587.004 .0323949
587.785 .0324235
588.566 .0324490
589.346 .0324725
590.126 .0324915
590.906 .0325060
591.685 .0325139
592.464 .0325158
593.242 .0325121
594.020 .0325022
594.797 .0324879
595.575 .0324709
596.351 .0324518
597.128 .0324337
597.904 .0324164
598.679 .0324017
599.454 .0323886
600.229 .0323773
601.004 .0323667
601.778 .0323567
602.551 .0323465
603.325 .0323362
604.097 .0323256
604.870 .0323150
605.642 .0323045
606.414 .0322937
607.185 .0322829
607.956 .0322719
608.727 .0322601
609.497 .0322469
610.267 .0322314
611.037 .0322143
611.806 .0321945
612.575 .0321718
613.344 .0321466
614.112 .0321192
614.880 .0320907
615.647 .0320606
616.414 .0320309
617.181 .0320020
617.948 .0319741
618.714 .0319477
619.480 .0319231
620.245 .0319001
621.011 .0318779
621.775 .0318562
622.540 .0318342
623.304 .0318123
624.068 .0317899
624.832 .0317666
625.595 .0317440
626.358 .0317227
627.120 .0317025
627.883 .0316834
628.645 .0316668
629.406 .0316510
630.168 .0316348
630.929 .0316186
631.689 .0316009
632.450 .0315813
633.210 .0315602
633.970 .0315373
634.729 .0315131
635.489 .0314883
636.248 .0314625
637.006 .0314362
637.765 .0314109
638.523 .0313859
639.280 .0313610
640.038 .0313367
640.795 .0313135
641.552 .0312904
642.309 .0312677
643.065 .0312464
643.821 .0312252
644.577 .0312045
645.332 .0311845
646.088 .0311646
646.843 .0311458
647.597 .0311270
648.352 .0311094
649.106 .0310926
649.860 .0310759
650.613 .0310596
651.367 .0310437
652.120 .0310286
652.872 .0310138
653.625 .0309984
654.377 .0309826
655.129 .0309655
655.881 .0309481
656.632 .0309294
657.384 .0309105
658.135 .0308917
658.885 .0308736
659.636 .0308553
660.386 .0308387
661.136 .0308227
661.885 .0308079
662.635 .0307946
663.384 .0307820
664.133 .0307694
664.881 .0307565
665.630 .0307432
666.378 .0307301
667.126 .0307165
667.874 .0307033
668.621 .0306894
669.368 .0306759
670.115 .0306622
670.862 .0306480
671.608 .0306342
672.354 .0306208
673.100 .0306077
673.846 .0305947
674.591 .0305814
675.337 .0305686
676.082 .0305555
676.826 .0305420
677.571 .0305273
678.315 .0305115
679.059 .0304938
679.803 .0304747
680.547 .0304551
681.290 .0304353
682.033 .0304153
682.776 .0303955
683.518 .0303757
684.261 .0303554
685.003 .0303346
685.745 .0303125
686.487 .0302897
687.228 .0302663
687.969 .0302422
688.710 .0302177
689.451 .0301938
690.192 .0301712
690.932 .0301490
691.672 .0301272
692.412 .0301058
693.152 .0300839
693.891 .0300613
694.630 .0300381
695.369 .0300146
696.108 .0299915
696.846 .0299688
697.585 .0299470
698.323 .0299260
699.061 .0299064
699.798 .0298875
700.536 .0298688
701.273 .0298508
702.010 .0298329
702.746 .0298144
703.483 .0297961
704.219 .0297782
704.955 .0297608
705.691 .0297435
706.427 .0297262
707.162 .0297091
707.897 .0296922
708.632 .0296747
709.367 .0296564
710.101 .0296375
710.835 .0296181
711.569 .0295975
712.303 .0295759
713.037 .0295536
713.770 .0295306
714.503 .0295069
715.236 .0294824
715.969 .0294570
716.702 .0294317
717.434 .0294070
718.166 .0293828
718.898 .0293595
719.629 .0293374
720.361 .0293159
721.092 .0292952
721.823 .0292747
722.554 .0292534
723.284 .0292311
724.014 .0292075
724.744 .0291825
725.474 .0291565
726.204 .0291302
726.933 .0291038
727.662 .0290779
728.391 .0290531
729.120 .0290290
729.849 .0290056
730.577 .0289832
731.305 .0289615
732.033 .0289401
732.760 .0289187
733.488 .0288971
734.215 .0288759
734.942 .0288551
735.669 .0288345
736.395 .0288142
737.122 .0287947
737.848 .0287756
738.573 .0287566
739.299 .0287382
740.024 .0287205
740.750 .0287030
741.474 .0286856
742.199 .0286677
742.924 .0286494
743.648 .0286304
744.372 .0286110
745.096 .0285914
745.819 .0285720
746.543 .0285532
747.266 .0285355
747.989 .0285199
748.711 .0285064
749.434 .0284953
750.156 .0284861
750.878 .0284786
751.599 .0284724
752.321 .0284669
753.042 .0284621
753.763 .0284580
754.484 .0284545
755.205 .0284512
755.925 .0284485
756.645 .0284462
757.365 .0284435
758.085 .0284408
758.804 .0284368
759.523 .0284312
760.242 .0284233
760.961 .0284131
761.679 .0283999
762.397 .0283842
763.115 .0283664
763.833 .0283460
764.551 .0283236
765.268 .0282996
765.985 .0282739
766.702 .0282474
767.418 .0282204
768.134 .0281933
768.850 .0281663
769.566 .0281404
770.282 .0281154
770.997 .0280920
771.712 .0280701
772.427 .0280501
773.142 .0280320
773.856 .0280152
774.570 .0279998
775.284 .0279855
775.998 .0279724
776.711 .0279605
777.424 .0279493
778.137 .0279385
778.849 .0279278
779.562 .0279171
780.274 .0279056
780.986 .0278935
781.697 .0278807
782.409 .0278680
783.120 .0278551
783.831 .0278428
784.541 .0278314
785.252 .0278215
785.962 .0278131
786.671 .0278055
787.381 .0277988
788.090 .0277925
788.799 .0277855
789.508 .0277785
790.217 .0277712
790.925 .0277636
791.633 .0277558
792.341 .0277481
793.048 .0277403
793.755 .0277326
794.462 .0277241
795.169 .0277147
795.875 .0277045
796.581 .0276933
797.287 .0276805
797.993 .0276667
798.698 .0276529
799.403 .0276386
800.108 .0276242
800.812 .0276102
801.517 .0275962
802.221 .0275830
802.924 .0275701
803.628 .0275574
804.331 .0275454
805.034 .0275337
805.736 .0275220
806.439 .0275107
807.141 .0274999
807.843 .0274890
808.544 .0274779
809.245 .0274665
809.946 .0274549
810.647 .0274428
811.347 .0274307
812.047 .0274185
812.747 .0274067
813.447 .0273950
814.146 .0273831
814.845 .0273713
815.543 .0273598
816.242 .0273481
816.940 .0273360
817.638 .0273233
818.335 .0273101
819.032 .0272962
819.729 .0272816
820.426 .0272663
821.122 .0272507
821.818 .0272338
822.514 .0272160
823.209 .0271970
823.905 .0271773
824.599 .0271568
825.294 .0271360
825.988 .0271151
826.682 .0270943
827.376 .0270738
828.069 .0270537
828.762 .0270343
829.455 .0270155
830.147 .0269967
830.840 .0269782
831.531 .0269602
832.223 .0269428
832.914 .0269259
833.605 .0269102
834.296 .0268957
834.986 .0268826
835.676 .0268707
836.366 .0268594
837.055 .0268487
837.744 .0268382
838.433 .0268266
839.121 .0268144
839.809 .0268011
840.497 .0267872
841.185 .0267733
841.872 .0267598
842.559 .0267470
843.245 .0267349
843.932 .0267236
844.617 .0267125
845.303 .0267014
845.988 .0266897
846.673 .0266768
847.358 .0266629
848.042 .0266484
848.726 .0266333
849.410 .0266182
850.093 .0266039
850.776 .0265904
851.459 .0265782
852.141 .0265668
852.823 .0265553
853.505 .0265439
854.186 .0265318
854.867 .0265191
855.548 .0265051
856.228 .0264906
856.908 .0264758
857.588 .0264615
858.267 .0264479
858.946 .0264351
859.625 .0264235
860.303 .0264129
860.981 .0264030
861.659 .0263933
862.336 .0263832
863.013 .0263724
863.690 .0263607
864.366 .0263477
865.042 .0263337
865.718 .0263191
866.393 .0263038
867.068 .0262888
867.743 .0262745
868.417 .0262608
869.091 .0262479
869.765 .0262355
870.438 .0262232
871.111 .0262104
871.783 .0261968
872.456 .0261815
873.127 .0261651
873.799 .0261481
874.470 .0261300
875.141 .0261118
875.811 .0260946
876.481 .0260782
877.151 .0260631
877.820 .0260495
878.489 .0260369
879.158 .0260247
879.826 .0260126
880.494 .0259999
881.162 .0259865
881.829 .0259728
882.496 .0259585
883.163 .0259436
883.829 .0259300
884.495 .0259172
885.160 .0259058
885.825 .0258964
886.490 .0258887
887.154 .0258826
887.818 .0258777
888.482 .0258734
889.145 .0258695
889.808 .0258664
890.471 .0258634
891.133 .0258605
891.795 .0258583
892.456 .0258566
893.117 .0258556
893.778 .0258555
894.439 .0258568
895.099 .0258585
895.758 .0258609
896.417 .0258630
897.076 .0258645
897.735 .0258653
898.393 .0258644
899.051 .0258619
899.708 .0258582
900.365 .0258525
901.022 .0258455
901.678 .0258375
902.334 .0258291
902.990 .0258205
903.645 .0258120
904.300 .0258037
904.954 .0257950
905.608 .0257855
906.262 .0257749
906.915 .0257631
907.568 .0257502
908.221 .0257364
908.873 .0257219
909.525 .0257076
910.176 .0256938
910.828 .0256813
911.478 .0256701
912.129 .0256599
912.778 .0256507
913.428 .0256419
914.077 .0256320
914.726 .0256217
915.375 .0256104
916.023 .0255987
916.670 .0255873
917.318 .0255768
917.964 .0255668
918.611 .0255582
919.257 .0255509
919.903 .0255443
920.548 .0255379
921.193 .0255321
921.838 .0255255
922.482 .0255187
923.126 .0255116
923.770 .0255042
924.413 .0254966
925.056 .0254903
925.698 .0254844
926.340 .0254786
926.982 .0254733
927.623 .0254677
928.264 .0254614
928.904 .0254543
929.544 .0254456
930.184 .0254352
930.823 .0254237
931.462 .0254111
932.101 .0253970
932.739 .0253830
933.377 .0253691
934.014 .0253548
934.651 .0253409
935.288 .0253269
935.924 .0253124
936.560 .0252970
937.196 .0252810
937.831 .0252636
938.466 .0252450
939.100 .0252256
939.734 .0252056
940.368 .0251865
941.001 .0251685
941.634 .0251515
942.266 .0251362
942.899 .0251222
943.530 .0251085
944.162 .0250943
944.793 .0250796
945.423 .0250633
946.053 .0250458
946.683 .0250272
947.313 .0250085
947.942 .0249904
948.571 .0249738
949.199 .0249584
949.827 .0249444
950.455 .0249312
951.082 .0249177
951.709 .0249036
952.335 .0248892
952.961 .0248739
953.587 .0248582
954.212 .0248420
954.837 .0248262
955.462 .0248107
956.086 .0247966
956.710 .0247832
957.334 .0247711
957.957 .0247600
958.579 .0247493
959.202 .0247388
959.824 .0247282
960.445 .0247170
961.067 .0247058
961.688 .0246941
962.308 .0246817
962.928 .0246685
963.548 .0246548
964.168 .0246405
964.787 .0246262
965.406 .0246116
966.024 .0245973
966.642 .0245832
967.260 .0245697
967.877 .0245562
968.494 .0245427
969.110 .0245297
969.727 .0245170
970.342 .0245048
970.958 .0244935
971.573 .0244828
972.188 .0244737
972.802 .0244661
973.416 .0244598
974.030 .0244545
974.643 .0244500
975.256 .0244455
975.869 .0244409
976.481 .0244361
977.093 .0244308
977.705 .0244256
978.316 .0244210
978.927 .0244167
979.538 .0244127
980.148 .0244093
980.758 .0244058
981.367 .0244027
981.977 .0244001
982.586 .0243975
983.194 .0243952
983.802 .0243933
984.410 .0243910
985.018 .0243885
985.625 .0243858
986.232 .0243823
986.838 .0243780
987.445 .0243728
988.050 .0243663
988.656 .0243583
989.261 .0243500
989.866 .0243407
990.471 .0243302
991.075 .0243195
991.679 .0243079
992.282 .0242954
992.886 .0242822
993.489 .0242687
994.091 .0242549
994.694 .0242417
995.296 .0242292
995.897 .0242172
996.499 .0242077
997.100 .0242002
997.701 .0241944
998.301 .0241908
998.901 .0241897
999.501 .0241902
1000.101 .0241920
1000.700 .0241957
1001.299 .0241997
1001.898 .0242048
1002.496 .0242099
1003.094 .0242144
1003.692 .0242185
1004.289 .0242219
1004.887 .0242243
1005.484 .0242261
1006.080 .0242277
1006.677 .0242284
1007.273 .0242283
1007.868 .0242277
1008.464 .0242264
1009.059 .0242240
1009.654 .0242204
1010.249 .0242160
1010.843 .0242109
1011.437 .0242055
1012.031 .0241994
1012.625 .0241940
1013.218 .0241892
1013.811 .0241854
1014.404 .0241830
1014.997 .0241815
1015.589 .0241813
1016.181 .0241822
1016.773 .0241834
1017.365 .0241849
1017.956 .0241863
1018.547 .0241871
1019.138 .0241870
1019.728 .0241868
1020.319 .0241861
1020.909 .0241852
1021.499 .0241842
1022.088 .0241835
1022.678 .0241823
1023.267 .0241809
1023.856 .0241784
1024.445 .0241752
1025.033 .0241722
1025.621 .0241687
1026.209 .0241644
1026.797 .0241599
1027.385 .0241561
1027.972 .0241534
1028.560 .0241516
1029.147 .0241509
1029.734 .0241509
1030.320 .0241514
1030.907 .0241515
1031.493 .0241515
1032.079 .0241514
1032.665 .0241510
1033.250 .0241507
1033.836 .0241495
1034.421 .0241472
1035.006 .0241441
1035.591 .0241396
1036.176 .0241336
1036.761 .0241260
1037.345 .0241171
1037.929 .0241068
1038.514 .0240967
1039.097 .0240878
1039.681 .0240795
1040.265 .0240723
1040.848 .0240669
1041.432 .0240617
1042.015 .0240569
1042.598 .0240525
1043.181 .0240486
1043.764 .0240453
1044.346 .0240433
1044.929 .0240417
1045.511 .0240417
1046.094 .0240436
1046.676 .0240468
1047.258 .0240495
1047.840 .0240523
1048.422 .0240545
1049.003 .0240553
1049.585 .0240553
1050.166 .0240552
1050.748 .0240549
1051.329 .0240555
1051.910 .0240563
1052.491 .0240576
1053.072 .0240586
1053.653 .0240601
1054.234 .0240608
1054.815 .0240612
1055.396 .0240609
1055.976 .0240597
1056.557 .0240581
1057.138 .0240570
1057.718 .0240559
1058.298 .0240536
1058.879 .0240500
1059.459 .0240448
1060.039 .0240368
1060.620 .0240256
1061.200 .0240110
1061.780 .0239936
1062.360 .0239737
1062.940 .0239527
1063.520 .0239309
1064.101 .0239106
1064.681 .0238930
1065.261 .0238785
1065.841 .0238679
1066.421 .0238605
1067.001 .0238552
1067.581 .0238508
1068.161 .0238475
1068.741 .0238433
1069.321 .0238384
1069.901 .0238346
1070.482 .0238313
1071.062 .0238293
1071.642 .0238299
1072.222 .0238336
1072.803 .0238399
1073.383 .0238503
1073.963 .0238629
1074.544 .0238758
1075.124 .0238896
1075.705 .0239019
1076.286 .0239116
1076.866 .0239193
1077.447 .0239246
1078.028 .0239259
1078.609 .0239251
1079.190 .0239218
1079.771 .0239153
1080.352 .0239079
1080.934 .0239007
1081.515 .0238934
1082.097 .0238880
1082.679 .0238851
1083.260 .0238840
1083.842 .0238852
1084.424 .0238866
1085.007 .0238848
1085.589 .0238817
1086.172 .0238772
1086.754 .0238697
1087.337 .0238613
1087.920 .0238539
1088.503 .0238481
1089.087 .0238457
1089.670 .0238459
1090.254 .0238470
1090.838 .0238479
1091.422 .0238481
1092.006 .0238447
1092.590 .0238362
1093.175 .0238229
1093.760 .0238059
1094.345 .0237856
1094.930 .0237641
1095.516 .0237414
1096.102 .0237200
1096.688 .0237032
1097.274 .0236903
1097.860 .0236806
1098.447 .0236735
1099.034 .0236693
1099.622 .0236673
1100.209 .0236668
1100.797 .0236680
1101.385 .0236708
1101.973 .0236745
1102.562 .0236801
1103.151 .0236843
1103.740 .0236866
1104.330 .0236879
1104.920 .0236878
1105.510 .0236871
1106.101 .0236860
1106.691 .0236848
1107.283 .0236868
1107.874 .0236904
1108.466 .0236962
1109.058 .0237037
1109.651 .0237127
1110.244 .0237225
1110.837 .0237300
1111.431 .0237350
1112.025 .0237382
1112.620 .0237402
1113.215 .0237418
1113.810 .0237429
1114.406 .0237471
1115.002 .0237521
1115.599 .0237573
1116.196 .0237610
1116.793 .0237606
1117.391 .0237554
1117.989 .0237474
1118.588 .0237362
1119.187 .0237204
1119.787 .0237032
1120.387 .0236853
1120.988 .0236698
1121.589 .0236569
1122.190 .0236466
1122.793 .0236401
1123.395 .0236402
1123.998 .0236460
1124.602 .0236561
1125.206 .0236734
1125.811 .0236970
1126.416 .0237255
1127.022 .0237573
1127.628 .0237902
1128.235 .0238254
1128.843 .0238620
1129.451 .0239047
1130.059 .0239503
1130.669 .0240032
1131.278 .0240618
1131.889 .0241276
1132.500 .0242006
1133.112 .0242757
1133.724 .0243515
1134.337 .0244267
1134.950 .0244981
1135.564 .0245656
1136.179 .0246252
1136.795 .0246804
1137.411 .0247300
1138.028 .0247769
1138.645 .0248218
1139.263 .0248674
1139.882 .0249073
1140.502 .0249360
1141.122 .0249552
1141.743 .0249564
1142.365 .0249361
1142.987 .0249916
1143.611 .0248160
1144.235 .0248762
1144.859 .0246570
1145.485 .0245271
