Measurement Sequence started on: 10-20-44-796
Integration time: 35
Scans to Average: 2 
>>>>>Begin Spectral Data<<<<<
432.953 .0423261
433.882 .0447886
434.810 .0435723
435.737 .0412632
436.662 .0405451
437.586 .0409317
438.509 .0405963
439.431 .0402907
440.351 .0401093
441.269 .0400483
442.187 .0400228
443.103 .0400084
444.018 .0400080
444.932 .0400167
445.844 .0400214
446.756 .0400292
447.666 .0400388
448.575 .0400413
449.482 .0400519
450.388 .0400627
451.294 .0400603
452.198 .0400575
453.100 .0400519
454.002 .0400452
454.902 .0400376
455.801 .0400366
456.699 .0400385
457.596 .0400426
458.492 .0400428
459.387 .0400342
460.280 .0400266
461.172 .0400149
462.064 .0399949
462.954 .0399692
463.843 .0399340
464.730 .0398968
465.617 .0398532
466.503 .0398081
467.387 .0397618
468.271 .0397155
469.153 .0396637
470.035 .0396035
470.915 .0395370
471.794 .0394661
472.673 .0393860
473.550 .0393044
474.426 .0392243
475.301 .0391442
476.175 .0390679
477.048 .0389953
477.920 .0389243
478.791 .0388535
479.661 .0387786
480.530 .0386999
481.398 .0386150
482.266 .0385275
483.132 .0384378
483.997 .0383512
484.861 .0382762
485.724 .0382137
486.587 .0381594
487.448 .0381176
488.308 .0380837
489.168 .0380536
490.026 .0380223
490.884 .0379893
491.741 .0379546
492.597 .0379200
493.452 .0378865
494.306 .0378569
495.159 .0378329
496.011 .0378165
496.862 .0378030
497.713 .0377893
498.562 .0377688
499.411 .0377369
500.259 .0376893
501.106 .0376270
501.952 .0375531
502.798 .0374721
503.642 .0373830
504.486 .0372909
505.329 .0371987
506.171 .0371035
507.012 .0370052
507.852 .0369080
508.692 .0368092
509.531 .0367062
510.369 .0366013
511.206 .0364917
512.043 .0363798
512.878 .0362655
513.713 .0361509
514.547 .0360338
515.381 .0359216
516.213 .0358100
517.045 .0356954
517.876 .0355854
518.706 .0354829
519.536 .0353805
520.365 .0352832
521.193 .0351846
522.020 .0350825
522.847 .0349681
523.673 .0348483
524.498 .0347203
525.323 .0345832
526.146 .0344408
526.969 .0342950
527.792 .0341436
528.614 .0339923
529.435 .0338340
530.255 .0336751
531.075 .0335106
531.894 .0333419
532.712 .0331611
533.530 .0329718
534.347 .0327880
535.163 .0326103
535.979 .0324408
536.794 .0322938
537.608 .0321708
538.422 .0320712
539.235 .0319905
540.048 .0319307
540.860 .0318821
541.671 .0318406
542.481 .0318014
543.292 .0317558
544.101 .0317048
544.910 .0316565
545.718 .0316094
546.526 .0315744
547.333 .0315578
548.139 .0315561
548.945 .0315656
549.750 .0315872
550.555 .0316135
551.359 .0316362
552.162 .0316553
552.965 .0316742
553.768 .0316884
554.569 .0317060
555.371 .0317299
556.171 .0317632
556.972 .0318095
557.771 .0318656
558.570 .0319218
559.369 .0319802
560.167 .0320360
560.964 .0320866
561.761 .0321320
562.558 .0321800
563.354 .0322322
564.149 .0322906
564.944 .0323562
565.738 .0324277
566.532 .0325042
567.325 .0325842
568.118 .0326617
568.910 .0327366
569.702 .0328067
570.494 .0328752
571.285 .0329436
572.075 .0330130
572.865 .0330845
573.654 .0331574
574.443 .0332295
575.232 .0332970
576.020 .0333591
576.807 .0334117
577.594 .0334544
578.381 .0334898
579.167 .0335182
579.952 .0335440
580.738 .0335704
581.522 .0335985
582.307 .0336289
583.091 .0336614
583.874 .0336943
584.657 .0337242
585.440 .0337507
586.222 .0337712
587.004 .0337854
587.785 .0337947
588.566 .0337995
589.346 .0338009
590.126 .0338011
590.906 .0338010
591.685 .0338005
592.464 .0338002
593.242 .0337973
594.020 .0337929
594.797 .0337868
595.575 .0337778
596.351 .0337661
597.128 .0337525
597.904 .0337364
598.679 .0337198
599.454 .0337025
600.229 .0336846
601.004 .0336662
601.778 .0336482
602.551 .0336287
603.325 .0336084
604.097 .0335869
604.870 .0335644
605.642 .0335408
606.414 .0335177
607.185 .0334926
607.956 .0334677
608.727 .0334431
609.497 .0334187
610.267 .0333937
611.037 .0333687
611.806 .0333425
612.575 .0333154
613.344 .0332870
614.112 .0332573
614.880 .0332262
615.647 .0331952
616.414 .0331635
617.181 .0331323
617.948 .0331015
618.714 .0330719
619.480 .0330431
620.245 .0330158
621.011 .0329887
621.775 .0329621
622.540 .0329365
623.304 .0329120
624.068 .0328890
624.832 .0328671
625.595 .0328463
626.358 .0328273
627.120 .0328098
627.883 .0327935
628.645 .0327777
629.406 .0327632
630.168 .0327485
630.929 .0327341
631.689 .0327188
632.450 .0327021
633.210 .0326840
633.970 .0326644
634.729 .0326431
635.489 .0326200
636.248 .0325958
637.006 .0325716
637.765 .0325474
638.523 .0325240
639.280 .0325005
640.038 .0324774
640.795 .0324539
641.552 .0324303
642.309 .0324057
643.065 .0323813
643.821 .0323573
644.577 .0323340
645.332 .0323123
646.088 .0322925
646.843 .0322742
647.597 .0322572
648.352 .0322407
649.106 .0322241
649.860 .0322058
650.613 .0321861
651.367 .0321652
652.120 .0321445
652.872 .0321238
653.625 .0321042
654.377 .0320858
655.129 .0320689
655.881 .0320529
656.632 .0320365
657.384 .0320195
658.135 .0320017
658.885 .0319823
659.636 .0319614
660.386 .0319395
661.136 .0319178
661.885 .0318967
662.635 .0318768
663.384 .0318581
664.133 .0318399
664.881 .0318218
665.630 .0318031
666.378 .0317828
667.126 .0317613
667.874 .0317380
668.621 .0317131
669.368 .0316869
670.115 .0316597
670.862 .0316321
671.608 .0316050
672.354 .0315794
673.100 .0315552
673.846 .0315321
674.591 .0315106
675.337 .0314906
676.082 .0314715
676.826 .0314529
677.571 .0314344
678.315 .0314154
679.059 .0313953
679.803 .0313742
680.547 .0313522
681.290 .0313299
682.033 .0313076
682.776 .0312858
683.518 .0312638
684.261 .0312414
685.003 .0312182
685.745 .0311933
686.487 .0311662
687.228 .0311366
687.969 .0311032
688.710 .0310676
689.451 .0310301
690.192 .0309918
690.932 .0309530
691.672 .0309156
692.412 .0308796
693.152 .0308450
693.891 .0308111
694.630 .0307784
695.369 .0307456
696.108 .0307133
696.846 .0306802
697.585 .0306469
698.323 .0306136
699.061 .0305815
699.798 .0305503
700.536 .0305213
701.273 .0304942
702.010 .0304691
702.746 .0304453
703.483 .0304231
704.219 .0304020
704.955 .0303810
705.691 .0303598
706.427 .0303385
707.162 .0303163
707.897 .0302941
708.632 .0302718
709.367 .0302505
710.101 .0302303
710.835 .0302112
711.569 .0301930
712.303 .0301756
713.037 .0301588
713.770 .0301416
714.503 .0301236
715.236 .0301048
715.969 .0300848
716.702 .0300638
717.434 .0300426
718.166 .0300219
718.898 .0300019
719.629 .0299828
720.361 .0299646
721.092 .0299467
721.823 .0299290
722.554 .0299110
723.284 .0298926
724.014 .0298734
724.744 .0298532
725.474 .0298321
726.204 .0298106
726.933 .0297894
727.662 .0297683
728.391 .0297480
729.120 .0297287
729.849 .0297110
730.577 .0296944
731.305 .0296790
732.033 .0296649
732.760 .0296516
733.488 .0296391
734.215 .0296267
734.942 .0296145
735.669 .0296023
736.395 .0295900
737.122 .0295780
737.848 .0295659
738.573 .0295542
739.299 .0295432
740.024 .0295327
740.750 .0295231
741.474 .0295138
742.199 .0295042
742.924 .0294944
743.648 .0294844
744.372 .0294740
745.096 .0294639
745.819 .0294541
746.543 .0294455
747.266 .0294382
747.989 .0294328
748.711 .0294290
749.434 .0294270
750.156 .0294267
750.878 .0294275
751.599 .0294289
752.321 .0294309
753.042 .0294332
753.763 .0294359
754.484 .0294393
755.205 .0294422
755.925 .0294446
756.645 .0294462
757.365 .0294466
758.085 .0294453
758.804 .0294418
759.523 .0294358
760.242 .0294276
760.961 .0294173
761.679 .0294051
762.397 .0293913
763.115 .0293765
763.833 .0293601
764.551 .0293419
765.268 .0293221
765.985 .0293007
766.702 .0292777
767.418 .0292541
768.134 .0292304
768.850 .0292071
769.566 .0291850
770.282 .0291644
770.997 .0291456
771.712 .0291283
772.427 .0291119
773.142 .0290952
773.856 .0290784
774.570 .0290607
775.284 .0290418
775.998 .0290223
776.711 .0290029
777.424 .0289837
778.137 .0289647
778.849 .0289465
779.562 .0289291
780.274 .0289123
780.986 .0288959
781.697 .0288793
782.409 .0288628
783.120 .0288463
783.831 .0288299
784.541 .0288139
785.252 .0287989
785.962 .0287847
786.671 .0287712
787.381 .0287586
788.090 .0287462
788.799 .0287336
789.508 .0287204
790.217 .0287064
790.925 .0286915
791.633 .0286755
792.341 .0286584
793.048 .0286403
793.755 .0286214
794.462 .0286012
795.169 .0285798
795.875 .0285579
796.581 .0285357
797.287 .0285131
797.993 .0284902
798.698 .0284675
799.403 .0284450
800.108 .0284230
800.812 .0284018
801.517 .0283816
802.221 .0283620
802.924 .0283427
803.628 .0283236
804.331 .0283045
805.034 .0282859
805.736 .0282673
806.439 .0282491
807.141 .0282317
807.843 .0282150
808.544 .0281988
809.245 .0281829
809.946 .0281678
810.647 .0281529
811.347 .0281379
812.047 .0281230
812.747 .0281080
813.447 .0280930
814.146 .0280782
814.845 .0280641
815.543 .0280504
816.242 .0280373
816.940 .0280244
817.638 .0280114
818.335 .0279981
819.032 .0279843
819.729 .0279695
820.426 .0279543
821.122 .0279388
821.818 .0279227
822.514 .0279068
823.209 .0278909
823.905 .0278747
824.599 .0278584
825.294 .0278416
825.988 .0278238
826.682 .0278047
827.376 .0277847
828.069 .0277637
828.762 .0277417
829.455 .0277194
830.147 .0276966
830.840 .0276740
831.531 .0276516
832.223 .0276290
832.914 .0276070
833.605 .0275859
834.296 .0275655
834.986 .0275460
835.676 .0275277
836.366 .0275105
837.055 .0274940
837.744 .0274780
838.433 .0274625
839.121 .0274475
839.809 .0274328
840.497 .0274186
841.185 .0274054
841.872 .0273931
842.559 .0273816
843.245 .0273711
843.932 .0273617
844.617 .0273528
845.303 .0273438
845.988 .0273344
846.673 .0273244
847.358 .0273140
848.042 .0273029
848.726 .0272916
849.410 .0272812
850.093 .0272715
850.776 .0272627
851.459 .0272546
852.141 .0272471
852.823 .0272395
853.505 .0272316
854.186 .0272226
854.867 .0272125
855.548 .0272014
856.228 .0271897
856.908 .0271779
857.588 .0271669
858.267 .0271567
858.946 .0271476
859.625 .0271397
860.303 .0271325
860.981 .0271256
861.659 .0271191
862.336 .0271122
863.013 .0271056
863.690 .0270987
864.366 .0270922
865.042 .0270860
865.718 .0270806
866.393 .0270758
867.068 .0270710
867.743 .0270661
868.417 .0270603
869.091 .0270531
869.765 .0270445
870.438 .0270341
871.111 .0270231
871.783 .0270112
872.456 .0269991
873.127 .0269870
873.799 .0269751
874.470 .0269635
875.141 .0269527
875.811 .0269422
876.481 .0269325
877.151 .0269243
877.820 .0269176
878.489 .0269127
879.158 .0269100
879.826 .0269092
880.494 .0269101
881.162 .0269120
881.829 .0269145
882.496 .0269162
883.163 .0269176
883.829 .0269181
884.495 .0269179
885.160 .0269178
885.825 .0269178
886.490 .0269182
887.154 .0269194
887.818 .0269211
888.482 .0269226
889.145 .0269239
889.808 .0269247
890.471 .0269245
891.133 .0269233
891.795 .0269215
892.456 .0269194
893.117 .0269176
893.778 .0269166
894.439 .0269161
895.099 .0269164
895.758 .0269175
896.417 .0269185
897.076 .0269195
897.735 .0269202
898.393 .0269199
899.051 .0269189
899.708 .0269171
900.365 .0269147
901.022 .0269120
901.678 .0269091
902.334 .0269063
902.990 .0269040
903.645 .0269022
904.300 .0269009
904.954 .0268999
905.608 .0268990
906.262 .0268978
906.915 .0268962
907.568 .0268940
908.221 .0268909
908.873 .0268874
909.525 .0268832
910.176 .0268779
910.828 .0268718
911.478 .0268647
912.129 .0268562
912.778 .0268470
913.428 .0268368
914.077 .0268258
914.726 .0268144
915.375 .0268028
916.023 .0267919
916.670 .0267819
917.318 .0267731
917.964 .0267646
918.611 .0267566
919.257 .0267489
919.903 .0267403
920.548 .0267315
921.193 .0267230
921.838 .0267150
922.482 .0267077
923.126 .0267015
923.770 .0266961
924.413 .0266920
925.056 .0266889
925.698 .0266862
926.340 .0266836
926.982 .0266808
927.623 .0266771
928.264 .0266725
928.904 .0266677
929.544 .0266624
930.184 .0266566
930.823 .0266513
931.462 .0266453
932.101 .0266388
932.739 .0266312
933.377 .0266224
934.014 .0266118
934.651 .0265995
935.288 .0265851
935.924 .0265690
936.560 .0265521
937.196 .0265346
937.831 .0265167
938.466 .0264993
939.100 .0264818
939.734 .0264641
940.368 .0264458
941.001 .0264269
941.634 .0264072
942.266 .0263874
942.899 .0263677
943.530 .0263489
944.162 .0263310
944.793 .0263144
945.423 .0262990
946.053 .0262843
946.683 .0262696
947.313 .0262542
947.942 .0262373
948.571 .0262186
949.199 .0261981
949.827 .0261763
950.455 .0261538
951.082 .0261317
951.709 .0261098
952.335 .0260886
952.961 .0260678
953.587 .0260469
954.212 .0260252
954.837 .0260030
955.462 .0259802
956.086 .0259569
956.710 .0259341
957.334 .0259120
957.957 .0258909
958.579 .0258715
959.202 .0258531
959.824 .0258348
960.445 .0258162
961.067 .0257965
961.688 .0257759
962.308 .0257544
962.928 .0257324
963.548 .0257105
964.168 .0256892
964.787 .0256688
965.406 .0256492
966.024 .0256308
966.642 .0256131
967.260 .0255958
967.877 .0255787
968.494 .0255609
969.110 .0255425
969.727 .0255237
970.342 .0255047
970.958 .0254860
971.573 .0254685
972.188 .0254520
972.802 .0254369
973.416 .0254235
974.030 .0254112
974.643 .0253997
975.256 .0253888
975.869 .0253776
976.481 .0253658
977.093 .0253536
977.705 .0253413
978.316 .0253287
978.927 .0253172
979.538 .0253066
980.148 .0252970
980.758 .0252888
981.367 .0252817
981.977 .0252753
982.586 .0252692
983.194 .0252629
983.802 .0252557
984.410 .0252470
985.018 .0252369
985.625 .0252250
986.232 .0252117
986.838 .0251971
987.445 .0251810
988.050 .0251637
988.656 .0251458
989.261 .0251274
989.866 .0251079
990.471 .0250879
991.075 .0250671
991.679 .0250460
992.282 .0250244
992.886 .0250029
993.489 .0249817
994.091 .0249615
994.694 .0249429
995.296 .0249257
995.897 .0249103
996.499 .0248973
997.100 .0248854
997.701 .0248750
998.301 .0248656
998.901 .0248569
999.501 .0248488
1000.101 .0248422
1000.700 .0248367
1001.299 .0248323
1001.898 .0248286
1002.496 .0248252
1003.094 .0248215
1003.692 .0248177
1004.289 .0248123
1004.887 .0248053
1005.484 .0247968
1006.080 .0247867
1006.677 .0247747
1007.273 .0247624
1007.868 .0247496
1008.464 .0247372
1009.059 .0247253
1009.654 .0247139
1010.249 .0247030
1010.843 .0246928
1011.437 .0246836
1012.031 .0246752
1012.625 .0246673
1013.218 .0246599
1013.811 .0246527
1014.404 .0246464
1014.997 .0246409
1015.589 .0246361
1016.181 .0246316
1016.773 .0246272
1017.365 .0246227
1017.956 .0246175
1018.547 .0246114
1019.138 .0246049
1019.728 .0245978
1020.319 .0245897
1020.909 .0245807
1021.499 .0245704
1022.088 .0245594
1022.678 .0245486
1023.267 .0245378
1023.856 .0245270
1024.445 .0245164
1025.033 .0245069
1025.621 .0244976
1026.209 .0244898
1026.797 .0244834
1027.385 .0244784
1027.972 .0244754
1028.560 .0244736
1029.147 .0244723
1029.734 .0244719
1030.320 .0244718
1030.907 .0244715
1031.493 .0244707
1032.079 .0244698
1032.665 .0244682
1033.250 .0244665
1033.836 .0244658
1034.421 .0244658
1035.006 .0244665
1035.591 .0244687
1036.176 .0244709
1036.761 .0244731
1037.345 .0244743
1037.929 .0244738
1038.514 .0244716
1039.097 .0244680
1039.681 .0244639
1040.265 .0244596
1040.848 .0244569
1041.432 .0244563
1042.015 .0244570
1042.598 .0244592
1043.181 .0244623
1043.764 .0244642
1044.346 .0244642
1044.929 .0244609
1045.511 .0244547
1046.094 .0244468
1046.676 .0244377
1047.258 .0244294
1047.840 .0244234
1048.422 .0244204
1049.003 .0244195
1049.585 .0244197
1050.166 .0244215
1050.748 .0244224
1051.329 .0244219
1051.910 .0244197
1052.491 .0244155
1053.072 .0244101
1053.653 .0244043
1054.234 .0243999
1054.815 .0243975
1055.396 .0243972
1055.976 .0243993
1056.557 .0244025
1057.138 .0244070
1057.718 .0244110
1058.298 .0244140
1058.879 .0244164
1059.459 .0244187
1060.039 .0244189
1060.620 .0244178
1061.200 .0244159
1061.780 .0244131
1062.360 .0244088
1062.940 .0244047
1063.520 .0243998
1064.101 .0243946
1064.681 .0243897
1065.261 .0243841
1065.841 .0243763
1066.421 .0243678
1067.001 .0243566
1067.581 .0243437
1068.161 .0243289
1068.741 .0243132
1069.321 .0242960
1069.901 .0242810
1070.482 .0242682
1071.062 .0242575
1071.642 .0242497
1072.222 .0242454
1072.803 .0242423
1073.383 .0242425
1073.963 .0242440
1074.544 .0242468
1075.124 .0242506
1075.705 .0242560
1076.286 .0242621
1076.866 .0242695
1077.447 .0242773
1078.028 .0242866
1078.609 .0242960
1079.190 .0243057
1079.771 .0243137
1080.352 .0243207
1080.934 .0243264
1081.515 .0243316
1082.097 .0243367
1082.679 .0243424
1083.260 .0243482
1083.842 .0243557
1084.424 .0243650
1085.007 .0243758
1085.589 .0243873
1086.172 .0243974
1086.754 .0244065
1087.337 .0244129
1087.920 .0244155
1088.503 .0244142
1089.087 .0244079
1089.670 .0243976
1090.254 .0243830
1090.838 .0243653
1091.422 .0243462
1092.006 .0243275
1092.590 .0243119
1093.175 .0243006
1093.760 .0242942
1094.345 .0242908
1094.930 .0242907
1095.516 .0242929
1096.102 .0242970
1096.688 .0242996
1097.274 .0243017
1097.860 .0243028
1098.447 .0243044
1099.034 .0243077
1099.622 .0243126
1100.209 .0243219
1100.797 .0243367
1101.385 .0243547
1101.973 .0243766
1102.562 .0243994
1103.151 .0244227
1103.740 .0244443
1104.330 .0244640
1104.920 .0244797
1105.510 .0244942
1106.101 .0245099
1106.691 .0245251
1107.283 .0245424
1107.874 .0245649
1108.466 .0245906
1109.058 .0246205
1109.651 .0246540
1110.244 .0246881
1110.837 .0247204
1111.431 .0247506
1112.025 .0247733
1112.620 .0247894
1113.215 .0248011
1113.810 .0248066
1114.406 .0248088
1115.002 .0248096
1115.599 .0248078
1116.196 .0248038
1116.793 .0248019
1117.391 .0248007
1117.989 .0247956
1118.588 .0247893
1119.187 .0247816
1119.787 .0247722
1120.387 .0247629
1120.988 .0247571
1121.589 .0247566
1122.190 .0247637
1122.793 .0247771
1123.395 .0247921
1123.998 .0248124
1124.602 .0248374
1125.206 .0248647
1125.811 .0248935
1126.416 .0249267
1127.022 .0249621
1127.628 .0250009
1128.235 .0250473
1128.843 .0250978
1129.451 .0251509
1130.059 .0252059
1130.669 .0252589
1131.278 .0253075
1131.889 .0253491
1132.500 .0253846
1133.112 .0254163
1133.724 .0254483
1134.337 .0254785
1134.950 .0255075
1135.564 .0255428
1136.179 .0255854
1136.795 .0256327
1137.411 .0256880
1138.028 .0257491
1138.645 .0258206
1139.263 .0259019
1139.882 .0259892
1140.502 .0260911
1141.122 .0262028
1141.743 .0263303
1142.365 .0264638
1142.987 .0265290
1143.611 .0268316
1144.235 .0268459
1144.859 .0271229
1145.485 .0271804
