Measurement Sequence started on: 10-20-44-796
Integration time: 35
Scans to Average: 2 
>>>>>Begin Spectral Data<<<<<
432.953 .0309032
433.882 .0360270
434.810 .0376541
435.737 .0344519
436.662 .0356528
437.586 .0361589
438.509 .0364032
439.431 .0364537
440.351 .0364423
441.269 .0365000
442.187 .0365031
443.103 .0364813
444.018 .0364766
444.932 .0364917
445.844 .0365004
446.756 .0364824
447.666 .0364407
448.575 .0363632
449.482 .0362518
450.388 .0361317
451.294 .0359979
452.198 .0358788
453.100 .0357830
454.002 .0357188
454.902 .0356780
455.801 .0356611
456.699 .0356576
457.596 .0356475
458.492 .0356231
459.387 .0355789
460.280 .0355128
461.172 .0354292
462.064 .0353351
462.954 .0352387
463.843 .0351427
464.730 .0350598
465.617 .0349858
466.503 .0349199
467.387 .0348591
468.271 .0348007
469.153 .0347386
470.035 .0346713
470.915 .0346005
471.794 .0345219
472.673 .0344452
473.550 .0343748
474.426 .0343098
475.301 .0342535
476.175 .0342060
477.048 .0341678
477.920 .0341304
478.791 .0340977
479.661 .0340667
480.530 .0340359
481.398 .0340071
482.266 .0339774
483.132 .0339495
483.997 .0339277
484.861 .0339098
485.724 .0338973
486.587 .0338928
487.448 .0338936
488.308 .0338956
489.168 .0338988
490.026 .0339041
490.884 .0339093
491.741 .0339139
492.597 .0339182
493.452 .0339218
494.306 .0339244
495.159 .0339232
496.011 .0339172
496.862 .0339093
497.713 .0338940
498.562 .0338667
499.411 .0338280
500.259 .0337780
501.106 .0337161
501.952 .0336459
502.798 .0335672
503.642 .0334840
504.486 .0333977
505.329 .0333085
506.171 .0332180
507.012 .0331302
507.852 .0330420
508.692 .0329519
509.531 .0328649
510.369 .0327774
511.206 .0326893
512.043 .0326015
512.878 .0325114
513.713 .0324197
514.547 .0323232
515.381 .0322204
516.213 .0321088
517.045 .0319935
517.876 .0318719
518.706 .0317386
519.536 .0316026
520.365 .0314558
521.193 .0312958
522.020 .0311271
522.847 .0309450
523.673 .0307492
524.498 .0305423
525.323 .0303234
526.146 .0300977
526.969 .0298752
527.792 .0296635
528.614 .0294605
529.435 .0292739
530.255 .0291041
531.075 .0289387
531.894 .0287800
532.712 .0286215
533.530 .0284583
534.347 .0282969
535.163 .0281399
535.979 .0279911
536.794 .0278585
537.608 .0277452
538.422 .0276547
539.235 .0275792
540.048 .0275165
540.860 .0274580
541.671 .0274020
542.481 .0273506
543.292 .0273054
544.101 .0272696
544.910 .0272535
545.718 .0272601
546.526 .0272937
547.333 .0273504
548.139 .0274237
548.945 .0275093
549.750 .0275976
550.555 .0276879
551.359 .0277721
552.162 .0278464
552.965 .0279195
553.768 .0279914
554.569 .0280656
555.371 .0281414
556.171 .0282193
556.972 .0283017
557.771 .0283832
558.570 .0284573
559.369 .0285173
560.167 .0285656
560.964 .0286043
561.761 .0286325
562.558 .0286577
563.354 .0286881
564.149 .0287274
564.944 .0287771
565.738 .0288424
566.532 .0289174
567.325 .0290005
568.118 .0290854
568.910 .0291685
569.702 .0292470
570.494 .0293224
571.285 .0293967
572.075 .0294753
572.865 .0295623
573.654 .0296576
574.443 .0297544
575.232 .0298540
576.020 .0299525
576.807 .0300438
577.594 .0301226
578.381 .0301916
579.167 .0302495
579.952 .0303003
580.738 .0303470
581.522 .0303935
582.307 .0304419
583.091 .0304926
583.874 .0305419
584.657 .0305874
585.440 .0306271
586.222 .0306607
587.004 .0306875
587.785 .0307093
588.566 .0307279
589.346 .0307433
590.126 .0307576
590.906 .0307709
591.685 .0307845
592.464 .0307970
593.242 .0308060
594.020 .0308124
594.797 .0308160
595.575 .0308153
596.351 .0308122
597.128 .0308078
597.904 .0308019
598.679 .0307951
599.454 .0307867
600.229 .0307769
601.004 .0307662
601.778 .0307554
602.551 .0307444
603.325 .0307334
604.097 .0307243
604.870 .0307147
605.642 .0307052
606.414 .0306964
607.185 .0306861
607.956 .0306746
608.727 .0306622
609.497 .0306485
610.267 .0306334
611.037 .0306177
611.806 .0306019
612.575 .0305857
613.344 .0305690
614.112 .0305515
614.880 .0305324
615.647 .0305113
616.414 .0304885
617.181 .0304637
617.948 .0304387
618.714 .0304136
619.480 .0303894
620.245 .0303664
621.011 .0303446
621.775 .0303238
622.540 .0303031
623.304 .0302816
624.068 .0302601
624.832 .0302372
625.595 .0302141
626.358 .0301911
627.120 .0301693
627.883 .0301476
628.645 .0301276
629.406 .0301078
630.168 .0300880
630.929 .0300677
631.689 .0300467
632.450 .0300241
633.210 .0300007
633.970 .0299760
634.729 .0299504
635.489 .0299242
636.248 .0298980
637.006 .0298701
637.765 .0298420
638.523 .0298134
639.280 .0297846
640.038 .0297553
640.795 .0297270
641.552 .0296990
642.309 .0296724
643.065 .0296467
643.821 .0296214
644.577 .0295967
645.332 .0295731
646.088 .0295494
646.843 .0295257
647.597 .0295021
648.352 .0294797
649.106 .0294582
649.860 .0294391
650.613 .0294215
651.367 .0294054
652.120 .0293904
652.872 .0293759
653.625 .0293608
654.377 .0293451
655.129 .0293280
655.881 .0293094
656.632 .0292899
657.384 .0292696
658.135 .0292487
658.885 .0292283
659.636 .0292089
660.386 .0291902
661.136 .0291714
661.885 .0291527
662.635 .0291337
663.384 .0291145
664.133 .0290948
664.881 .0290743
665.630 .0290538
666.378 .0290342
667.126 .0290155
667.874 .0289981
668.621 .0289821
669.368 .0289677
670.115 .0289541
670.862 .0289402
671.608 .0289261
672.354 .0289120
673.100 .0288976
673.846 .0288833
674.591 .0288691
675.337 .0288554
676.082 .0288429
676.826 .0288316
677.571 .0288215
678.315 .0288124
679.059 .0288044
679.803 .0287964
680.547 .0287882
681.290 .0287793
682.033 .0287691
682.776 .0287574
683.518 .0287448
684.261 .0287309
685.003 .0287161
685.745 .0287011
686.487 .0286866
687.228 .0286731
687.969 .0286603
688.710 .0286474
689.451 .0286345
690.192 .0286208
690.932 .0286060
691.672 .0285894
692.412 .0285716
693.152 .0285532
693.891 .0285349
694.630 .0285172
695.369 .0285001
696.108 .0284841
696.846 .0284688
697.585 .0284532
698.323 .0284369
699.061 .0284193
699.798 .0283999
700.536 .0283793
701.273 .0283577
702.010 .0283364
702.746 .0283157
703.483 .0282963
704.219 .0282782
704.955 .0282618
705.691 .0282466
706.427 .0282324
707.162 .0282187
707.897 .0282059
708.632 .0281935
709.367 .0281818
710.101 .0281702
710.835 .0281590
711.569 .0281476
712.303 .0281359
713.037 .0281237
713.770 .0281110
714.503 .0280968
715.236 .0280819
715.969 .0280662
716.702 .0280499
717.434 .0280332
718.166 .0280158
718.898 .0279974
719.629 .0279788
720.361 .0279595
721.092 .0279395
721.823 .0279190
722.554 .0278992
723.284 .0278794
724.014 .0278598
724.744 .0278400
725.474 .0278196
726.204 .0277991
726.933 .0277782
727.662 .0277558
728.391 .0277324
729.120 .0277085
729.849 .0276844
730.577 .0276603
731.305 .0276365
732.033 .0276130
732.760 .0275898
733.488 .0275668
734.215 .0275436
734.942 .0275198
735.669 .0274961
736.395 .0274728
737.122 .0274502
737.848 .0274287
738.573 .0274083
739.299 .0273891
740.024 .0273715
740.750 .0273546
741.474 .0273381
742.199 .0273210
742.924 .0273038
743.648 .0272861
744.372 .0272677
745.096 .0272497
745.819 .0272324
746.543 .0272160
747.266 .0272010
747.989 .0271872
748.711 .0271743
749.434 .0271624
750.156 .0271517
750.878 .0271415
751.599 .0271320
752.321 .0271233
753.042 .0271154
753.763 .0271078
754.484 .0271008
755.205 .0270937
755.925 .0270865
756.645 .0270788
757.365 .0270699
758.085 .0270595
758.804 .0270481
759.523 .0270351
760.242 .0270207
760.961 .0270048
761.679 .0269881
762.397 .0269695
763.115 .0269499
763.833 .0269286
764.551 .0269065
765.268 .0268832
765.985 .0268596
766.702 .0268357
767.418 .0268122
768.134 .0267893
768.850 .0267673
769.566 .0267463
770.282 .0267264
770.997 .0267066
771.712 .0266877
772.427 .0266690
773.142 .0266511
773.856 .0266338
774.570 .0266175
775.284 .0266024
775.998 .0265887
776.711 .0265757
777.424 .0265634
778.137 .0265517
778.849 .0265397
779.562 .0265269
780.274 .0265132
780.986 .0264989
781.697 .0264844
782.409 .0264699
783.120 .0264564
783.831 .0264440
784.541 .0264332
785.252 .0264232
785.962 .0264137
786.671 .0264041
787.381 .0263936
788.090 .0263821
788.799 .0263693
789.508 .0263556
790.217 .0263414
790.925 .0263272
791.633 .0263132
792.341 .0263000
793.048 .0262870
793.755 .0262741
794.462 .0262611
795.169 .0262479
795.875 .0262344
796.581 .0262207
797.287 .0262072
797.993 .0261941
798.698 .0261817
799.403 .0261701
800.108 .0261589
800.812 .0261486
801.517 .0261390
802.221 .0261296
802.924 .0261206
803.628 .0261121
804.331 .0261042
805.034 .0260970
805.736 .0260902
806.439 .0260837
807.141 .0260776
807.843 .0260713
808.544 .0260646
809.245 .0260573
809.946 .0260497
810.647 .0260416
811.347 .0260339
812.047 .0260265
812.747 .0260193
813.447 .0260125
814.146 .0260061
814.845 .0260000
815.543 .0259945
816.242 .0259894
816.940 .0259847
817.638 .0259804
818.335 .0259766
819.032 .0259727
819.729 .0259688
820.426 .0259648
821.122 .0259604
821.818 .0259551
822.514 .0259485
823.209 .0259411
823.905 .0259329
824.599 .0259243
825.294 .0259146
825.988 .0259040
826.682 .0258929
827.376 .0258811
828.069 .0258686
828.762 .0258559
829.455 .0258431
830.147 .0258303
830.840 .0258177
831.531 .0258051
832.223 .0257929
832.914 .0257816
833.605 .0257708
834.296 .0257607
834.986 .0257511
835.676 .0257420
836.366 .0257330
837.055 .0257244
837.744 .0257162
838.433 .0257080
839.121 .0257004
839.809 .0256933
840.497 .0256868
841.185 .0256813
841.872 .0256765
842.559 .0256727
843.245 .0256695
843.932 .0256667
844.617 .0256634
845.303 .0256605
845.988 .0256573
846.673 .0256538
847.358 .0256502
848.042 .0256470
848.726 .0256442
849.410 .0256415
850.093 .0256387
850.776 .0256357
851.459 .0256316
852.141 .0256261
852.823 .0256186
853.505 .0256096
854.186 .0255990
854.867 .0255877
855.548 .0255759
856.228 .0255647
856.908 .0255540
857.588 .0255447
858.267 .0255363
858.946 .0255292
859.625 .0255226
860.303 .0255163
860.981 .0255106
861.659 .0255049
862.336 .0254987
863.013 .0254927
863.690 .0254869
864.366 .0254817
865.042 .0254768
865.718 .0254726
866.393 .0254686
867.068 .0254649
867.743 .0254603
868.417 .0254543
869.091 .0254465
869.765 .0254365
870.438 .0254240
871.111 .0254096
871.783 .0253935
872.456 .0253763
873.127 .0253592
873.799 .0253428
874.470 .0253266
875.141 .0253111
875.811 .0252958
876.481 .0252807
877.151 .0252657
877.820 .0252506
878.489 .0252360
879.158 .0252222
879.826 .0252092
880.494 .0251974
881.162 .0251869
881.829 .0251777
882.496 .0251691
883.163 .0251611
883.829 .0251535
884.495 .0251456
885.160 .0251380
885.825 .0251307
886.490 .0251240
887.154 .0251179
887.818 .0251118
888.482 .0251057
889.145 .0250996
889.808 .0250933
890.471 .0250859
891.133 .0250783
891.795 .0250709
892.456 .0250635
893.117 .0250563
893.778 .0250496
894.439 .0250432
895.099 .0250366
895.758 .0250302
896.417 .0250231
897.076 .0250150
897.735 .0250063
898.393 .0249963
899.051 .0249857
899.708 .0249744
900.365 .0249626
901.022 .0249503
901.678 .0249386
902.334 .0249269
902.990 .0249149
903.645 .0249030
904.300 .0248914
904.954 .0248799
905.608 .0248684
906.262 .0248572
906.915 .0248460
907.568 .0248352
908.221 .0248251
908.873 .0248151
909.525 .0248061
910.176 .0247976
910.828 .0247896
911.478 .0247821
912.129 .0247741
912.778 .0247659
913.428 .0247566
914.077 .0247464
914.726 .0247345
915.375 .0247209
916.023 .0247061
916.670 .0246907
917.318 .0246748
917.964 .0246587
918.611 .0246422
919.257 .0246252
919.903 .0246075
920.548 .0245890
921.193 .0245693
921.838 .0245491
922.482 .0245286
923.126 .0245085
923.770 .0244888
924.413 .0244709
925.056 .0244546
925.698 .0244409
926.340 .0244297
926.982 .0244202
927.623 .0244120
928.264 .0244051
928.904 .0243984
929.544 .0243917
930.184 .0243847
930.823 .0243768
931.462 .0243684
932.101 .0243597
932.739 .0243501
933.377 .0243405
934.014 .0243311
934.651 .0243217
935.288 .0243114
935.924 .0243007
936.560 .0242887
937.196 .0242753
937.831 .0242608
938.466 .0242445
939.100 .0242274
939.734 .0242095
940.368 .0241910
941.001 .0241728
941.634 .0241555
942.266 .0241389
942.899 .0241222
943.530 .0241054
944.162 .0240876
944.793 .0240678
945.423 .0240459
946.053 .0240219
946.683 .0239965
947.313 .0239704
947.942 .0239443
948.571 .0239186
949.199 .0238943
949.827 .0238708
950.455 .0238484
951.082 .0238268
951.709 .0238057
952.335 .0237841
952.961 .0237621
953.587 .0237406
954.212 .0237194
954.837 .0236986
955.462 .0236797
956.086 .0236625
956.710 .0236478
957.334 .0236345
957.957 .0236224
958.579 .0236114
959.202 .0236009
959.824 .0235896
960.445 .0235771
961.067 .0235637
961.688 .0235493
962.308 .0235341
962.928 .0235194
963.548 .0235051
964.168 .0234912
964.787 .0234781
965.406 .0234656
966.024 .0234532
966.642 .0234411
967.260 .0234288
967.877 .0234163
968.494 .0234035
969.110 .0233902
969.727 .0233761
970.342 .0233627
970.958 .0233501
971.573 .0233379
972.188 .0233266
972.802 .0233166
973.416 .0233072
974.030 .0232984
974.643 .0232901
975.256 .0232821
975.869 .0232740
976.481 .0232653
977.093 .0232560
977.705 .0232469
978.316 .0232381
978.927 .0232298
979.538 .0232223
980.148 .0232158
980.758 .0232104
981.367 .0232064
981.977 .0232036
982.586 .0232022
983.194 .0232018
983.802 .0232019
984.410 .0232026
985.018 .0232034
985.625 .0232042
986.232 .0232054
986.838 .0232070
987.445 .0232086
988.050 .0232100
988.656 .0232115
989.261 .0232124
989.866 .0232122
990.471 .0232107
991.075 .0232071
991.679 .0232017
992.282 .0231951
992.886 .0231874
993.489 .0231795
994.091 .0231726
994.694 .0231665
995.296 .0231619
995.897 .0231585
996.499 .0231558
997.100 .0231534
997.701 .0231520
998.301 .0231514
998.901 .0231518
999.501 .0231540
1000.101 .0231580
1000.700 .0231636
1001.299 .0231708
1001.898 .0231777
1002.496 .0231837
1003.094 .0231880
1003.692 .0231903
1004.289 .0231895
1004.887 .0231872
1005.484 .0231838
1006.080 .0231804
1006.677 .0231775
1007.273 .0231751
1007.868 .0231726
1008.464 .0231700
1009.059 .0231668
1009.654 .0231620
1010.249 .0231572
1010.843 .0231528
1011.437 .0231492
1012.031 .0231474
1012.625 .0231483
1013.218 .0231519
1013.811 .0231578
1014.404 .0231658
1014.997 .0231745
1015.589 .0231827
1016.181 .0231905
1016.773 .0231967
1017.365 .0232026
1017.956 .0232081
1018.547 .0232138
1019.138 .0232195
1019.728 .0232265
1020.319 .0232338
1020.909 .0232413
1021.499 .0232489
1022.088 .0232563
1022.678 .0232623
1023.267 .0232673
1023.856 .0232706
1024.445 .0232734
1025.033 .0232757
1025.621 .0232782
1026.209 .0232802
1026.797 .0232827
1027.385 .0232849
1027.972 .0232867
1028.560 .0232879
1029.147 .0232887
1029.734 .0232884
1030.320 .0232874
1030.907 .0232859
1031.493 .0232843
1032.079 .0232834
1032.665 .0232836
1033.250 .0232852
1033.836 .0232888
1034.421 .0232935
1035.006 .0232992
1035.591 .0233055
1036.176 .0233124
1036.761 .0233193
1037.345 .0233259
1037.929 .0233323
1038.514 .0233381
1039.097 .0233443
1039.681 .0233509
1040.265 .0233577
1040.848 .0233647
1041.432 .0233709
1042.015 .0233762
1042.598 .0233802
1043.181 .0233823
1043.764 .0233824
1044.346 .0233812
1044.929 .0233795
1045.511 .0233771
1046.094 .0233750
1046.676 .0233742
1047.258 .0233749
1047.840 .0233777
1048.422 .0233822
1049.003 .0233865
1049.585 .0233909
1050.166 .0233947
1050.748 .0233977
1051.329 .0234001
1051.910 .0234023
1052.491 .0234048
1053.072 .0234087
1053.653 .0234134
1054.234 .0234183
1054.815 .0234227
1055.396 .0234282
1055.976 .0234324
1056.557 .0234357
1057.138 .0234382
1057.718 .0234399
1058.298 .0234405
1058.879 .0234414
1059.459 .0234415
1060.039 .0234415
1060.620 .0234399
1061.200 .0234374
1061.780 .0234334
1062.360 .0234289
1062.940 .0234234
1063.520 .0234180
1064.101 .0234136
1064.681 .0234108
1065.261 .0234080
1065.841 .0234052
1066.421 .0234026
1067.001 .0234002
1067.581 .0233978
1068.161 .0233959
1068.741 .0233951
1069.321 .0233964
1069.901 .0233989
1070.482 .0234038
1071.062 .0234097
1071.642 .0234161
1072.222 .0234221
1072.803 .0234270
1073.383 .0234306
1073.963 .0234323
1074.544 .0234329
1075.124 .0234326
1075.705 .0234330
1076.286 .0234336
1076.866 .0234334
1077.447 .0234317
1078.028 .0234290
1078.609 .0234247
1079.190 .0234181
1079.771 .0234103
1080.352 .0234010
1080.934 .0233916
1081.515 .0233831
1082.097 .0233761
1082.679 .0233710
1083.260 .0233673
1083.842 .0233662
1084.424 .0233662
1085.007 .0233683
1085.589 .0233717
1086.172 .0233772
1086.754 .0233856
1087.337 .0233954
1087.920 .0234059
1088.503 .0234160
1089.087 .0234252
1089.670 .0234334
1090.254 .0234395
1090.838 .0234445
1091.422 .0234474
1092.006 .0234502
1092.590 .0234535
1093.175 .0234591
1093.760 .0234656
1094.345 .0234719
1094.930 .0234769
1095.516 .0234813
1096.102 .0234825
1096.688 .0234819
1097.274 .0234797
1097.860 .0234790
1098.447 .0234792
1099.034 .0234814
1099.622 .0234854
1100.209 .0234929
1100.797 .0235030
1101.385 .0235153
1101.973 .0235275
1102.562 .0235381
1103.151 .0235463
1103.740 .0235537
1104.330 .0235589
1104.920 .0235624
1105.510 .0235628
1106.101 .0235628
1106.691 .0235609
1107.283 .0235570
1107.874 .0235498
1108.466 .0235398
1109.058 .0235301
1109.651 .0235184
1110.244 .0235033
1110.837 .0234866
1111.431 .0234697
1112.025 .0234516
1112.620 .0234332
1113.215 .0234159
1113.810 .0233993
1114.406 .0233870
1115.002 .0233782
1115.599 .0233718
1116.196 .0233653
1116.793 .0233580
1117.391 .0233503
1117.989 .0233403
1118.588 .0233312
1119.187 .0233205
1119.787 .0233118
1120.387 .0233113
1120.988 .0233135
1121.589 .0233199
1122.190 .0233274
1122.793 .0233351
1123.395 .0233393
1123.998 .0233398
1124.602 .0233378
1125.206 .0233356
1125.811 .0233379
1126.416 .0233462
1127.022 .0233585
1127.628 .0233792
1128.235 .0234043
1128.843 .0234309
1129.451 .0234571
1130.059 .0234819
1130.669 .0235021
1131.278 .0235238
1131.889 .0235447
1132.500 .0235688
1133.112 .0235956
1133.724 .0236241
1134.337 .0236545
1134.950 .0236837
1135.564 .0237104
1136.179 .0237346
1136.795 .0237573
1137.411 .0237848
1138.028 .0238135
1138.645 .0238526
1139.263 .0238999
1139.882 .0239523
1140.502 .0240167
1141.122 .0240964
1141.743 .0241872
1142.365 .0242986
1142.987 .0241971
1143.611 .0244456
1144.235 .0247931
1144.859 .0248464
1145.485 .0251897
