Measurement Sequence started on: 10-20-44-796
Integration time: 35
Scans to Average: 2 
>>>>>Begin Spectral Data<<<<<
432.953 .0570074
433.882 .0501789
434.810 .0460725
435.737 .0448624
436.662 .0423121
437.586 .0433697
438.509 .0422398
439.431 .0415347
440.351 .0410780
441.269 .0407457
442.187 .0405387
443.103 .0403854
444.018 .0402875
444.932 .0402086
445.844 .0401584
446.756 .0401135
447.666 .0400677
448.575 .0400140
449.482 .0399579
450.388 .0399081
451.294 .0398668
452.198 .0398312
453.100 .0397893
454.002 .0397528
454.902 .0397191
455.801 .0396690
456.699 .0396071
457.596 .0395347
458.492 .0394512
459.387 .0393558
460.280 .0392561
461.172 .0391530
462.064 .0390517
462.954 .0389547
463.843 .0388624
464.730 .0387742
465.617 .0386937
466.503 .0386120
467.387 .0385310
468.271 .0384514
469.153 .0383711
470.035 .0382857
470.915 .0382042
471.794 .0381236
472.673 .0380422
473.550 .0379652
474.426 .0378967
475.301 .0378363
476.175 .0377866
477.048 .0377480
477.920 .0377158
478.791 .0376893
479.661 .0376673
480.530 .0376466
481.398 .0376286
482.266 .0376129
483.132 .0376004
483.997 .0375898
484.861 .0375880
485.724 .0375940
486.587 .0376039
487.448 .0376180
488.308 .0376290
489.168 .0376312
490.026 .0376194
490.884 .0375912
491.741 .0375442
492.597 .0374832
493.452 .0374132
494.306 .0373333
495.159 .0372484
496.011 .0371634
496.862 .0370795
497.713 .0369923
498.562 .0369013
499.411 .0368015
500.259 .0366905
501.106 .0365745
501.952 .0364525
502.798 .0363318
503.642 .0362188
504.486 .0361181
505.329 .0360304
506.171 .0359556
507.012 .0358888
507.852 .0358222
508.692 .0357532
509.531 .0356756
510.369 .0355812
511.206 .0354733
512.043 .0353570
512.878 .0352362
513.713 .0351141
514.547 .0350001
515.381 .0348908
516.213 .0347861
517.045 .0346792
517.876 .0345651
518.706 .0344368
519.536 .0342907
520.365 .0341266
521.193 .0339443
522.020 .0337537
522.847 .0335558
523.673 .0333547
524.498 .0331586
525.323 .0329691
526.146 .0327825
526.969 .0325969
527.792 .0324157
528.614 .0322291
529.435 .0320416
530.255 .0318598
531.075 .0316800
531.894 .0315119
532.712 .0313566
533.530 .0312162
534.347 .0310884
535.163 .0309691
535.979 .0308628
536.794 .0307649
537.608 .0306777
538.422 .0306021
539.235 .0305362
540.048 .0304949
540.860 .0304739
541.671 .0304702
542.481 .0304875
543.292 .0305152
544.101 .0305521
544.910 .0305887
545.718 .0306239
546.526 .0306650
547.333 .0307117
548.139 .0307696
548.945 .0308406
549.750 .0309261
550.555 .0310261
551.359 .0311287
552.162 .0312360
552.965 .0313396
553.768 .0314290
554.569 .0315063
555.371 .0315706
556.171 .0316221
556.972 .0316698
557.771 .0317108
558.570 .0317514
559.369 .0317917
560.167 .0318279
560.964 .0318581
561.761 .0318827
562.558 .0319062
563.354 .0319287
564.149 .0319491
564.944 .0319780
565.738 .0320150
566.532 .0320594
567.325 .0321114
568.118 .0321695
568.910 .0322314
569.702 .0322923
570.494 .0323528
571.285 .0324129
572.075 .0324732
572.865 .0325351
573.654 .0325995
574.443 .0326667
575.232 .0327364
576.020 .0328064
576.807 .0328732
577.594 .0329385
578.381 .0329996
579.167 .0330536
579.952 .0331026
580.738 .0331472
581.522 .0331885
582.307 .0332257
583.091 .0332626
583.874 .0332992
584.657 .0333346
585.440 .0333691
586.222 .0334020
587.004 .0334325
587.785 .0334610
588.566 .0334865
589.346 .0335092
590.126 .0335282
590.906 .0335436
591.685 .0335569
592.464 .0335662
593.242 .0335733
594.020 .0335784
594.797 .0335814
595.575 .0335829
596.351 .0335825
597.128 .0335804
597.904 .0335757
598.679 .0335693
599.454 .0335600
600.229 .0335478
601.004 .0335340
601.778 .0335180
602.551 .0335000
603.325 .0334803
604.097 .0334592
604.870 .0334359
605.642 .0334112
606.414 .0333843
607.185 .0333548
607.956 .0333245
608.727 .0332932
609.497 .0332619
610.267 .0332305
611.037 .0332005
611.806 .0331710
612.575 .0331432
613.344 .0331162
614.112 .0330890
614.880 .0330617
615.647 .0330329
616.414 .0330033
617.181 .0329733
617.948 .0329425
618.714 .0329126
619.480 .0328842
620.245 .0328581
621.011 .0328330
621.775 .0328100
622.540 .0327880
623.304 .0327666
624.068 .0327450
624.832 .0327224
625.595 .0326980
626.358 .0326724
627.120 .0326453
627.883 .0326164
628.645 .0325871
629.406 .0325569
630.168 .0325258
630.929 .0324951
631.689 .0324636
632.450 .0324311
633.210 .0323977
633.970 .0323636
634.729 .0323279
635.489 .0322901
636.248 .0322507
637.006 .0322098
637.765 .0321693
638.523 .0321297
639.280 .0320918
640.038 .0320565
640.795 .0320251
641.552 .0319964
642.309 .0319711
643.065 .0319494
643.821 .0319300
644.577 .0319131
645.332 .0318985
646.088 .0318853
646.843 .0318737
647.597 .0318635
648.352 .0318549
649.106 .0318474
649.860 .0318405
650.613 .0318328
651.367 .0318240
652.120 .0318153
652.872 .0318059
653.625 .0317961
654.377 .0317867
655.129 .0317775
655.881 .0317682
656.632 .0317590
657.384 .0317491
658.135 .0317385
658.885 .0317271
659.636 .0317143
660.386 .0317000
661.136 .0316854
661.885 .0316713
662.635 .0316581
663.384 .0316465
664.133 .0316362
664.881 .0316264
665.630 .0316165
666.378 .0316064
667.126 .0315956
667.874 .0315837
668.621 .0315709
669.368 .0315569
670.115 .0315427
670.862 .0315282
671.608 .0315141
672.354 .0315010
673.100 .0314886
673.846 .0314767
674.591 .0314644
675.337 .0314517
676.082 .0314387
676.826 .0314252
677.571 .0314116
678.315 .0313977
679.059 .0313839
679.803 .0313702
680.547 .0313566
681.290 .0313430
682.033 .0313285
682.776 .0313124
683.518 .0312949
684.261 .0312748
685.003 .0312522
685.745 .0312274
686.487 .0312012
687.228 .0311740
687.969 .0311460
688.710 .0311172
689.451 .0310874
690.192 .0310563
690.932 .0310241
691.672 .0309896
692.412 .0309537
693.152 .0309165
693.891 .0308784
694.630 .0308404
695.369 .0308036
696.108 .0307678
696.846 .0307335
697.585 .0307003
698.323 .0306688
699.061 .0306375
699.798 .0306066
700.536 .0305755
701.273 .0305448
702.010 .0305147
702.746 .0304854
703.483 .0304567
704.219 .0304292
704.955 .0304026
705.691 .0303767
706.427 .0303509
707.162 .0303254
707.897 .0302997
708.632 .0302736
709.367 .0302470
710.101 .0302205
710.835 .0301934
711.569 .0301669
712.303 .0301405
713.037 .0301150
713.770 .0300896
714.503 .0300644
715.236 .0300395
715.969 .0300151
716.702 .0299916
717.434 .0299686
718.166 .0299464
718.898 .0299254
719.629 .0299052
720.361 .0298863
721.092 .0298675
721.823 .0298494
722.554 .0298309
723.284 .0298124
724.014 .0297931
724.744 .0297730
725.474 .0297521
726.204 .0297312
726.933 .0297102
727.662 .0296890
728.391 .0296675
729.120 .0296460
729.849 .0296247
730.577 .0296038
731.305 .0295821
732.033 .0295608
732.760 .0295397
733.488 .0295197
734.215 .0295010
734.942 .0294844
735.669 .0294696
736.395 .0294570
737.122 .0294464
737.848 .0294375
738.573 .0294295
739.299 .0294226
740.024 .0294164
740.750 .0294110
741.474 .0294063
742.199 .0294024
742.924 .0293991
743.648 .0293975
744.372 .0293964
745.096 .0293956
745.819 .0293947
746.543 .0293931
747.266 .0293911
747.989 .0293881
748.711 .0293846
749.434 .0293802
750.156 .0293757
750.878 .0293715
751.599 .0293681
752.321 .0293663
753.042 .0293658
753.763 .0293666
754.484 .0293684
755.205 .0293701
755.925 .0293715
756.645 .0293719
757.365 .0293712
758.085 .0293690
758.804 .0293653
759.523 .0293594
760.242 .0293514
760.961 .0293417
761.679 .0293305
762.397 .0293178
763.115 .0293038
763.833 .0292883
764.551 .0292710
765.268 .0292521
765.985 .0292316
766.702 .0292098
767.418 .0291868
768.134 .0291632
768.850 .0291393
769.566 .0291158
770.282 .0290932
770.997 .0290718
771.712 .0290522
772.427 .0290346
773.142 .0290176
773.856 .0290014
774.570 .0289853
775.284 .0289694
775.998 .0289532
776.711 .0289370
777.424 .0289208
778.137 .0289043
778.849 .0288876
779.562 .0288709
780.274 .0288545
780.986 .0288379
781.697 .0288208
782.409 .0288036
783.120 .0287864
783.831 .0287689
784.541 .0287511
785.252 .0287339
785.962 .0287174
786.671 .0287015
787.381 .0286858
788.090 .0286698
788.799 .0286541
789.508 .0286378
790.217 .0286209
790.925 .0286033
791.633 .0285851
792.341 .0285656
793.048 .0285450
793.755 .0285236
794.462 .0285013
795.169 .0284779
795.875 .0284543
796.581 .0284313
797.287 .0284086
797.993 .0283864
798.698 .0283647
799.403 .0283438
800.108 .0283237
800.812 .0283029
801.517 .0282817
802.221 .0282605
802.924 .0282393
803.628 .0282186
804.331 .0281990
805.034 .0281810
805.736 .0281640
806.439 .0281483
807.141 .0281331
807.843 .0281183
808.544 .0281025
809.245 .0280854
809.946 .0280667
810.647 .0280466
811.347 .0280254
812.047 .0280033
812.747 .0279820
813.447 .0279617
814.146 .0279422
814.845 .0279241
815.543 .0279065
816.242 .0278897
816.940 .0278726
817.638 .0278550
818.335 .0278368
819.032 .0278182
819.729 .0277991
820.426 .0277798
821.122 .0277608
821.818 .0277421
822.514 .0277236
823.209 .0277052
823.905 .0276863
824.599 .0276662
825.294 .0276449
825.988 .0276220
826.682 .0275974
827.376 .0275719
828.069 .0275456
828.762 .0275195
829.455 .0274945
830.147 .0274710
830.840 .0274495
831.531 .0274303
832.223 .0274137
832.914 .0273991
833.605 .0273859
834.296 .0273744
834.986 .0273638
835.676 .0273539
836.366 .0273447
837.055 .0273360
837.744 .0273277
838.433 .0273196
839.121 .0273116
839.809 .0273036
840.497 .0272955
841.185 .0272872
841.872 .0272781
842.559 .0272682
843.245 .0272577
843.932 .0272459
844.617 .0272332
845.303 .0272201
845.988 .0272067
846.673 .0271936
847.358 .0271811
848.042 .0271698
848.726 .0271599
849.410 .0271511
850.093 .0271434
850.776 .0271364
851.459 .0271301
852.141 .0271241
852.823 .0271180
853.505 .0271122
854.186 .0271067
854.867 .0271014
855.548 .0270968
856.228 .0270925
856.908 .0270887
857.588 .0270853
858.267 .0270821
858.946 .0270792
859.625 .0270765
860.303 .0270740
860.981 .0270720
861.659 .0270701
862.336 .0270684
863.013 .0270668
863.690 .0270655
864.366 .0270642
865.042 .0270628
865.718 .0270615
866.393 .0270599
867.068 .0270580
867.743 .0270557
868.417 .0270528
869.091 .0270490
869.765 .0270441
870.438 .0270383
871.111 .0270316
871.783 .0270246
872.456 .0270177
873.127 .0270114
873.799 .0270060
874.470 .0270014
875.141 .0269975
875.811 .0269938
876.481 .0269905
877.151 .0269872
877.820 .0269834
878.489 .0269790
879.158 .0269743
879.826 .0269693
880.494 .0269642
881.162 .0269598
881.829 .0269559
882.496 .0269526
883.163 .0269498
883.829 .0269473
884.495 .0269447
885.160 .0269423
885.825 .0269402
886.490 .0269379
887.154 .0269355
887.818 .0269329
888.482 .0269297
889.145 .0269265
889.808 .0269241
890.471 .0269226
891.133 .0269223
891.795 .0269227
892.456 .0269234
893.117 .0269238
893.778 .0269232
894.439 .0269212
895.099 .0269169
895.758 .0269108
896.417 .0269033
897.076 .0268945
897.735 .0268855
898.393 .0268774
899.051 .0268705
899.708 .0268648
900.365 .0268594
901.022 .0268535
901.678 .0268465
902.334 .0268384
902.990 .0268292
903.645 .0268190
904.300 .0268087
904.954 .0267987
905.608 .0267889
906.262 .0267799
906.915 .0267718
907.568 .0267640
908.221 .0267567
908.873 .0267487
909.525 .0267400
910.176 .0267302
910.828 .0267195
911.478 .0267088
912.129 .0266980
912.778 .0266870
913.428 .0266756
914.077 .0266636
914.726 .0266513
915.375 .0266381
916.023 .0266244
916.670 .0266108
917.318 .0265973
917.964 .0265842
918.611 .0265712
919.257 .0265582
919.903 .0265454
920.548 .0265320
921.193 .0265179
921.838 .0265032
922.482 .0264877
923.126 .0264716
923.770 .0264555
924.413 .0264397
925.056 .0264242
925.698 .0264090
926.340 .0263941
926.982 .0263791
927.623 .0263635
928.264 .0263471
928.904 .0263295
929.544 .0263105
930.184 .0262905
930.823 .0262693
931.462 .0262475
932.101 .0262254
932.739 .0262031
933.377 .0261804
934.014 .0261575
934.651 .0261343
935.288 .0261107
935.924 .0260872
936.560 .0260641
937.196 .0260411
937.831 .0260186
938.466 .0259967
939.100 .0259755
939.734 .0259551
940.368 .0259348
941.001 .0259149
941.634 .0258953
942.266 .0258752
942.899 .0258545
943.530 .0258330
944.162 .0258108
944.793 .0257878
945.423 .0257634
946.053 .0257380
946.683 .0257112
947.313 .0256837
947.942 .0256551
948.571 .0256255
949.199 .0255949
949.827 .0255631
950.455 .0255301
951.082 .0254969
951.709 .0254633
952.335 .0254302
952.961 .0253977
953.587 .0253664
954.212 .0253358
954.837 .0253064
955.462 .0252781
956.086 .0252513
956.710 .0252262
957.334 .0252028
957.957 .0251805
958.579 .0251599
959.202 .0251408
959.824 .0251226
960.445 .0251052
961.067 .0250885
961.688 .0250717
962.308 .0250550
962.928 .0250377
963.548 .0250201
964.168 .0250020
964.787 .0249842
965.406 .0249660
966.024 .0249476
966.642 .0249296
967.260 .0249115
967.877 .0248931
968.494 .0248743
969.110 .0248549
969.727 .0248349
970.342 .0248150
970.958 .0247950
971.573 .0247752
972.188 .0247573
972.802 .0247408
973.416 .0247257
974.030 .0247122
974.643 .0247005
975.256 .0246899
975.869 .0246802
976.481 .0246711
977.093 .0246620
977.705 .0246536
978.316 .0246457
978.927 .0246384
979.538 .0246321
980.148 .0246266
980.758 .0246214
981.367 .0246165
981.977 .0246123
982.586 .0246074
983.194 .0246024
983.802 .0245975
984.410 .0245921
985.018 .0245863
985.625 .0245800
986.232 .0245742
986.838 .0245690
987.445 .0245644
988.050 .0245599
988.656 .0245558
989.261 .0245519
989.866 .0245474
990.471 .0245424
991.075 .0245374
991.679 .0245316
992.282 .0245248
992.886 .0245177
993.489 .0245101
994.091 .0245026
994.694 .0244959
995.296 .0244893
995.897 .0244831
996.499 .0244768
997.100 .0244701
997.701 .0244635
998.301 .0244574
998.901 .0244519
999.501 .0244472
1000.101 .0244439
1000.700 .0244418
1001.299 .0244402
1001.898 .0244403
1002.496 .0244411
1003.094 .0244425
1003.692 .0244445
1004.289 .0244465
1004.887 .0244490
1005.484 .0244523
1006.080 .0244566
1006.677 .0244622
1007.273 .0244685
1007.868 .0244749
1008.464 .0244810
1009.059 .0244867
1009.654 .0244916
1010.249 .0244957
1010.843 .0244991
1011.437 .0245028
1012.031 .0245057
1012.625 .0245092
1013.218 .0245125
1013.811 .0245163
1014.404 .0245201
1014.997 .0245236
1015.589 .0245274
1016.181 .0245309
1016.773 .0245339
1017.365 .0245382
1017.956 .0245428
1018.547 .0245485
1019.138 .0245547
1019.728 .0245626
1020.319 .0245713
1020.909 .0245818
1021.499 .0245926
1022.088 .0246042
1022.678 .0246159
1023.267 .0246274
1023.856 .0246376
1024.445 .0246470
1025.033 .0246560
1025.621 .0246639
1026.209 .0246715
1026.797 .0246785
1027.385 .0246838
1027.972 .0246888
1028.560 .0246930
1029.147 .0246968
1029.734 .0246997
1030.320 .0247028
1030.907 .0247057
1031.493 .0247093
1032.079 .0247140
1032.665 .0247201
1033.250 .0247277
1033.836 .0247364
1034.421 .0247451
1035.006 .0247529
1035.591 .0247604
1036.176 .0247673
1036.761 .0247733
1037.345 .0247802
1037.929 .0247871
1038.514 .0247947
1039.097 .0248029
1039.681 .0248129
1040.265 .0248237
1040.848 .0248348
1041.432 .0248458
1042.015 .0248555
1042.598 .0248637
1043.181 .0248714
1043.764 .0248788
1044.346 .0248878
1044.929 .0248978
1045.511 .0249088
1046.094 .0249203
1046.676 .0249331
1047.258 .0249453
1047.840 .0249566
1048.422 .0249665
1049.003 .0249740
1049.585 .0249784
1050.166 .0249804
1050.748 .0249798
1051.329 .0249783
1051.910 .0249773
1052.491 .0249773
1053.072 .0249779
1053.653 .0249803
1054.234 .0249833
1054.815 .0249879
1055.396 .0249927
1055.976 .0249973
1056.557 .0250007
1057.138 .0250042
1057.718 .0250067
1058.298 .0250084
1058.879 .0250100
1059.459 .0250116
1060.039 .0250127
1060.620 .0250129
1061.200 .0250108
1061.780 .0250067
1062.360 .0249997
1062.940 .0249910
1063.520 .0249800
1064.101 .0249671
1064.681 .0249528
1065.261 .0249382
1065.841 .0249244
1066.421 .0249108
1067.001 .0248969
1067.581 .0248836
1068.161 .0248707
1068.741 .0248575
1069.321 .0248447
1069.901 .0248335
1070.482 .0248256
1071.062 .0248213
1071.642 .0248203
1072.222 .0248228
1072.803 .0248285
1073.383 .0248366
1073.963 .0248460
1074.544 .0248569
1075.124 .0248694
1075.705 .0248817
1076.286 .0248965
1076.866 .0249131
1077.447 .0249301
1078.028 .0249485
1078.609 .0249670
1079.190 .0249832
1079.771 .0249966
1080.352 .0250046
1080.934 .0250077
1081.515 .0250064
1082.097 .0250007
1082.679 .0249903
1083.260 .0249767
1083.842 .0249613
1084.424 .0249426
1085.007 .0249222
1085.589 .0249015
1086.172 .0248785
1086.754 .0248556
1087.337 .0248336
1087.920 .0248136
1088.503 .0247983
1089.087 .0247879
1089.670 .0247816
1090.254 .0247811
1090.838 .0247846
1091.422 .0247902
1092.006 .0247973
1092.590 .0248053
1093.175 .0248136
1093.760 .0248216
1094.345 .0248302
1094.930 .0248367
1095.516 .0248431
1096.102 .0248503
1096.688 .0248577
1097.274 .0248664
1097.860 .0248752
1098.447 .0248840
1099.034 .0248932
1099.622 .0249013
1100.209 .0249087
1100.797 .0249155
1101.385 .0249224
1101.973 .0249293
1102.562 .0249367
1103.151 .0249456
1103.740 .0249569
1104.330 .0249708
1104.920 .0249880
1105.510 .0250039
1106.101 .0250184
1106.691 .0250296
1107.283 .0250378
1107.874 .0250418
1108.466 .0250406
1109.058 .0250368
1109.651 .0250319
1110.244 .0250270
1110.837 .0250239
1111.431 .0250234
1112.025 .0250284
1112.620 .0250363
1113.215 .0250448
1113.810 .0250526
1114.406 .0250599
1115.002 .0250643
1115.599 .0250671
1116.196 .0250683
1116.793 .0250671
1117.391 .0250663
1117.989 .0250644
1118.588 .0250655
1119.187 .0250672
1119.787 .0250697
1120.387 .0250723
1120.988 .0250721
1121.589 .0250698
1122.190 .0250627
1122.793 .0250533
1123.395 .0250447
1123.998 .0250349
1124.602 .0250276
1125.206 .0250251
1125.811 .0250296
1126.416 .0250404
1127.022 .0250578
1127.628 .0250784
1128.235 .0251040
1128.843 .0251318
1129.451 .0251625
1130.059 .0251937
1130.669 .0252235
1131.278 .0252541
1131.889 .0252821
1132.500 .0253117
1133.112 .0253412
1133.724 .0253692
1134.337 .0254006
1134.950 .0254320
1135.564 .0254657
1136.179 .0254999
1136.795 .0255373
1137.411 .0255782
1138.028 .0256186
1138.645 .0256577
1139.263 .0257017
1139.882 .0257520
1140.502 .0258066
1141.122 .0258678
1141.743 .0259261
1142.365 .0259802
1142.987 .0261395
1143.611 .0261487
1144.235 .0262606
1144.859 .0260979
1145.485 .0260343
