Measurement Sequence started on: 10-20-44-796
Integration time: 35
Scans to Average: 2 
>>>>>Begin Spectral Data<<<<<
432.953 .0499029
433.882 .0439412
434.810 .0408722
435.737 .0357928
436.662 .0371101
437.586 .0380895
438.509 .0372799
439.431 .0368109
440.351 .0365233
441.269 .0364089
442.187 .0363071
443.103 .0362558
444.018 .0362883
444.932 .0363743
445.844 .0364917
446.756 .0366067
447.666 .0366911
448.575 .0367329
449.482 .0367409
450.388 .0367173
451.294 .0366828
452.198 .0366473
453.100 .0366411
454.002 .0366511
454.902 .0366807
455.801 .0367057
456.699 .0367194
457.596 .0367210
458.492 .0367009
459.387 .0366695
460.280 .0366291
461.172 .0365860
462.064 .0365459
462.954 .0365115
463.843 .0364832
464.730 .0364531
465.617 .0364243
466.503 .0363801
467.387 .0363163
468.271 .0362310
469.153 .0361328
470.035 .0360238
470.915 .0359173
471.794 .0358180
472.673 .0357240
473.550 .0356438
474.426 .0355707
475.301 .0354995
476.175 .0354292
477.048 .0353525
477.920 .0352693
478.791 .0351815
479.661 .0350934
480.530 .0350083
481.398 .0349375
482.266 .0348842
483.132 .0348450
483.997 .0348162
484.861 .0347965
485.724 .0347782
486.587 .0347591
487.448 .0347343
488.308 .0347039
489.168 .0346711
490.026 .0346417
490.884 .0346156
491.741 .0345986
492.597 .0345912
493.452 .0345906
494.306 .0345893
495.159 .0345880
496.011 .0345799
496.862 .0345658
497.713 .0345454
498.562 .0345218
499.411 .0344892
500.259 .0344547
501.106 .0344148
501.952 .0343732
502.798 .0343270
503.642 .0342727
504.486 .0342108
505.329 .0341407
506.171 .0340668
507.012 .0339883
507.852 .0339070
508.692 .0338336
509.531 .0337580
510.369 .0336835
511.206 .0336071
512.043 .0335280
512.878 .0334444
513.713 .0333545
514.547 .0332577
515.381 .0331569
516.213 .0330536
517.045 .0329455
517.876 .0328329
518.706 .0327112
519.536 .0325926
520.365 .0324664
521.193 .0323350
522.020 .0322025
522.847 .0320653
523.673 .0319299
524.498 .0317862
525.323 .0316318
526.146 .0314641
526.969 .0312798
527.792 .0310918
528.614 .0308920
529.435 .0306976
530.255 .0305093
531.075 .0303370
531.894 .0301806
532.712 .0300411
533.530 .0299064
534.347 .0297718
535.163 .0296321
535.979 .0294894
536.794 .0293431
537.608 .0292051
538.422 .0290910
539.235 .0290066
540.048 .0289566
540.860 .0289416
541.671 .0289498
542.481 .0289827
543.292 .0290246
544.101 .0290681
544.910 .0291023
545.718 .0291378
546.526 .0291710
547.333 .0292040
548.139 .0292464
548.945 .0292980
549.750 .0293569
550.555 .0294195
551.359 .0294793
552.162 .0295293
552.965 .0295721
553.768 .0296130
554.569 .0296480
555.371 .0296919
556.171 .0297461
556.972 .0298107
557.771 .0298816
558.570 .0299637
559.369 .0300505
560.167 .0301347
560.964 .0302174
561.761 .0302961
562.558 .0303742
563.354 .0304560
564.149 .0305411
564.944 .0306332
565.738 .0307328
566.532 .0308336
567.325 .0309305
568.118 .0310247
568.910 .0311116
569.702 .0311900
570.494 .0312599
571.285 .0313224
572.075 .0313793
572.865 .0314322
573.654 .0314805
574.443 .0315241
575.232 .0315657
576.020 .0316030
576.807 .0316343
577.594 .0316619
578.381 .0316831
579.167 .0316985
579.952 .0317151
580.738 .0317328
581.522 .0317499
582.307 .0317721
583.091 .0317996
583.874 .0318306
584.657 .0318628
585.440 .0318919
586.222 .0319168
587.004 .0319394
587.785 .0319570
588.566 .0319701
589.346 .0319835
590.126 .0319996
590.906 .0320171
591.685 .0320380
592.464 .0320600
593.242 .0320806
594.020 .0320998
594.797 .0321155
595.575 .0321246
596.351 .0321282
597.128 .0321280
597.904 .0321250
598.679 .0321215
599.454 .0321182
600.229 .0321149
601.004 .0321119
601.778 .0321068
602.551 .0320973
603.325 .0320833
604.097 .0320644
604.870 .0320410
605.642 .0320153
606.414 .0319895
607.185 .0319636
607.956 .0319394
608.727 .0319173
609.497 .0318973
610.267 .0318771
611.037 .0318561
611.806 .0318327
612.575 .0318076
613.344 .0317810
614.112 .0317535
614.880 .0317274
615.647 .0317033
616.414 .0316809
617.181 .0316607
617.948 .0316421
618.714 .0316246
619.480 .0316072
620.245 .0315897
621.011 .0315720
621.775 .0315539
622.540 .0315358
623.304 .0315182
624.068 .0315030
624.832 .0314901
625.595 .0314785
626.358 .0314673
627.120 .0314560
627.883 .0314430
628.645 .0314281
629.406 .0314108
630.168 .0313913
630.929 .0313693
631.689 .0313463
632.450 .0313224
633.210 .0312993
633.970 .0312765
634.729 .0312554
635.489 .0312345
636.248 .0312141
637.006 .0311924
637.765 .0311696
638.523 .0311461
639.280 .0311227
640.038 .0310991
640.795 .0310768
641.552 .0310565
642.309 .0310395
643.065 .0310253
643.821 .0310142
644.577 .0310048
645.332 .0309965
646.088 .0309872
646.843 .0309774
647.597 .0309657
648.352 .0309526
649.106 .0309386
649.860 .0309237
650.613 .0309085
651.367 .0308931
652.120 .0308774
652.872 .0308623
653.625 .0308474
654.377 .0308328
655.129 .0308176
655.881 .0308025
656.632 .0307875
657.384 .0307722
658.135 .0307559
658.885 .0307388
659.636 .0307207
660.386 .0307016
661.136 .0306811
661.885 .0306600
662.635 .0306393
663.384 .0306199
664.133 .0306014
664.881 .0305838
665.630 .0305673
666.378 .0305519
667.126 .0305364
667.874 .0305207
668.621 .0305045
669.368 .0304883
670.115 .0304727
670.862 .0304579
671.608 .0304445
672.354 .0304331
673.100 .0304232
673.846 .0304146
674.591 .0304061
675.337 .0303972
676.082 .0303866
676.826 .0303751
677.571 .0303621
678.315 .0303478
679.059 .0303333
679.803 .0303179
680.547 .0303029
681.290 .0302883
682.033 .0302722
682.776 .0302546
683.518 .0302352
684.261 .0302142
685.003 .0301910
685.745 .0301667
686.487 .0301418
687.228 .0301171
687.969 .0300928
688.710 .0300688
689.451 .0300451
690.192 .0300221
690.932 .0299990
691.672 .0299751
692.412 .0299513
693.152 .0299270
693.891 .0299022
694.630 .0298780
695.369 .0298544
696.108 .0298322
696.846 .0298102
697.585 .0297888
698.323 .0297681
699.061 .0297479
699.798 .0297279
700.536 .0297076
701.273 .0296874
702.010 .0296671
702.746 .0296457
703.483 .0296242
704.219 .0296024
704.955 .0295807
705.691 .0295588
706.427 .0295372
707.162 .0295158
707.897 .0294947
708.632 .0294734
709.367 .0294522
710.101 .0294305
710.835 .0294077
711.569 .0293832
712.303 .0293573
713.037 .0293312
713.770 .0293047
714.503 .0292788
715.236 .0292542
715.969 .0292309
716.702 .0292091
717.434 .0291886
718.166 .0291686
718.898 .0291489
719.629 .0291291
720.361 .0291089
721.092 .0290875
721.823 .0290657
722.554 .0290429
723.284 .0290200
724.014 .0289969
724.744 .0289737
725.474 .0289498
726.204 .0289266
726.933 .0289030
727.662 .0288792
728.391 .0288552
729.120 .0288316
729.849 .0288082
730.577 .0287863
731.305 .0287651
732.033 .0287452
732.760 .0287262
733.488 .0287085
734.215 .0286909
734.942 .0286739
735.669 .0286567
736.395 .0286399
737.122 .0286231
737.848 .0286067
738.573 .0285901
739.299 .0285740
740.024 .0285582
740.750 .0285427
741.474 .0285262
742.199 .0285086
742.924 .0284895
743.648 .0284694
744.372 .0284480
745.096 .0284265
745.819 .0284057
746.543 .0283864
747.266 .0283694
747.989 .0283556
748.711 .0283447
749.434 .0283375
750.156 .0283330
750.878 .0283307
751.599 .0283295
752.321 .0283288
753.042 .0283276
753.763 .0283262
754.484 .0283247
755.205 .0283227
755.925 .0283201
756.645 .0283170
757.365 .0283134
758.085 .0283095
758.804 .0283046
759.523 .0282982
760.242 .0282902
760.961 .0282798
761.679 .0282667
762.397 .0282508
763.115 .0282321
763.833 .0282115
764.551 .0281897
765.268 .0281673
765.985 .0281447
766.702 .0281227
767.418 .0281018
768.134 .0280819
768.850 .0280629
769.566 .0280440
770.282 .0280245
770.997 .0280049
771.712 .0279846
772.427 .0279641
773.142 .0279442
773.856 .0279254
774.570 .0279080
775.284 .0278929
775.998 .0278793
776.711 .0278677
777.424 .0278569
778.137 .0278468
778.849 .0278367
779.562 .0278264
780.274 .0278158
780.986 .0278050
781.697 .0277948
782.409 .0277858
783.120 .0277776
783.831 .0277710
784.541 .0277649
785.252 .0277592
785.962 .0277526
786.671 .0277446
787.381 .0277347
788.090 .0277229
788.799 .0277089
789.508 .0276939
790.217 .0276779
790.925 .0276613
791.633 .0276442
792.341 .0276268
793.048 .0276090
793.755 .0275905
794.462 .0275708
795.169 .0275506
795.875 .0275300
796.581 .0275093
797.287 .0274885
797.993 .0274678
798.698 .0274482
799.403 .0274298
800.108 .0274127
800.812 .0273965
801.517 .0273814
802.221 .0273675
802.924 .0273540
803.628 .0273410
804.331 .0273282
805.034 .0273155
805.736 .0273028
806.439 .0272905
807.141 .0272782
807.843 .0272664
808.544 .0272546
809.245 .0272429
809.946 .0272309
810.647 .0272188
811.347 .0272055
812.047 .0271911
812.747 .0271765
813.447 .0271613
814.146 .0271446
814.845 .0271280
815.543 .0271113
816.242 .0270954
816.940 .0270796
817.638 .0270640
818.335 .0270488
819.032 .0270337
819.729 .0270178
820.426 .0270003
821.122 .0269820
821.818 .0269628
822.514 .0269424
823.209 .0269215
823.905 .0269010
824.599 .0268803
825.294 .0268599
825.988 .0268396
826.682 .0268196
827.376 .0267990
828.069 .0267781
828.762 .0267570
829.455 .0267359
830.147 .0267150
830.840 .0266944
831.531 .0266740
832.223 .0266557
832.914 .0266382
833.605 .0266221
834.296 .0266072
834.986 .0265936
835.676 .0265805
836.366 .0265681
837.055 .0265556
837.744 .0265434
838.433 .0265313
839.121 .0265195
839.809 .0265075
840.497 .0264955
841.185 .0264835
841.872 .0264709
842.559 .0264586
843.245 .0264463
843.932 .0264337
844.617 .0264216
845.303 .0264096
845.988 .0263985
846.673 .0263885
847.358 .0263790
848.042 .0263700
848.726 .0263619
849.410 .0263542
850.093 .0263453
850.776 .0263365
851.459 .0263272
852.141 .0263175
852.823 .0263072
853.505 .0262962
854.186 .0262837
854.867 .0262709
855.548 .0262570
856.228 .0262420
856.908 .0262262
857.588 .0262094
858.267 .0261915
858.946 .0261729
859.625 .0261539
860.303 .0261345
860.981 .0261158
861.659 .0260989
862.336 .0260828
863.013 .0260682
863.690 .0260550
864.366 .0260429
865.042 .0260320
865.718 .0260221
866.393 .0260125
867.068 .0260033
867.743 .0259942
868.417 .0259857
869.091 .0259776
869.765 .0259700
870.438 .0259633
871.111 .0259568
871.783 .0259502
872.456 .0259427
873.127 .0259333
873.799 .0259230
874.470 .0259105
875.141 .0258961
875.811 .0258799
876.481 .0258626
877.151 .0258448
877.820 .0258270
878.489 .0258104
879.158 .0257954
879.826 .0257811
880.494 .0257672
881.162 .0257535
881.829 .0257398
882.496 .0257254
883.163 .0257106
883.829 .0256958
884.495 .0256817
885.160 .0256682
885.825 .0256559
886.490 .0256452
887.154 .0256363
887.818 .0256291
888.482 .0256224
889.145 .0256163
889.808 .0256104
890.471 .0256043
891.133 .0255980
891.795 .0255917
892.456 .0255858
893.117 .0255806
893.778 .0255761
894.439 .0255731
895.099 .0255709
895.758 .0255698
896.417 .0255697
897.076 .0255702
897.735 .0255706
898.393 .0255709
899.051 .0255703
899.708 .0255691
900.365 .0255669
901.022 .0255635
901.678 .0255588
902.334 .0255532
902.990 .0255473
903.645 .0255406
904.300 .0255337
904.954 .0255270
905.608 .0255201
906.262 .0255131
906.915 .0255054
907.568 .0254970
908.221 .0254880
908.873 .0254781
909.525 .0254673
910.176 .0254558
910.828 .0254440
911.478 .0254318
912.129 .0254195
912.778 .0254076
913.428 .0253965
914.077 .0253855
914.726 .0253760
915.375 .0253672
916.023 .0253591
916.670 .0253515
917.318 .0253441
917.964 .0253360
918.611 .0253270
919.257 .0253167
919.903 .0253057
920.548 .0252947
921.193 .0252849
921.838 .0252763
922.482 .0252696
923.126 .0252650
923.770 .0252616
924.413 .0252583
925.056 .0252555
925.698 .0252514
926.340 .0252453
926.982 .0252381
927.623 .0252300
928.264 .0252213
928.904 .0252131
929.544 .0252061
930.184 .0252004
930.823 .0251950
931.462 .0251898
932.101 .0251836
932.739 .0251765
933.377 .0251683
934.014 .0251582
934.651 .0251472
935.288 .0251362
935.924 .0251248
936.560 .0251131
937.196 .0251018
937.831 .0250899
938.466 .0250768
939.100 .0250627
939.734 .0250475
940.368 .0250306
941.001 .0250131
941.634 .0249957
942.266 .0249779
942.899 .0249603
943.530 .0249425
944.162 .0249248
944.793 .0249070
945.423 .0248885
946.053 .0248686
946.683 .0248478
947.313 .0248272
947.942 .0248063
948.571 .0247855
949.199 .0247660
949.827 .0247473
950.455 .0247298
951.082 .0247134
951.709 .0246977
952.335 .0246825
952.961 .0246685
953.587 .0246550
954.212 .0246414
954.837 .0246277
955.462 .0246148
956.086 .0246024
956.710 .0245907
957.334 .0245789
957.957 .0245662
958.579 .0245533
959.202 .0245397
959.824 .0245248
960.445 .0245097
961.067 .0244948
961.688 .0244809
962.308 .0244683
962.928 .0244572
963.548 .0244475
964.168 .0244393
964.787 .0244325
965.406 .0244259
966.024 .0244191
966.642 .0244120
967.260 .0244040
967.877 .0243956
968.494 .0243871
969.110 .0243783
969.727 .0243701
970.342 .0243624
970.958 .0243545
971.573 .0243461
972.188 .0243370
972.802 .0243271
973.416 .0243161
974.030 .0243037
974.643 .0242902
975.256 .0242759
975.869 .0242615
976.481 .0242472
977.093 .0242341
977.705 .0242231
978.316 .0242140
978.927 .0242066
979.538 .0242008
980.148 .0241960
980.758 .0241920
981.367 .0241883
981.977 .0241846
982.586 .0241807
983.194 .0241767
983.802 .0241730
984.410 .0241688
985.018 .0241651
985.625 .0241616
986.232 .0241583
986.838 .0241547
987.445 .0241501
988.050 .0241443
988.656 .0241373
989.261 .0241293
989.866 .0241203
990.471 .0241100
991.075 .0241002
991.679 .0240910
992.282 .0240818
992.886 .0240736
993.489 .0240666
994.091 .0240601
994.694 .0240550
995.296 .0240502
995.897 .0240453
996.499 .0240407
997.100 .0240371
997.701 .0240344
998.301 .0240328
998.901 .0240332
999.501 .0240350
1000.101 .0240371
1000.700 .0240399
1001.299 .0240402
1001.898 .0240384
1002.496 .0240345
1003.094 .0240275
1003.692 .0240170
1004.289 .0240049
1004.887 .0239924
1005.484 .0239806
1006.080 .0239698
1006.677 .0239607
1007.273 .0239523
1007.868 .0239449
1008.464 .0239377
1009.059 .0239298
1009.654 .0239215
1010.249 .0239147
1010.843 .0239087
1011.437 .0239061
1012.031 .0239070
1012.625 .0239118
1013.218 .0239204
1013.811 .0239318
1014.404 .0239444
1014.997 .0239572
1015.589 .0239679
1016.181 .0239769
1016.773 .0239824
1017.365 .0239857
1017.956 .0239859
1018.547 .0239854
1019.138 .0239845
1019.728 .0239833
1020.319 .0239825
1020.909 .0239820
1021.499 .0239799
1022.088 .0239773
1022.678 .0239728
1023.267 .0239665
1023.856 .0239589
1024.445 .0239501
1025.033 .0239402
1025.621 .0239311
1026.209 .0239236
1026.797 .0239176
1027.385 .0239134
1027.972 .0239108
1028.560 .0239075
1029.147 .0239037
1029.734 .0238983
1030.320 .0238899
1030.907 .0238798
1031.493 .0238682
1032.079 .0238548
1032.665 .0238419
1033.250 .0238301
1033.836 .0238205
1034.421 .0238138
1035.006 .0238102
1035.591 .0238084
1036.176 .0238089
1036.761 .0238107
1037.345 .0238127
1037.929 .0238145
1038.514 .0238170
1039.097 .0238193
1039.681 .0238226
1040.265 .0238262
1040.848 .0238298
1041.432 .0238334
1042.015 .0238369
1042.598 .0238387
1043.181 .0238401
1043.764 .0238398
1044.346 .0238397
1044.929 .0238389
1045.511 .0238386
1046.094 .0238389
1046.676 .0238402
1047.258 .0238433
1047.840 .0238480
1048.422 .0238541
1049.003 .0238611
1049.585 .0238684
1050.166 .0238768
1050.748 .0238846
1051.329 .0238918
1051.910 .0238963
1052.491 .0238984
1053.072 .0238961
1053.653 .0238894
1054.234 .0238773
1054.815 .0238604
1055.396 .0238408
1055.976 .0238178
1056.557 .0237931
1057.138 .0237673
1057.718 .0237427
1058.298 .0237202
1058.879 .0236995
1059.459 .0236806
1060.039 .0236635
1060.620 .0236481
1061.200 .0236345
1061.780 .0236227
1062.360 .0236130
1062.940 .0236060
1063.520 .0236019
1064.101 .0236005
1064.681 .0236006
1065.261 .0236001
1065.841 .0235985
1066.421 .0235946
1067.001 .0235883
1067.581 .0235788
1068.161 .0235661
1068.741 .0235517
1069.321 .0235381
1069.901 .0235251
1070.482 .0235131
1071.062 .0235039
1071.642 .0234994
1072.222 .0234979
1072.803 .0234990
1073.383 .0235034
1073.963 .0235094
1074.544 .0235170
1075.124 .0235251
1075.705 .0235309
1076.286 .0235357
1076.866 .0235396
1077.447 .0235401
1078.028 .0235383
1078.609 .0235362
1079.190 .0235327
1079.771 .0235298
1080.352 .0235293
1080.934 .0235290
1081.515 .0235301
1082.097 .0235325
1082.679 .0235351
1083.260 .0235358
1083.842 .0235364
1084.424 .0235336
1085.007 .0235287
1085.589 .0235226
1086.172 .0235137
1086.754 .0235029
1087.337 .0234944
1087.920 .0234874
1088.503 .0234842
1089.087 .0234847
1089.670 .0234863
1090.254 .0234889
1090.838 .0234913
1091.422 .0234904
1092.006 .0234853
1092.590 .0234767
1093.175 .0234658
1093.760 .0234519
1094.345 .0234394
1094.930 .0234304
1095.516 .0234270
1096.102 .0234328
1096.688 .0234441
1097.274 .0234594
1097.860 .0234754
1098.447 .0234895
1099.034 .0235002
1099.622 .0235084
1100.209 .0235119
1100.797 .0235130
1101.385 .0235113
1101.973 .0235096
1102.562 .0235095
1103.151 .0235103
1103.740 .0235105
1104.330 .0235108
1104.920 .0235082
1105.510 .0235010
1106.101 .0234883
1106.691 .0234732
1107.283 .0234546
1107.874 .0234362
1108.466 .0234163
1109.058 .0233963
1109.651 .0233762
1110.244 .0233607
1110.837 .0233459
1111.431 .0233357
1112.025 .0233320
1112.620 .0233318
1113.215 .0233374
1113.810 .0233480
1114.406 .0233618
1115.002 .0233785
1115.599 .0233964
1116.196 .0234147
1116.793 .0234305
1117.391 .0234452
1117.989 .0234572
1118.588 .0234680
1119.187 .0234799
1119.787 .0234927
1120.387 .0235026
1120.988 .0235129
1121.589 .0235231
1122.190 .0235302
1122.793 .0235344
1123.395 .0235375
1123.998 .0235418
1124.602 .0235495
1125.206 .0235636
1125.811 .0235836
1126.416 .0236100
1127.022 .0236432
1127.628 .0236797
1128.235 .0237198
1128.843 .0237617
1129.451 .0238026
1130.059 .0238409
1130.669 .0238799
1131.278 .0239207
1131.889 .0239583
1132.500 .0239966
1133.112 .0240357
1133.724 .0240693
1134.337 .0241010
1134.950 .0241278
1135.564 .0241490
1136.179 .0241679
1136.795 .0241845
1137.411 .0241978
1138.028 .0242087
1138.645 .0242184
1139.263 .0242275
1139.882 .0242310
1140.502 .0242428
1141.122 .0242593
1141.743 .0242769
1142.365 .0243086
1142.987 .0241934
1143.611 .0244147
1144.235 .0245887
1144.859 .0243989
1145.485 .0246102
