Measurement Sequence started on: 10-20-44-796
Integration time: 35
Scans to Average: 2 
>>>>>Begin Spectral Data<<<<<
432.953 .0174212
433.882 .0251826
434.810 .0233063
435.737 .0239972
436.662 .0238086
437.586 .0264414
438.509 .0275280
439.431 .0283481
440.351 .0291653
441.269 .0298522
442.187 .0304281
443.103 .0308472
444.018 .0311704
444.932 .0314469
445.844 .0316514
446.756 .0318076
447.666 .0319165
448.575 .0319717
449.482 .0319922
450.388 .0319695
451.294 .0319319
452.198 .0318869
453.100 .0318292
454.002 .0317798
454.902 .0317356
455.801 .0316902
456.699 .0316467
457.596 .0315994
458.492 .0315481
459.387 .0314976
460.280 .0314517
461.172 .0314104
462.064 .0313738
462.954 .0313472
463.843 .0313247
464.730 .0313074
465.617 .0312969
466.503 .0312893
467.387 .0312791
468.271 .0312708
469.153 .0312594
470.035 .0312480
470.915 .0312383
471.794 .0312265
472.673 .0312125
473.550 .0312006
474.426 .0311908
475.301 .0311832
476.175 .0311778
477.048 .0311798
477.920 .0311819
478.791 .0311869
479.661 .0311905
480.530 .0311908
481.398 .0311867
482.266 .0311804
483.132 .0311681
483.997 .0311490
484.861 .0311252
485.724 .0311000
486.587 .0310773
487.448 .0310583
488.308 .0310409
489.168 .0310255
490.026 .0310123
490.884 .0310000
491.741 .0309796
492.597 .0309565
493.452 .0309292
494.306 .0308970
495.159 .0308582
496.011 .0308105
496.862 .0307602
497.713 .0307072
498.562 .0306489
499.411 .0305869
500.259 .0305207
501.106 .0304551
501.952 .0303852
502.798 .0303141
503.642 .0302423
504.486 .0301660
505.329 .0300874
506.171 .0300067
507.012 .0299206
507.852 .0298303
508.692 .0297374
509.531 .0296458
510.369 .0295585
511.206 .0294764
512.043 .0293968
512.878 .0293223
513.713 .0292527
514.547 .0291781
515.381 .0290906
516.213 .0289940
517.045 .0288800
517.876 .0287448
518.706 .0285944
519.536 .0284315
520.365 .0282636
521.193 .0280966
522.020 .0279309
522.847 .0277714
523.673 .0276179
524.498 .0274685
525.323 .0273121
526.146 .0271610
526.969 .0270118
527.792 .0268636
528.614 .0267250
529.435 .0265993
530.255 .0264930
531.075 .0264070
531.894 .0263376
532.712 .0262804
533.530 .0262148
534.347 .0261420
535.163 .0260384
535.979 .0259185
536.794 .0257783
537.608 .0256262
538.422 .0254774
539.235 .0253477
540.048 .0252398
540.860 .0251598
541.671 .0251062
542.481 .0250862
543.292 .0250796
544.101 .0250908
544.910 .0251065
545.718 .0251326
546.526 .0251661
547.333 .0252178
548.139 .0252774
548.945 .0253636
549.750 .0254655
550.555 .0255894
551.359 .0257254
552.162 .0258751
552.965 .0260253
553.768 .0261712
554.569 .0263121
555.371 .0264381
556.171 .0265430
556.972 .0266361
557.771 .0267081
558.570 .0267733
559.369 .0268298
560.167 .0268816
560.964 .0269278
561.761 .0269750
562.558 .0270228
563.354 .0270691
564.149 .0271158
564.944 .0271557
565.738 .0271897
566.532 .0272168
567.325 .0272362
568.118 .0272459
568.910 .0272563
569.702 .0272728
570.494 .0273013
571.285 .0273419
572.075 .0273951
572.865 .0274586
573.654 .0275329
574.443 .0276103
575.232 .0276876
576.020 .0277600
576.807 .0278315
577.594 .0279012
578.381 .0279766
579.167 .0280556
579.952 .0281434
580.738 .0282381
581.522 .0283382
582.307 .0284375
583.091 .0285314
583.874 .0286165
584.657 .0286930
585.440 .0287591
586.222 .0288142
587.004 .0288586
587.785 .0288983
588.566 .0289349
589.346 .0289687
590.126 .0289998
590.906 .0290287
591.685 .0290539
592.464 .0290753
593.242 .0290901
594.020 .0291004
594.797 .0291063
595.575 .0291102
596.351 .0291118
597.128 .0291119
597.904 .0291106
598.679 .0291083
599.454 .0291049
600.229 .0291010
601.004 .0290957
601.778 .0290897
602.551 .0290833
603.325 .0290769
604.097 .0290702
604.870 .0290628
605.642 .0290535
606.414 .0290434
607.185 .0290302
607.956 .0290151
608.727 .0289968
609.497 .0289771
610.267 .0289564
611.037 .0289357
611.806 .0289166
612.575 .0288995
613.344 .0288858
614.112 .0288739
614.880 .0288632
615.647 .0288541
616.414 .0288449
617.181 .0288358
617.948 .0288263
618.714 .0288174
619.480 .0288083
620.245 .0288008
621.011 .0287950
621.775 .0287903
622.540 .0287880
623.304 .0287872
624.068 .0287862
624.832 .0287839
625.595 .0287805
626.358 .0287743
627.120 .0287665
627.883 .0287576
628.645 .0287467
629.406 .0287356
630.168 .0287247
630.929 .0287138
631.689 .0287023
632.450 .0286904
633.210 .0286768
633.970 .0286608
634.729 .0286433
635.489 .0286229
636.248 .0286004
637.006 .0285778
637.765 .0285548
638.523 .0285315
639.280 .0285085
640.038 .0284859
640.795 .0284628
641.552 .0284392
642.309 .0284144
643.065 .0283886
643.821 .0283633
644.577 .0283399
645.332 .0283190
646.088 .0283018
646.843 .0282883
647.597 .0282781
648.352 .0282702
649.106 .0282645
649.860 .0282578
650.613 .0282502
651.367 .0282422
652.120 .0282327
652.872 .0282217
653.625 .0282104
654.377 .0281990
655.129 .0281886
655.881 .0281782
656.632 .0281680
657.384 .0281561
658.135 .0281435
658.885 .0281291
659.636 .0281130
660.386 .0280961
661.136 .0280789
661.885 .0280607
662.635 .0280434
663.384 .0280274
664.133 .0280128
664.881 .0279993
665.630 .0279878
666.378 .0279778
667.126 .0279679
667.874 .0279576
668.621 .0279468
669.368 .0279358
670.115 .0279244
670.862 .0279123
671.608 .0278996
672.354 .0278872
673.100 .0278747
673.846 .0278626
674.591 .0278510
675.337 .0278405
676.082 .0278301
676.826 .0278191
677.571 .0278076
678.315 .0277953
679.059 .0277817
679.803 .0277680
680.547 .0277543
681.290 .0277421
682.033 .0277307
682.776 .0277206
683.518 .0277119
684.261 .0277052
685.003 .0276989
685.745 .0276917
686.487 .0276836
687.228 .0276738
687.969 .0276621
688.710 .0276493
689.451 .0276354
690.192 .0276222
690.932 .0276092
691.672 .0275968
692.412 .0275848
693.152 .0275728
693.891 .0275596
694.630 .0275446
695.369 .0275279
696.108 .0275091
696.846 .0274880
697.585 .0274656
698.323 .0274429
699.061 .0274211
699.798 .0274005
700.536 .0273809
701.273 .0273626
702.010 .0273454
702.746 .0273280
703.483 .0273107
704.219 .0272938
704.955 .0272772
705.691 .0272608
706.427 .0272447
707.162 .0272292
707.897 .0272144
708.632 .0272004
709.367 .0271876
710.101 .0271749
710.835 .0271630
711.569 .0271505
712.303 .0271376
713.037 .0271241
713.770 .0271102
714.503 .0270958
715.236 .0270810
715.969 .0270662
716.702 .0270514
717.434 .0270367
718.166 .0270231
718.898 .0270103
719.629 .0269983
720.361 .0269871
721.092 .0269758
721.823 .0269638
722.554 .0269513
723.284 .0269384
724.014 .0269245
724.744 .0269096
725.474 .0268940
726.204 .0268776
726.933 .0268609
727.662 .0268436
728.391 .0268262
729.120 .0268085
729.849 .0267909
730.577 .0267728
731.305 .0267548
732.033 .0267369
732.760 .0267188
733.488 .0267013
734.215 .0266840
734.942 .0266667
735.669 .0266496
736.395 .0266327
737.122 .0266160
737.848 .0265991
738.573 .0265825
739.299 .0265653
740.024 .0265482
740.750 .0265304
741.474 .0265115
742.199 .0264917
742.924 .0264717
743.648 .0264512
744.372 .0264309
745.096 .0264111
745.819 .0263923
746.543 .0263745
747.266 .0263591
747.989 .0263451
748.711 .0263330
749.434 .0263231
750.156 .0263150
750.878 .0263083
751.599 .0263033
752.321 .0262997
753.042 .0262973
753.763 .0262961
754.484 .0262956
755.205 .0262951
755.925 .0262949
756.645 .0262944
757.365 .0262932
758.085 .0262912
758.804 .0262876
759.523 .0262825
760.242 .0262762
760.961 .0262684
761.679 .0262589
762.397 .0262482
763.115 .0262359
763.833 .0262227
764.551 .0262078
765.268 .0261912
765.985 .0261735
766.702 .0261549
767.418 .0261351
768.134 .0261140
768.850 .0260927
769.566 .0260714
770.282 .0260498
770.997 .0260294
771.712 .0260092
772.427 .0259899
773.142 .0259713
773.856 .0259530
774.570 .0259350
775.284 .0259174
775.998 .0259003
776.711 .0258837
777.424 .0258685
778.137 .0258545
778.849 .0258408
779.562 .0258283
780.274 .0258161
780.986 .0258038
781.697 .0257904
782.409 .0257763
783.120 .0257607
783.831 .0257443
784.541 .0257276
785.252 .0257114
785.962 .0256964
786.671 .0256828
787.381 .0256704
788.090 .0256584
788.799 .0256471
789.508 .0256353
790.217 .0256229
790.925 .0256104
791.633 .0255975
792.341 .0255849
793.048 .0255726
793.755 .0255617
794.462 .0255521
795.169 .0255434
795.875 .0255361
796.581 .0255285
797.287 .0255209
797.993 .0255122
798.698 .0255030
799.403 .0254931
800.108 .0254828
800.812 .0254717
801.517 .0254599
802.221 .0254480
802.924 .0254360
803.628 .0254231
804.331 .0254100
805.034 .0253962
805.736 .0253815
806.439 .0253655
807.141 .0253492
807.843 .0253325
808.544 .0253159
809.245 .0252996
809.946 .0252839
810.647 .0252689
811.347 .0252550
812.047 .0252415
812.747 .0252291
813.447 .0252173
814.146 .0252055
814.845 .0251935
815.543 .0251822
816.242 .0251712
816.940 .0251608
817.638 .0251510
818.335 .0251427
819.032 .0251351
819.729 .0251281
820.426 .0251210
821.122 .0251132
821.818 .0251045
822.514 .0250944
823.209 .0250825
823.905 .0250701
824.599 .0250566
825.294 .0250434
825.988 .0250302
826.682 .0250174
827.376 .0250050
828.069 .0249931
828.762 .0249810
829.455 .0249682
830.147 .0249543
830.840 .0249398
831.531 .0249245
832.223 .0249085
832.914 .0248922
833.605 .0248757
834.296 .0248596
834.986 .0248443
835.676 .0248295
836.366 .0248160
837.055 .0248028
837.744 .0247906
838.433 .0247790
839.121 .0247672
839.809 .0247553
840.497 .0247435
841.185 .0247319
841.872 .0247202
842.559 .0247083
843.245 .0246966
843.932 .0246857
844.617 .0246756
845.303 .0246652
845.988 .0246545
846.673 .0246441
847.358 .0246336
848.042 .0246225
848.726 .0246113
849.410 .0245996
850.093 .0245876
850.776 .0245756
851.459 .0245629
852.141 .0245497
852.823 .0245359
853.505 .0245218
854.186 .0245074
854.867 .0244926
855.548 .0244776
856.228 .0244632
856.908 .0244508
857.588 .0244396
858.267 .0244290
858.946 .0244196
859.625 .0244106
860.303 .0244019
860.981 .0243929
861.659 .0243835
862.336 .0243739
863.013 .0243646
863.690 .0243556
864.366 .0243472
865.042 .0243399
865.718 .0243336
866.393 .0243282
867.068 .0243232
867.743 .0243181
868.417 .0243120
869.091 .0243054
869.765 .0242973
870.438 .0242879
871.111 .0242774
871.783 .0242661
872.456 .0242549
873.127 .0242440
873.799 .0242333
874.470 .0242236
875.141 .0242144
875.811 .0242058
876.481 .0241972
877.151 .0241886
877.820 .0241788
878.489 .0241683
879.158 .0241569
879.826 .0241444
880.494 .0241310
881.162 .0241175
881.829 .0241041
882.496 .0240910
883.163 .0240784
883.829 .0240655
884.495 .0240531
885.160 .0240413
885.825 .0240297
886.490 .0240183
887.154 .0240074
887.818 .0239971
888.482 .0239871
889.145 .0239782
889.808 .0239707
890.471 .0239639
891.133 .0239586
891.795 .0239543
892.456 .0239504
893.117 .0239471
893.778 .0239438
894.439 .0239406
895.099 .0239371
895.758 .0239328
896.417 .0239277
897.076 .0239216
897.735 .0239150
898.393 .0239077
899.051 .0238999
899.708 .0238921
900.365 .0238839
901.022 .0238754
901.678 .0238668
902.334 .0238584
902.990 .0238502
903.645 .0238424
904.300 .0238348
904.954 .0238276
905.608 .0238208
906.262 .0238144
906.915 .0238090
907.568 .0238037
908.221 .0237993
908.873 .0237951
909.525 .0237913
910.176 .0237873
910.828 .0237834
911.478 .0237791
912.129 .0237735
912.778 .0237667
913.428 .0237585
914.077 .0237489
914.726 .0237387
915.375 .0237277
916.023 .0237168
916.670 .0237061
917.318 .0236964
917.964 .0236871
918.611 .0236784
919.257 .0236701
919.903 .0236622
920.548 .0236544
921.193 .0236472
921.838 .0236403
922.482 .0236343
923.126 .0236298
923.770 .0236266
924.413 .0236239
925.056 .0236219
925.698 .0236205
926.340 .0236189
926.982 .0236171
927.623 .0236149
928.264 .0236117
928.904 .0236075
929.544 .0236027
930.184 .0235960
930.823 .0235876
931.462 .0235776
932.101 .0235658
932.739 .0235523
933.377 .0235375
934.014 .0235213
934.651 .0235052
935.288 .0234895
935.924 .0234741
936.560 .0234590
937.196 .0234447
937.831 .0234308
938.466 .0234167
939.100 .0234020
939.734 .0233874
940.368 .0233726
941.001 .0233583
941.634 .0233443
942.266 .0233314
942.899 .0233187
943.530 .0233063
944.162 .0232944
944.793 .0232827
945.423 .0232698
946.053 .0232558
946.683 .0232400
947.313 .0232231
947.942 .0232047
948.571 .0231846
949.199 .0231636
949.827 .0231424
950.455 .0231213
951.082 .0231006
951.709 .0230813
952.335 .0230645
952.961 .0230487
953.587 .0230342
954.212 .0230204
954.837 .0230057
955.462 .0229904
956.086 .0229743
956.710 .0229578
957.334 .0229414
957.957 .0229259
958.579 .0229111
959.202 .0228977
959.824 .0228858
960.445 .0228746
961.067 .0228635
961.688 .0228527
962.308 .0228410
962.928 .0228281
963.548 .0228145
964.168 .0228006
964.787 .0227861
965.406 .0227723
966.024 .0227589
966.642 .0227459
967.260 .0227334
967.877 .0227221
968.494 .0227117
969.110 .0227028
969.727 .0226950
970.342 .0226886
970.958 .0226834
971.573 .0226794
972.188 .0226760
972.802 .0226724
973.416 .0226685
974.030 .0226644
974.643 .0226594
975.256 .0226548
975.869 .0226508
976.481 .0226477
977.093 .0226463
977.705 .0226465
978.316 .0226474
978.927 .0226486
979.538 .0226488
980.148 .0226477
980.758 .0226442
981.367 .0226387
981.977 .0226312
982.586 .0226220
983.194 .0226127
983.802 .0226033
984.410 .0225939
985.018 .0225859
985.625 .0225783
986.232 .0225716
986.838 .0225657
987.445 .0225596
988.050 .0225536
988.656 .0225472
989.261 .0225403
989.866 .0225329
990.471 .0225254
991.075 .0225183
991.679 .0225112
992.282 .0225047
992.886 .0224993
993.489 .0224944
994.091 .0224905
994.694 .0224866
995.296 .0224816
995.897 .0224757
996.499 .0224680
997.100 .0224582
997.701 .0224472
998.301 .0224362
998.901 .0224259
999.501 .0224169
1000.101 .0224106
1000.700 .0224071
1001.299 .0224053
1001.898 .0224050
1002.496 .0224049
1003.094 .0224038
1003.692 .0224014
1004.289 .0223973
1004.887 .0223924
1005.484 .0223887
1006.080 .0223867
1006.677 .0223869
1007.273 .0223896
1007.868 .0223946
1008.464 .0223999
1009.059 .0224049
1009.654 .0224090
1010.249 .0224111
1010.843 .0224110
1011.437 .0224100
1012.031 .0224085
1012.625 .0224077
1013.218 .0224085
1013.811 .0224118
1014.404 .0224179
1014.997 .0224267
1015.589 .0224365
1016.181 .0224466
1016.773 .0224568
1017.365 .0224656
1017.956 .0224728
1018.547 .0224794
1019.138 .0224852
1019.728 .0224907
1020.319 .0224962
1020.909 .0225020
1021.499 .0225079
1022.088 .0225144
1022.678 .0225206
1023.267 .0225255
1023.856 .0225289
1024.445 .0225310
1025.033 .0225314
1025.621 .0225310
1026.209 .0225298
1026.797 .0225274
1027.385 .0225244
1027.972 .0225207
1028.560 .0225156
1029.147 .0225101
1029.734 .0225042
1030.320 .0224981
1030.907 .0224921
1031.493 .0224871
1032.079 .0224830
1032.665 .0224797
1033.250 .0224765
1033.836 .0224733
1034.421 .0224682
1035.006 .0224616
1035.591 .0224534
1036.176 .0224451
1036.761 .0224379
1037.345 .0224332
1037.929 .0224322
1038.514 .0224350
1039.097 .0224411
1039.681 .0224498
1040.265 .0224586
1040.848 .0224669
1041.432 .0224723
1042.015 .0224744
1042.598 .0224730
1043.181 .0224698
1043.764 .0224657
1044.346 .0224614
1044.929 .0224583
1045.511 .0224556
1046.094 .0224517
1046.676 .0224468
1047.258 .0224400
1047.840 .0224302
1048.422 .0224187
1049.003 .0224065
1049.585 .0223949
1050.166 .0223870
1050.748 .0223839
1051.329 .0223856
1051.910 .0223922
1052.491 .0224030
1053.072 .0224158
1053.653 .0224289
1054.234 .0224416
1054.815 .0224535
1055.396 .0224648
1055.976 .0224766
1056.557 .0224874
1057.138 .0224995
1057.718 .0225126
1058.298 .0225255
1058.879 .0225358
1059.459 .0225410
1060.039 .0225398
1060.620 .0225303
1061.200 .0225124
1061.780 .0224881
1062.360 .0224590
1062.940 .0224297
1063.520 .0224017
1064.101 .0223786
1064.681 .0223612
1065.261 .0223493
1065.841 .0223407
1066.421 .0223340
1067.001 .0223262
1067.581 .0223147
1068.161 .0223008
1068.741 .0222852
1069.321 .0222706
1069.901 .0222591
1070.482 .0222529
1071.062 .0222521
1071.642 .0222573
1072.222 .0222672
1072.803 .0222788
1073.383 .0222900
1073.963 .0222988
1074.544 .0223011
1075.124 .0222993
1075.705 .0222947
1076.286 .0222884
1076.866 .0222820
1077.447 .0222785
1078.028 .0222753
1078.609 .0222738
1079.190 .0222708
1079.771 .0222663
1080.352 .0222604
1080.934 .0222560
1081.515 .0222518
1082.097 .0222510
1082.679 .0222540
1083.260 .0222599
1083.842 .0222674
1084.424 .0222763
1085.007 .0222814
1085.589 .0222829
1086.172 .0222806
1086.754 .0222747
1087.337 .0222667
1087.920 .0222597
1088.503 .0222555
1089.087 .0222579
1089.670 .0222651
1090.254 .0222735
1090.838 .0222823
1091.422 .0222912
1092.006 .0222952
1092.590 .0222957
1093.175 .0222944
1093.760 .0222912
1094.345 .0222883
1094.930 .0222878
1095.516 .0222908
1096.102 .0222981
1096.688 .0223093
1097.274 .0223222
1097.860 .0223351
1098.447 .0223483
1099.034 .0223570
1099.622 .0223610
1100.209 .0223634
1100.797 .0223620
1101.385 .0223559
1101.973 .0223489
1102.562 .0223409
1103.151 .0223329
1103.740 .0223260
1104.330 .0223216
1104.920 .0223177
1105.510 .0223149
1106.101 .0223130
1106.691 .0223092
1107.283 .0223042
1107.874 .0222984
1108.466 .0222908
1109.058 .0222839
1109.651 .0222777
1110.244 .0222703
1110.837 .0222632
1111.431 .0222566
1112.025 .0222502
1112.620 .0222442
1113.215 .0222398
1113.810 .0222406
1114.406 .0222453
1115.002 .0222546
1115.599 .0222670
1116.196 .0222779
1116.793 .0222882
1117.391 .0222969
1117.989 .0223017
1118.588 .0223010
1119.187 .0222982
1119.787 .0222953
1120.387 .0222920
1120.988 .0222929
1121.589 .0222966
1122.190 .0223021
1122.793 .0223083
1123.395 .0223157
1123.998 .0223175
1124.602 .0223179
1125.206 .0223174
1125.811 .0223146
1126.416 .0223154
1127.022 .0223224
1127.628 .0223324
1128.235 .0223510
1128.843 .0223769
1129.451 .0224071
1130.059 .0224339
1130.669 .0224612
1131.278 .0224825
1131.889 .0224944
1132.500 .0224961
1133.112 .0224902
1133.724 .0224771
1134.337 .0224650
1134.950 .0224523
1135.564 .0224439
1136.179 .0224453
1136.795 .0224554
1137.411 .0224737
1138.028 .0224977
1138.645 .0225267
1139.263 .0225623
1139.882 .0225979
1140.502 .0226487
1141.122 .0227065
1141.743 .0227865
1142.365 .0228634
1142.987 .0228483
1143.611 .0232098
1144.235 .0231989
1144.859 .0235334
1145.485 .0230116
