Measurement Sequence started on: 10-20-44-796
Integration time: 35
Scans to Average: 2 
>>>>>Begin Spectral Data<<<<<
432.953 .0409291
433.882 .0341253
434.810 .0344621
435.737 .0364391
436.662 .0357693
437.586 .0352997
438.509 .0349690
439.431 .0348394
440.351 .0346888
441.269 .0345215
442.187 .0344071
443.103 .0343256
444.018 .0342603
444.932 .0342014
445.844 .0341473
446.756 .0340684
447.666 .0339772
448.575 .0338839
449.482 .0337988
450.388 .0337355
451.294 .0336867
452.198 .0336587
453.100 .0336394
454.002 .0336376
454.902 .0336375
455.801 .0336415
456.699 .0336418
457.596 .0336461
458.492 .0336473
459.387 .0336415
460.280 .0336294
461.172 .0336138
462.064 .0336004
462.954 .0335840
463.843 .0335615
464.730 .0335352
465.617 .0335008
466.503 .0334674
467.387 .0334267
468.271 .0333817
469.153 .0333307
470.035 .0332725
470.915 .0332112
471.794 .0331438
472.673 .0330727
473.550 .0330021
474.426 .0329388
475.301 .0328820
476.175 .0328333
477.048 .0327950
477.920 .0327651
478.791 .0327437
479.661 .0327257
480.530 .0327109
481.398 .0326946
482.266 .0326814
483.132 .0326727
483.997 .0326680
484.861 .0326710
485.724 .0326794
486.587 .0326937
487.448 .0327139
488.308 .0327321
489.168 .0327463
490.026 .0327519
490.884 .0327498
491.741 .0327358
492.597 .0327119
493.452 .0326784
494.306 .0326397
495.159 .0325949
496.011 .0325490
496.862 .0324986
497.713 .0324438
498.562 .0323850
499.411 .0323228
500.259 .0322575
501.106 .0321902
501.952 .0321198
502.798 .0320527
503.642 .0319883
504.486 .0319297
505.329 .0318704
506.171 .0318116
507.012 .0317540
507.852 .0316950
508.692 .0316322
509.531 .0315686
510.369 .0315003
511.206 .0314311
512.043 .0313586
512.878 .0312790
513.713 .0311904
514.547 .0310896
515.381 .0309734
516.213 .0308370
517.045 .0306797
517.876 .0304994
518.706 .0302978
519.536 .0300862
520.365 .0298676
521.193 .0296455
522.020 .0294293
522.847 .0292220
523.673 .0290275
524.498 .0288449
525.323 .0286667
526.146 .0284904
526.969 .0283145
527.792 .0281324
528.614 .0279369
529.435 .0277323
530.255 .0275264
531.075 .0273180
531.894 .0271231
532.712 .0269392
533.530 .0267766
534.347 .0266383
535.163 .0265179
535.979 .0264160
536.794 .0263278
537.608 .0262492
538.422 .0261790
539.235 .0261194
540.048 .0260789
540.860 .0260555
541.671 .0260602
542.481 .0260912
543.292 .0261525
544.101 .0262356
544.910 .0263370
545.718 .0264460
546.526 .0265615
547.333 .0266727
548.139 .0267810
548.945 .0268838
549.750 .0269799
550.555 .0270708
551.359 .0271518
552.162 .0272160
552.965 .0272691
553.768 .0273087
554.569 .0273419
555.371 .0273683
556.171 .0273979
556.972 .0274327
557.771 .0274777
558.570 .0275351
559.369 .0276060
560.167 .0276870
560.964 .0277797
561.761 .0278764
562.558 .0279761
563.354 .0280787
564.149 .0281845
564.944 .0282932
565.738 .0284060
566.532 .0285216
567.325 .0286347
568.118 .0287414
568.910 .0288421
569.702 .0289357
570.494 .0290218
571.285 .0291012
572.075 .0291749
572.865 .0292411
573.654 .0293008
574.443 .0293525
575.232 .0293977
576.020 .0294388
576.807 .0294756
577.594 .0295093
578.381 .0295430
579.167 .0295801
579.952 .0296225
580.738 .0296700
581.522 .0297216
582.307 .0297744
583.091 .0298246
583.874 .0298700
584.657 .0299095
585.440 .0299445
586.222 .0299747
587.004 .0300020
587.785 .0300273
588.566 .0300518
589.346 .0300767
590.126 .0300992
590.906 .0301193
591.685 .0301377
592.464 .0301519
593.242 .0301609
594.020 .0301655
594.797 .0301672
595.575 .0301649
596.351 .0301613
597.128 .0301575
597.904 .0301544
598.679 .0301517
599.454 .0301493
600.229 .0301466
601.004 .0301441
601.778 .0301399
602.551 .0301341
603.325 .0301275
604.097 .0301205
604.870 .0301119
605.642 .0301028
606.414 .0300937
607.185 .0300846
607.956 .0300752
608.727 .0300658
609.497 .0300558
610.267 .0300453
611.037 .0300334
611.806 .0300204
612.575 .0300071
613.344 .0299936
614.112 .0299794
614.880 .0299653
615.647 .0299511
616.414 .0299365
617.181 .0299210
617.948 .0299046
618.714 .0298866
619.480 .0298672
620.245 .0298470
621.011 .0298261
621.775 .0298053
622.540 .0297849
623.304 .0297652
624.068 .0297462
624.832 .0297278
625.595 .0297095
626.358 .0296910
627.120 .0296719
627.883 .0296516
628.645 .0296302
629.406 .0296080
630.168 .0295851
630.929 .0295621
631.689 .0295394
632.450 .0295166
633.210 .0294941
633.970 .0294723
634.729 .0294509
635.489 .0294305
636.248 .0294106
637.006 .0293907
637.765 .0293714
638.523 .0293522
639.280 .0293328
640.038 .0293134
640.795 .0292946
641.552 .0292761
642.309 .0292588
643.065 .0292427
643.821 .0292285
644.577 .0292159
645.332 .0292055
646.088 .0291960
646.843 .0291866
647.597 .0291768
648.352 .0291660
649.106 .0291541
649.860 .0291412
650.613 .0291275
651.367 .0291141
652.120 .0291013
652.872 .0290899
653.625 .0290789
654.377 .0290691
655.129 .0290595
655.881 .0290499
656.632 .0290389
657.384 .0290268
658.135 .0290131
658.885 .0289986
659.636 .0289835
660.386 .0289685
661.136 .0289535
661.885 .0289395
662.635 .0289264
663.384 .0289138
664.133 .0289014
664.881 .0288890
665.630 .0288767
666.378 .0288650
667.126 .0288536
667.874 .0288425
668.621 .0288314
669.368 .0288211
670.115 .0288106
670.862 .0287997
671.608 .0287887
672.354 .0287773
673.100 .0287655
673.846 .0287538
674.591 .0287417
675.337 .0287297
676.082 .0287185
676.826 .0287076
677.571 .0286970
678.315 .0286862
679.059 .0286755
679.803 .0286647
680.547 .0286540
681.290 .0286429
682.033 .0286314
682.776 .0286199
683.518 .0286083
684.261 .0285957
685.003 .0285828
685.745 .0285686
686.487 .0285532
687.228 .0285365
687.969 .0285185
688.710 .0284991
689.451 .0284787
690.192 .0284577
690.932 .0284362
691.672 .0284144
692.412 .0283921
693.152 .0283694
693.891 .0283467
694.630 .0283236
695.369 .0282999
696.108 .0282761
696.846 .0282528
697.585 .0282299
698.323 .0282084
699.061 .0281886
699.798 .0281706
700.536 .0281544
701.273 .0281394
702.010 .0281252
702.746 .0281110
703.483 .0280966
704.219 .0280814
704.955 .0280655
705.691 .0280492
706.427 .0280322
707.162 .0280149
707.897 .0279978
708.632 .0279811
709.367 .0279644
710.101 .0279474
710.835 .0279302
711.569 .0279126
712.303 .0278939
713.037 .0278744
713.770 .0278544
714.503 .0278334
715.236 .0278118
715.969 .0277898
716.702 .0277673
717.434 .0277451
718.166 .0277231
718.898 .0277014
719.629 .0276803
720.361 .0276599
721.092 .0276397
721.823 .0276195
722.554 .0275996
723.284 .0275792
724.014 .0275578
724.744 .0275358
725.474 .0275124
726.204 .0274876
726.933 .0274620
727.662 .0274353
728.391 .0274082
729.120 .0273810
729.849 .0273539
730.577 .0273274
731.305 .0273019
732.033 .0272776
732.760 .0272538
733.488 .0272306
734.215 .0272084
734.942 .0271866
735.669 .0271649
736.395 .0271437
737.122 .0271229
737.848 .0271031
738.573 .0270845
739.299 .0270671
740.024 .0270514
740.750 .0270370
741.474 .0270235
742.199 .0270108
742.924 .0269977
743.648 .0269848
744.372 .0269717
745.096 .0269591
745.819 .0269470
746.543 .0269355
747.266 .0269254
747.989 .0269164
748.711 .0269088
749.434 .0269020
750.156 .0268958
750.878 .0268902
751.599 .0268854
752.321 .0268808
753.042 .0268767
753.763 .0268738
754.484 .0268717
755.205 .0268704
755.925 .0268698
756.645 .0268689
757.365 .0268674
758.085 .0268650
758.804 .0268612
759.523 .0268553
760.242 .0268480
760.961 .0268388
761.679 .0268279
762.397 .0268152
763.115 .0268013
763.833 .0267858
764.551 .0267700
765.268 .0267528
765.985 .0267343
766.702 .0267154
767.418 .0266961
768.134 .0266766
768.850 .0266575
769.566 .0266389
770.282 .0266211
770.997 .0266040
771.712 .0265879
772.427 .0265724
773.142 .0265583
773.856 .0265455
774.570 .0265338
775.284 .0265229
775.998 .0265127
776.711 .0265030
777.424 .0264940
778.137 .0264859
778.849 .0264776
779.562 .0264695
780.274 .0264614
780.986 .0264538
781.697 .0264461
782.409 .0264387
783.120 .0264316
783.831 .0264247
784.541 .0264181
785.252 .0264113
785.962 .0264042
786.671 .0263972
787.381 .0263895
788.090 .0263817
788.799 .0263732
789.508 .0263643
790.217 .0263545
790.925 .0263441
791.633 .0263330
792.341 .0263207
793.048 .0263069
793.755 .0262920
794.462 .0262762
795.169 .0262600
795.875 .0262436
796.581 .0262282
797.287 .0262145
797.993 .0262029
798.698 .0261929
799.403 .0261848
800.108 .0261782
800.812 .0261726
801.517 .0261672
802.221 .0261620
802.924 .0261567
803.628 .0261516
804.331 .0261467
805.034 .0261422
805.736 .0261379
806.439 .0261335
807.141 .0261285
807.843 .0261230
808.544 .0261160
809.245 .0261069
809.946 .0260960
810.647 .0260835
811.347 .0260699
812.047 .0260553
812.747 .0260403
813.447 .0260250
814.146 .0260097
814.845 .0259948
815.543 .0259796
816.242 .0259644
816.940 .0259500
817.638 .0259361
818.335 .0259228
819.032 .0259105
819.729 .0258992
820.426 .0258887
821.122 .0258791
821.818 .0258693
822.514 .0258591
823.209 .0258490
823.905 .0258388
824.599 .0258282
825.294 .0258176
825.988 .0258071
826.682 .0257962
827.376 .0257854
828.069 .0257747
828.762 .0257633
829.455 .0257514
830.147 .0257393
830.840 .0257265
831.531 .0257133
832.223 .0257000
832.914 .0256870
833.605 .0256746
834.296 .0256627
834.986 .0256509
835.676 .0256394
836.366 .0256287
837.055 .0256183
837.744 .0256082
838.433 .0255985
839.121 .0255894
839.809 .0255807
840.497 .0255729
841.185 .0255656
841.872 .0255584
842.559 .0255515
843.245 .0255442
843.932 .0255363
844.617 .0255276
845.303 .0255180
845.988 .0255079
846.673 .0254973
847.358 .0254864
848.042 .0254753
848.726 .0254645
849.410 .0254536
850.093 .0254427
850.776 .0254312
851.459 .0254187
852.141 .0254049
852.823 .0253898
853.505 .0253741
854.186 .0253580
854.867 .0253420
855.548 .0253269
856.228 .0253132
856.908 .0253010
857.588 .0252899
858.267 .0252799
858.946 .0252703
859.625 .0252606
860.303 .0252503
860.981 .0252396
861.659 .0252285
862.336 .0252173
863.013 .0252066
863.690 .0251965
864.366 .0251867
865.042 .0251769
865.718 .0251673
866.393 .0251573
867.068 .0251464
867.743 .0251342
868.417 .0251207
869.091 .0251062
869.765 .0250907
870.438 .0250741
871.111 .0250574
871.783 .0250414
872.456 .0250261
873.127 .0250113
873.799 .0249975
874.470 .0249848
875.141 .0249728
875.811 .0249619
876.481 .0249511
877.151 .0249405
877.820 .0249297
878.489 .0249187
879.158 .0249078
879.826 .0248976
880.494 .0248881
881.162 .0248794
881.829 .0248716
882.496 .0248644
883.163 .0248567
883.829 .0248485
884.495 .0248393
885.160 .0248291
885.825 .0248171
886.490 .0248040
887.154 .0247904
887.818 .0247774
888.482 .0247646
889.145 .0247524
889.808 .0247409
890.471 .0247296
891.133 .0247177
891.795 .0247054
892.456 .0246922
893.117 .0246790
893.778 .0246653
894.439 .0246521
895.099 .0246397
895.758 .0246287
896.417 .0246189
897.076 .0246104
897.735 .0246029
898.393 .0245957
899.051 .0245883
899.708 .0245809
900.365 .0245735
901.022 .0245664
901.678 .0245595
902.334 .0245532
902.990 .0245478
903.645 .0245434
904.300 .0245392
904.954 .0245353
905.608 .0245311
906.262 .0245264
906.915 .0245205
907.568 .0245138
908.221 .0245066
908.873 .0244996
909.525 .0244928
910.176 .0244869
910.828 .0244819
911.478 .0244780
912.129 .0244744
912.778 .0244706
913.428 .0244661
914.077 .0244604
914.726 .0244529
915.375 .0244440
916.023 .0244344
916.670 .0244241
917.318 .0244134
917.964 .0244030
918.611 .0243925
919.257 .0243812
919.903 .0243689
920.548 .0243547
921.193 .0243389
921.838 .0243212
922.482 .0243019
923.126 .0242816
923.770 .0242615
924.413 .0242420
925.056 .0242234
925.698 .0242063
926.340 .0241907
926.982 .0241763
927.623 .0241632
928.264 .0241511
928.904 .0241398
929.544 .0241293
930.184 .0241201
930.823 .0241121
931.462 .0241052
932.101 .0240992
932.739 .0240940
933.377 .0240891
934.014 .0240842
934.651 .0240789
935.288 .0240729
935.924 .0240667
936.560 .0240595
937.196 .0240514
937.831 .0240425
938.466 .0240324
939.100 .0240213
939.734 .0240093
940.368 .0239966
941.001 .0239830
941.634 .0239688
942.266 .0239548
942.899 .0239411
943.530 .0239276
944.162 .0239141
944.793 .0239005
945.423 .0238863
946.053 .0238715
946.683 .0238557
947.313 .0238389
947.942 .0238214
948.571 .0238031
949.199 .0237845
949.827 .0237657
950.455 .0237468
951.082 .0237285
951.709 .0237105
952.335 .0236933
952.961 .0236763
953.587 .0236597
954.212 .0236437
954.837 .0236281
955.462 .0236129
956.086 .0235981
956.710 .0235840
957.334 .0235706
957.957 .0235579
958.579 .0235460
959.202 .0235347
959.824 .0235242
960.445 .0235142
961.067 .0235043
961.688 .0234945
962.308 .0234846
962.928 .0234740
963.548 .0234627
964.168 .0234512
964.787 .0234387
965.406 .0234263
966.024 .0234144
966.642 .0234031
967.260 .0233929
967.877 .0233835
968.494 .0233751
969.110 .0233677
969.727 .0233607
970.342 .0233540
970.958 .0233472
971.573 .0233410
972.188 .0233343
972.802 .0233281
973.416 .0233225
974.030 .0233175
974.643 .0233130
975.256 .0233097
975.869 .0233070
976.481 .0233046
977.093 .0233027
977.705 .0233008
978.316 .0232991
978.927 .0232972
979.538 .0232947
980.148 .0232917
980.758 .0232885
981.367 .0232853
981.977 .0232819
982.586 .0232794
983.194 .0232778
983.802 .0232768
984.410 .0232761
985.018 .0232749
985.625 .0232732
986.232 .0232704
986.838 .0232668
987.445 .0232622
988.050 .0232571
988.656 .0232521
989.261 .0232477
989.866 .0232443
990.471 .0232421
991.075 .0232411
991.679 .0232406
992.282 .0232400
992.886 .0232382
993.489 .0232351
994.091 .0232313
994.694 .0232271
995.296 .0232233
995.897 .0232201
996.499 .0232182
997.100 .0232173
997.701 .0232181
998.301 .0232199
998.901 .0232225
999.501 .0232261
1000.101 .0232297
1000.700 .0232330
1001.299 .0232363
1001.898 .0232400
1002.496 .0232443
1003.094 .0232495
1003.692 .0232557
1004.289 .0232620
1004.887 .0232688
1005.484 .0232753
1006.080 .0232808
1006.677 .0232858
1007.273 .0232897
1007.868 .0232926
1008.464 .0232950
1009.059 .0232972
1009.654 .0232990
1010.249 .0233015
1010.843 .0233045
1011.437 .0233067
1012.031 .0233082
1012.625 .0233088
1013.218 .0233074
1013.811 .0233045
1014.404 .0233006
1014.997 .0232960
1015.589 .0232914
1016.181 .0232881
1016.773 .0232856
1017.365 .0232848
1017.956 .0232851
1018.547 .0232861
1019.138 .0232878
1019.728 .0232900
1020.319 .0232923
1020.909 .0232948
1021.499 .0232976
1022.088 .0233004
1022.678 .0233037
1023.267 .0233080
1023.856 .0233131
1024.445 .0233190
1025.033 .0233250
1025.621 .0233311
1026.209 .0233370
1026.797 .0233417
1027.385 .0233452
1027.972 .0233475
1028.560 .0233478
1029.147 .0233446
1029.734 .0233397
1030.320 .0233331
1030.907 .0233254
1031.493 .0233179
1032.079 .0233114
1032.665 .0233070
1033.250 .0233052
1033.836 .0233048
1034.421 .0233061
1035.006 .0233089
1035.591 .0233129
1036.176 .0233162
1036.761 .0233199
1037.345 .0233241
1037.929 .0233283
1038.514 .0233333
1039.097 .0233409
1039.681 .0233496
1040.265 .0233597
1040.848 .0233704
1041.432 .0233808
1042.015 .0233898
1042.598 .0233963
1043.181 .0233997
1043.764 .0234005
1044.346 .0233995
1044.929 .0233970
1045.511 .0233927
1046.094 .0233894
1046.676 .0233872
1047.258 .0233849
1047.840 .0233834
1048.422 .0233827
1049.003 .0233812
1049.585 .0233797
1050.166 .0233772
1050.748 .0233740
1051.329 .0233702
1051.910 .0233667
1052.491 .0233624
1053.072 .0233579
1053.653 .0233536
1054.234 .0233489
1054.815 .0233434
1055.396 .0233387
1055.976 .0233331
1056.557 .0233279
1057.138 .0233240
1057.718 .0233206
1058.298 .0233179
1058.879 .0233173
1059.459 .0233166
1060.039 .0233159
1060.620 .0233136
1061.200 .0233101
1061.780 .0233048
1062.360 .0232988
1062.940 .0232921
1063.520 .0232857
1064.101 .0232799
1064.681 .0232757
1065.261 .0232709
1065.841 .0232661
1066.421 .0232594
1067.001 .0232490
1067.581 .0232354
1068.161 .0232185
1068.741 .0231984
1069.321 .0231781
1069.901 .0231584
1070.482 .0231416
1071.062 .0231257
1071.642 .0231122
1072.222 .0231000
1072.803 .0230891
1073.383 .0230783
1073.963 .0230676
1074.544 .0230552
1075.124 .0230434
1075.705 .0230314
1076.286 .0230204
1076.866 .0230110
1077.447 .0230033
1078.028 .0229972
1078.609 .0229920
1079.190 .0229873
1079.771 .0229843
1080.352 .0229820
1080.934 .0229831
1081.515 .0229878
1082.097 .0229971
1082.679 .0230106
1083.260 .0230293
1083.842 .0230530
1084.424 .0230806
1085.007 .0231110
1085.589 .0231424
1086.172 .0231728
1086.754 .0232020
1087.337 .0232303
1087.920 .0232546
1088.503 .0232765
1089.087 .0232956
1089.670 .0233108
1090.254 .0233221
1090.838 .0233293
1091.422 .0233326
1092.006 .0233325
1092.590 .0233303
1093.175 .0233261
1093.760 .0233186
1094.345 .0233116
1094.930 .0233035
1095.516 .0232949
1096.102 .0232855
1096.688 .0232757
1097.274 .0232641
1097.860 .0232526
1098.447 .0232405
1099.034 .0232275
1099.622 .0232150
1100.209 .0232037
1100.797 .0231931
1101.385 .0231808
1101.973 .0231683
1102.562 .0231550
1103.151 .0231397
1103.740 .0231235
1104.330 .0231048
1104.920 .0230852
1105.510 .0230664
1106.101 .0230480
1106.691 .0230320
1107.283 .0230184
1107.874 .0230091
1108.466 .0230011
1109.058 .0229968
1109.651 .0229946
1110.244 .0229951
1110.837 .0229991
1111.431 .0230077
1112.025 .0230186
1112.620 .0230313
1113.215 .0230439
1113.810 .0230578
1114.406 .0230723
1115.002 .0230852
1115.599 .0230937
1116.196 .0231014
1116.793 .0231050
1117.391 .0231044
1117.989 .0231000
1118.588 .0230964
1119.187 .0230904
1119.787 .0230843
1120.387 .0230767
1120.988 .0230694
1121.589 .0230635
1122.190 .0230581
1122.793 .0230518
1123.395 .0230468
1123.998 .0230404
1124.602 .0230327
1125.206 .0230260
1125.811 .0230219
1126.416 .0230169
1127.022 .0230148
1127.628 .0230155
1128.235 .0230201
1128.843 .0230286
1129.451 .0230428
1130.059 .0230613
1130.669 .0230879
1131.278 .0231170
1131.889 .0231465
1132.500 .0231790
1133.112 .0232153
1133.724 .0232537
1134.337 .0232947
1134.950 .0233386
1135.564 .0233856
1136.179 .0234360
1136.795 .0234931
1137.411 .0235549
1138.028 .0236236
1138.645 .0236925
1139.263 .0237660
1139.882 .0238419
1140.502 .0239217
1141.122 .0239964
1141.743 .0240762
1142.365 .0241797
1142.987 .0242480
1143.611 .0244086
1144.235 .0242334
1144.859 .0245154
1145.485 .0252370
