Measurement Sequence started on: 10-20-44-796
Integration time: 35
Scans to Average: 2 
>>>>>Begin Spectral Data<<<<<
432.953 .0471846
433.882 .0456465
434.810 .0434608
435.737 .0412945
436.662 .0409989
437.586 .0413405
438.509 .0407381
439.431 .0402819
440.351 .0399672
441.269 .0397530
442.187 .0395653
443.103 .0394116
444.018 .0392899
444.932 .0392021
445.844 .0391200
446.756 .0390403
447.666 .0389558
448.575 .0388555
449.482 .0387554
450.388 .0386320
451.294 .0385094
452.198 .0383925
453.100 .0382719
454.002 .0381540
454.902 .0380444
455.801 .0379459
456.699 .0378686
457.596 .0378160
458.492 .0377722
459.387 .0377313
460.280 .0376985
461.172 .0376577
462.064 .0376114
462.954 .0375555
463.843 .0374956
464.730 .0374389
465.617 .0373965
466.503 .0373663
467.387 .0373489
468.271 .0373464
469.153 .0373552
470.035 .0373705
470.915 .0373802
471.794 .0373818
472.673 .0373759
473.550 .0373638
474.426 .0373470
475.301 .0373272
476.175 .0373057
477.048 .0372829
477.920 .0372569
478.791 .0372237
479.661 .0371793
480.530 .0371257
481.398 .0370621
482.266 .0369899
483.132 .0369114
483.997 .0368309
484.861 .0367486
485.724 .0366730
486.587 .0366022
487.448 .0365358
488.308 .0364728
489.168 .0364134
490.026 .0363529
490.884 .0362908
491.741 .0362268
492.597 .0361627
493.452 .0360983
494.306 .0360362
495.159 .0359777
496.011 .0359227
496.862 .0358758
497.713 .0358332
498.562 .0357889
499.411 .0357455
500.259 .0356962
501.106 .0356387
501.952 .0355741
502.798 .0355020
503.642 .0354252
504.486 .0353479
505.329 .0352763
506.171 .0352088
507.012 .0351491
507.852 .0350973
508.692 .0350456
509.531 .0349915
510.369 .0349331
511.206 .0348638
512.043 .0347874
512.878 .0347029
513.713 .0346074
514.547 .0345038
515.381 .0343985
516.213 .0342852
517.045 .0341641
517.876 .0340331
518.706 .0338925
519.536 .0337437
520.365 .0335903
521.193 .0334353
522.020 .0332812
522.847 .0331381
523.673 .0329976
524.498 .0328567
525.323 .0327082
526.146 .0325544
526.969 .0323944
527.792 .0322311
528.614 .0320628
529.435 .0318927
530.255 .0317314
531.075 .0315815
531.894 .0314366
532.712 .0313031
533.530 .0311696
534.347 .0310423
535.163 .0309054
535.979 .0307716
536.794 .0306435
537.608 .0305317
538.422 .0304361
539.235 .0303641
540.048 .0303136
540.860 .0302906
541.671 .0302809
542.481 .0302871
543.292 .0302988
544.101 .0303161
544.910 .0303313
545.718 .0303494
546.526 .0303712
547.333 .0304072
548.139 .0304463
548.945 .0305021
549.750 .0305658
550.555 .0306398
551.359 .0307153
552.162 .0307912
552.965 .0308629
553.768 .0309260
554.569 .0309764
555.371 .0310189
556.171 .0310507
556.972 .0310769
557.771 .0310964
558.570 .0311168
559.369 .0311411
560.167 .0311658
560.964 .0311930
561.761 .0312257
562.558 .0312619
563.354 .0313030
564.149 .0313455
564.944 .0313896
565.738 .0314386
566.532 .0314933
567.325 .0315514
568.118 .0316138
568.910 .0316802
569.702 .0317483
570.494 .0318179
571.285 .0318891
572.075 .0319608
572.865 .0320329
573.654 .0321066
574.443 .0321771
575.232 .0322439
576.020 .0323080
576.807 .0323680
577.594 .0324225
578.381 .0324719
579.167 .0325169
579.952 .0325601
580.738 .0326032
581.522 .0326464
582.307 .0326911
583.091 .0327367
583.874 .0327824
584.657 .0328255
585.440 .0328650
586.222 .0328992
587.004 .0329285
587.785 .0329531
588.566 .0329734
589.346 .0329888
590.126 .0330018
590.906 .0330130
591.685 .0330239
592.464 .0330321
593.242 .0330382
594.020 .0330415
594.797 .0330429
595.575 .0330402
596.351 .0330351
597.128 .0330267
597.904 .0330157
598.679 .0330021
599.454 .0329863
600.229 .0329695
601.004 .0329527
601.778 .0329364
602.551 .0329213
603.325 .0329062
604.097 .0328911
604.870 .0328750
605.642 .0328587
606.414 .0328409
607.185 .0328214
607.956 .0328005
608.727 .0327791
609.497 .0327577
610.267 .0327378
611.037 .0327193
611.806 .0327034
612.575 .0326891
613.344 .0326748
614.112 .0326596
614.880 .0326430
615.647 .0326244
616.414 .0326042
617.181 .0325825
617.948 .0325604
618.714 .0325377
619.480 .0325157
620.245 .0324943
621.011 .0324735
621.775 .0324531
622.540 .0324330
623.304 .0324127
624.068 .0323928
624.832 .0323720
625.595 .0323516
626.358 .0323314
627.120 .0323118
627.883 .0322915
628.645 .0322705
629.406 .0322483
630.168 .0322248
630.929 .0321998
631.689 .0321737
632.450 .0321465
633.210 .0321198
633.970 .0320923
634.729 .0320654
635.489 .0320381
636.248 .0320098
637.006 .0319804
637.765 .0319500
638.523 .0319184
639.280 .0318856
640.038 .0318525
640.795 .0318204
641.552 .0317900
642.309 .0317623
643.065 .0317369
643.821 .0317138
644.577 .0316929
645.332 .0316731
646.088 .0316536
646.843 .0316343
647.597 .0316155
648.352 .0315967
649.106 .0315784
649.860 .0315603
650.613 .0315435
651.367 .0315276
652.120 .0315137
652.872 .0315013
653.625 .0314893
654.377 .0314776
655.129 .0314656
655.881 .0314531
656.632 .0314401
657.384 .0314266
658.135 .0314130
658.885 .0313992
659.636 .0313867
660.386 .0313745
661.136 .0313625
661.885 .0313516
662.635 .0313410
663.384 .0313297
664.133 .0313173
664.881 .0313034
665.630 .0312878
666.378 .0312713
667.126 .0312537
667.874 .0312349
668.621 .0312157
669.368 .0311967
670.115 .0311777
670.862 .0311591
671.608 .0311414
672.354 .0311241
673.100 .0311071
673.846 .0310904
674.591 .0310731
675.337 .0310559
676.082 .0310388
676.826 .0310221
677.571 .0310053
678.315 .0309889
679.059 .0309727
679.803 .0309568
680.547 .0309414
681.290 .0309258
682.033 .0309093
682.776 .0308921
683.518 .0308738
684.261 .0308539
685.003 .0308321
685.745 .0308092
686.487 .0307854
687.228 .0307613
687.969 .0307368
688.710 .0307119
689.451 .0306870
690.192 .0306620
690.932 .0306362
691.672 .0306100
692.412 .0305835
693.152 .0305568
693.891 .0305306
694.630 .0305056
695.369 .0304817
696.108 .0304590
696.846 .0304374
697.585 .0304164
698.323 .0303955
699.061 .0303746
699.798 .0303533
700.536 .0303318
701.273 .0303109
702.010 .0302905
702.746 .0302714
703.483 .0302543
704.219 .0302383
704.955 .0302236
705.691 .0302093
706.427 .0301945
707.162 .0301787
707.897 .0301614
708.632 .0301430
709.367 .0301233
710.101 .0301028
710.835 .0300818
711.569 .0300608
712.303 .0300397
713.037 .0300183
713.770 .0299965
714.503 .0299738
715.236 .0299505
715.969 .0299262
716.702 .0299014
717.434 .0298767
718.166 .0298523
718.898 .0298280
719.629 .0298042
720.361 .0297809
721.092 .0297572
721.823 .0297333
722.554 .0297092
723.284 .0296845
724.014 .0296594
724.744 .0296338
725.474 .0296075
726.204 .0295809
726.933 .0295541
727.662 .0295264
728.391 .0294981
729.120 .0294696
729.849 .0294412
730.577 .0294132
731.305 .0293863
732.033 .0293603
732.760 .0293357
733.488 .0293118
734.215 .0292887
734.942 .0292662
735.669 .0292442
736.395 .0292228
737.122 .0292021
737.848 .0291829
738.573 .0291653
739.299 .0291496
740.024 .0291361
740.750 .0291242
741.474 .0291136
742.199 .0291029
742.924 .0290920
743.648 .0290804
744.372 .0290683
745.096 .0290558
745.819 .0290434
746.543 .0290312
747.266 .0290197
747.989 .0290089
748.711 .0289987
749.434 .0289888
750.156 .0289791
750.878 .0289691
751.599 .0289595
752.321 .0289502
753.042 .0289416
753.763 .0289339
754.484 .0289278
755.205 .0289224
755.925 .0289177
756.645 .0289127
757.365 .0289071
758.085 .0289010
758.804 .0288938
759.523 .0288852
760.242 .0288759
760.961 .0288656
761.679 .0288551
762.397 .0288439
763.115 .0288320
763.833 .0288191
764.551 .0288052
765.268 .0287897
765.985 .0287722
766.702 .0287525
767.418 .0287315
768.134 .0287092
768.850 .0286869
769.566 .0286642
770.282 .0286422
770.997 .0286214
771.712 .0286021
772.427 .0285840
773.142 .0285672
773.856 .0285509
774.570 .0285352
775.284 .0285192
775.998 .0285030
776.711 .0284869
777.424 .0284708
778.137 .0284551
778.849 .0284400
779.562 .0284252
780.274 .0284110
780.986 .0283974
781.697 .0283850
782.409 .0283727
783.120 .0283614
783.831 .0283506
784.541 .0283402
785.252 .0283303
785.962 .0283212
786.671 .0283124
787.381 .0283041
788.090 .0282959
788.799 .0282873
789.508 .0282781
790.217 .0282685
790.925 .0282581
791.633 .0282472
792.341 .0282356
793.048 .0282232
793.755 .0282103
794.462 .0281970
795.169 .0281832
795.875 .0281693
796.581 .0281552
797.287 .0281408
797.993 .0281262
798.698 .0281115
799.403 .0280970
800.108 .0280827
800.812 .0280690
801.517 .0280562
802.221 .0280448
802.924 .0280345
803.628 .0280253
804.331 .0280176
805.034 .0280108
805.736 .0280043
806.439 .0279975
807.141 .0279902
807.843 .0279823
808.544 .0279732
809.245 .0279628
809.946 .0279515
810.647 .0279397
811.347 .0279275
812.047 .0279152
812.747 .0279028
813.447 .0278904
814.146 .0278779
814.845 .0278659
815.543 .0278540
816.242 .0278427
816.940 .0278315
817.638 .0278209
818.335 .0278109
819.032 .0278009
819.729 .0277907
820.426 .0277802
821.122 .0277691
821.818 .0277567
822.514 .0277427
823.209 .0277274
823.905 .0277109
824.599 .0276931
825.294 .0276740
825.988 .0276539
826.682 .0276327
827.376 .0276108
828.069 .0275880
828.762 .0275646
829.455 .0275406
830.147 .0275164
830.840 .0274925
831.531 .0274691
832.223 .0274475
832.914 .0274276
833.605 .0274101
834.296 .0273953
834.986 .0273824
835.676 .0273709
836.366 .0273602
837.055 .0273497
837.744 .0273381
838.433 .0273254
839.121 .0273118
839.809 .0272971
840.497 .0272821
841.185 .0272669
841.872 .0272522
842.559 .0272383
843.245 .0272251
843.932 .0272122
844.617 .0271995
845.303 .0271867
845.988 .0271728
846.673 .0271579
847.358 .0271425
848.042 .0271266
848.726 .0271105
849.410 .0270948
850.093 .0270795
850.776 .0270647
851.459 .0270504
852.141 .0270361
852.823 .0270221
853.505 .0270080
854.186 .0269936
854.867 .0269791
855.548 .0269648
856.228 .0269507
856.908 .0269370
857.588 .0269242
858.267 .0269120
858.946 .0269001
859.625 .0268889
860.303 .0268778
860.981 .0268671
861.659 .0268566
862.336 .0268460
863.013 .0268351
863.690 .0268242
864.366 .0268125
865.042 .0268004
865.718 .0267880
866.393 .0267747
867.068 .0267605
867.743 .0267455
868.417 .0267294
869.091 .0267125
869.765 .0266954
870.438 .0266783
871.111 .0266612
871.783 .0266446
872.456 .0266285
873.127 .0266131
873.799 .0265985
874.470 .0265843
875.141 .0265705
875.811 .0265573
876.481 .0265440
877.151 .0265309
877.820 .0265181
878.489 .0265060
879.158 .0264940
879.826 .0264830
880.494 .0264727
881.162 .0264635
881.829 .0264549
882.496 .0264465
883.163 .0264384
883.829 .0264304
884.495 .0264217
885.160 .0264132
885.825 .0264050
886.490 .0263976
887.154 .0263905
887.818 .0263844
888.482 .0263788
889.145 .0263735
889.808 .0263686
890.471 .0263635
891.133 .0263583
891.795 .0263530
892.456 .0263474
893.117 .0263420
893.778 .0263373
894.439 .0263330
895.099 .0263287
895.758 .0263250
896.417 .0263217
897.076 .0263182
897.735 .0263142
898.393 .0263100
899.051 .0263051
899.708 .0262993
900.365 .0262923
901.022 .0262841
901.678 .0262749
902.334 .0262652
902.990 .0262547
903.645 .0262434
904.300 .0262319
904.954 .0262207
905.608 .0262092
906.262 .0261979
906.915 .0261865
907.568 .0261747
908.221 .0261628
908.873 .0261513
909.525 .0261400
910.176 .0261293
910.828 .0261198
911.478 .0261117
912.129 .0261045
912.778 .0260985
913.428 .0260928
914.077 .0260872
914.726 .0260813
915.375 .0260745
916.023 .0260667
916.670 .0260588
917.318 .0260508
917.964 .0260430
918.611 .0260356
919.257 .0260284
919.903 .0260212
920.548 .0260138
921.193 .0260060
921.838 .0259976
922.482 .0259887
923.126 .0259796
923.770 .0259700
924.413 .0259609
925.056 .0259518
925.698 .0259434
926.340 .0259358
926.982 .0259289
927.623 .0259223
928.264 .0259158
928.904 .0259089
929.544 .0259011
930.184 .0258921
930.823 .0258815
931.462 .0258691
932.101 .0258560
932.739 .0258418
933.377 .0258270
934.014 .0258117
934.651 .0257970
935.288 .0257824
935.924 .0257684
936.560 .0257544
937.196 .0257403
937.831 .0257255
938.466 .0257102
939.100 .0256944
939.734 .0256788
940.368 .0256640
941.001 .0256502
941.634 .0256370
942.266 .0256250
942.899 .0256129
943.530 .0256006
944.162 .0255874
944.793 .0255735
945.423 .0255576
946.053 .0255397
946.683 .0255205
947.313 .0255001
947.942 .0254787
948.571 .0254569
949.199 .0254347
949.827 .0254124
950.455 .0253897
951.082 .0253670
951.709 .0253445
952.335 .0253233
952.961 .0253035
953.587 .0252858
954.212 .0252703
954.837 .0252575
955.462 .0252467
956.086 .0252381
956.710 .0252315
957.334 .0252257
957.957 .0252207
958.579 .0252161
959.202 .0252114
959.824 .0252064
960.445 .0252015
961.067 .0251967
961.688 .0251920
962.308 .0251871
962.928 .0251817
963.548 .0251752
964.168 .0251674
964.787 .0251578
965.406 .0251466
966.024 .0251342
966.642 .0251206
967.260 .0251062
967.877 .0250918
968.494 .0250776
969.110 .0250642
969.727 .0250515
970.342 .0250397
970.958 .0250285
971.573 .0250173
972.188 .0250059
972.802 .0249942
973.416 .0249826
974.030 .0249712
974.643 .0249604
975.256 .0249505
975.869 .0249415
976.481 .0249332
977.093 .0249263
977.705 .0249200
978.316 .0249141
978.927 .0249086
979.538 .0249033
980.148 .0248983
980.758 .0248936
981.367 .0248899
981.977 .0248874
982.586 .0248864
983.194 .0248869
983.802 .0248883
984.410 .0248897
985.018 .0248907
985.625 .0248904
986.232 .0248886
986.838 .0248853
987.445 .0248800
988.050 .0248740
988.656 .0248673
989.261 .0248604
989.866 .0248524
990.471 .0248433
991.075 .0248330
991.679 .0248203
992.282 .0248054
992.886 .0247887
993.489 .0247712
994.091 .0247546
994.694 .0247393
995.296 .0247268
995.897 .0247169
996.499 .0247100
997.100 .0247050
997.701 .0247021
998.301 .0246998
998.901 .0246983
999.501 .0246971
1000.101 .0246971
1000.700 .0246980
1001.299 .0247001
1001.898 .0247031
1002.496 .0247075
1003.094 .0247123
1003.692 .0247171
1004.289 .0247209
1004.887 .0247245
1005.484 .0247264
1006.080 .0247269
1006.677 .0247262
1007.273 .0247245
1007.868 .0247215
1008.464 .0247183
1009.059 .0247144
1009.654 .0247114
1010.249 .0247083
1010.843 .0247061
1011.437 .0247049
1012.031 .0247050
1012.625 .0247052
1013.218 .0247056
1013.811 .0247056
1014.404 .0247056
1014.997 .0247041
1015.589 .0247018
1016.181 .0246989
1016.773 .0246956
1017.365 .0246922
1017.956 .0246889
1018.547 .0246854
1019.138 .0246819
1019.728 .0246770
1020.319 .0246719
1020.909 .0246659
1021.499 .0246590
1022.088 .0246520
1022.678 .0246451
1023.267 .0246393
1023.856 .0246343
1024.445 .0246298
1025.033 .0246270
1025.621 .0246252
1026.209 .0246245
1026.797 .0246238
1027.385 .0246233
1027.972 .0246236
1028.560 .0246247
1029.147 .0246267
1029.734 .0246301
1030.320 .0246338
1030.907 .0246380
1031.493 .0246422
1032.079 .0246458
1032.665 .0246484
1033.250 .0246492
1033.836 .0246487
1034.421 .0246464
1035.006 .0246424
1035.591 .0246367
1036.176 .0246299
1036.761 .0246229
1037.345 .0246148
1037.929 .0246053
1038.514 .0245957
1039.097 .0245862
1039.681 .0245773
1040.265 .0245696
1040.848 .0245639
1041.432 .0245601
1042.015 .0245575
1042.598 .0245558
1043.181 .0245550
1043.764 .0245550
1044.346 .0245553
1044.929 .0245561
1045.511 .0245581
1046.094 .0245616
1046.676 .0245654
1047.258 .0245707
1047.840 .0245765
1048.422 .0245816
1049.003 .0245845
1049.585 .0245843
1050.166 .0245810
1050.748 .0245748
1051.329 .0245650
1051.910 .0245537
1052.491 .0245420
1053.072 .0245308
1053.653 .0245197
1054.234 .0245101
1054.815 .0245025
1055.396 .0244961
1055.976 .0244901
1056.557 .0244853
1057.138 .0244813
1057.718 .0244781
1058.298 .0244755
1058.879 .0244740
1059.459 .0244733
1060.039 .0244725
1060.620 .0244704
1061.200 .0244671
1061.780 .0244624
1062.360 .0244552
1062.940 .0244461
1063.520 .0244366
1064.101 .0244263
1064.681 .0244148
1065.261 .0244029
1065.841 .0243911
1066.421 .0243792
1067.001 .0243671
1067.581 .0243548
1068.161 .0243432
1068.741 .0243333
1069.321 .0243249
1069.901 .0243191
1070.482 .0243163
1071.062 .0243166
1071.642 .0243186
1072.222 .0243223
1072.803 .0243274
1073.383 .0243323
1073.963 .0243374
1074.544 .0243414
1075.124 .0243444
1075.705 .0243468
1076.286 .0243482
1076.866 .0243502
1077.447 .0243516
1078.028 .0243529
1078.609 .0243548
1079.190 .0243570
1079.771 .0243601
1080.352 .0243620
1080.934 .0243632
1081.515 .0243641
1082.097 .0243642
1082.679 .0243629
1083.260 .0243607
1083.842 .0243581
1084.424 .0243550
1085.007 .0243502
1085.589 .0243434
1086.172 .0243347
1086.754 .0243236
1087.337 .0243115
1087.920 .0242974
1088.503 .0242810
1089.087 .0242646
1089.670 .0242479
1090.254 .0242323
1090.838 .0242183
1091.422 .0242056
1092.006 .0241943
1092.590 .0241848
1093.175 .0241767
1093.760 .0241684
1094.345 .0241605
1094.930 .0241536
1095.516 .0241468
1096.102 .0241407
1096.688 .0241358
1097.274 .0241337
1097.860 .0241344
1098.447 .0241394
1099.034 .0241450
1099.622 .0241510
1100.209 .0241570
1100.797 .0241614
1101.385 .0241633
1101.973 .0241634
1102.562 .0241604
1103.151 .0241563
1103.740 .0241509
1104.330 .0241465
1104.920 .0241424
1105.510 .0241411
1106.101 .0241421
1106.691 .0241443
1107.283 .0241458
1107.874 .0241479
1108.466 .0241481
1109.058 .0241487
1109.651 .0241475
1110.244 .0241450
1110.837 .0241426
1111.431 .0241397
1112.025 .0241373
1112.620 .0241374
1113.215 .0241381
1113.810 .0241395
1114.406 .0241434
1115.002 .0241492
1115.599 .0241554
1116.196 .0241616
1116.793 .0241677
1117.391 .0241728
1117.989 .0241755
1118.588 .0241753
1119.187 .0241713
1119.787 .0241670
1120.387 .0241642
1120.988 .0241602
1121.589 .0241630
1122.190 .0241694
1122.793 .0241785
1123.395 .0241915
1123.998 .0242063
1124.602 .0242192
1125.206 .0242275
1125.811 .0242328
1126.416 .0242356
1127.022 .0242353
1127.628 .0242332
1128.235 .0242309
1128.843 .0242302
1129.451 .0242324
1130.059 .0242343
1130.669 .0242374
1131.278 .0242439
1131.889 .0242503
1132.500 .0242580
1133.112 .0242676
1133.724 .0242792
1134.337 .0242966
1134.950 .0243155
1135.564 .0243409
1136.179 .0243668
1136.795 .0243934
1137.411 .0244230
1138.028 .0244562
1138.645 .0244963
1139.263 .0245417
1139.882 .0245960
1140.502 .0246576
1141.122 .0247223
1141.743 .0247952
1142.365 .0248839
1142.987 .0249988
1143.611 .0249987
1144.235 .0250182
1144.859 .0252096
1145.485 .0256569
