Measurement Sequence started on: 10-20-44-796
Integration time: 35
Scans to Average: 2 
>>>>>Begin Spectral Data<<<<<
432.953 .0191515
433.882 .0245188
434.810 .0282709
435.737 .0310502
436.662 .0292138
437.586 .0296303
438.509 .0303214
439.431 .0306967
440.351 .0309052
441.269 .0310369
442.187 .0312072
443.103 .0313325
444.018 .0314469
444.932 .0315535
445.844 .0316416
446.756 .0317103
447.666 .0317677
448.575 .0318048
449.482 .0318383
450.388 .0318714
451.294 .0319015
452.198 .0319329
453.100 .0319557
454.002 .0319666
454.902 .0319659
455.801 .0319533
456.699 .0319252
457.596 .0318927
458.492 .0318573
459.387 .0318168
460.280 .0317743
461.172 .0317302
462.064 .0316795
462.954 .0316193
463.843 .0315555
464.730 .0314865
465.617 .0314135
466.503 .0313434
467.387 .0312781
468.271 .0312197
469.153 .0311758
470.035 .0311419
470.915 .0311154
471.794 .0310960
472.673 .0310760
473.550 .0310544
474.426 .0310357
475.301 .0310216
476.175 .0310109
477.048 .0310069
477.920 .0310091
478.791 .0310153
479.661 .0310251
480.530 .0310371
481.398 .0310467
482.266 .0310553
483.132 .0310599
483.997 .0310586
484.861 .0310522
485.724 .0310460
486.587 .0310380
487.448 .0310291
488.308 .0310179
489.168 .0310058
490.026 .0309903
490.884 .0309748
491.741 .0309579
492.597 .0309423
493.452 .0309255
494.306 .0309103
495.159 .0308935
496.011 .0308745
496.862 .0308520
497.713 .0308250
498.562 .0307880
499.411 .0307438
500.259 .0306898
501.106 .0306291
501.952 .0305655
502.798 .0305021
503.642 .0304364
504.486 .0303724
505.329 .0303077
506.171 .0302419
507.012 .0301731
507.852 .0301048
508.692 .0300285
509.531 .0299453
510.369 .0298565
511.206 .0297615
512.043 .0296589
512.878 .0295557
513.713 .0294492
514.547 .0293435
515.381 .0292384
516.213 .0291301
517.045 .0290210
517.876 .0289105
518.706 .0287895
519.536 .0286580
520.365 .0285132
521.193 .0283549
522.020 .0281780
522.847 .0279934
523.673 .0278050
524.498 .0276148
525.323 .0274266
526.146 .0272470
526.969 .0270743
527.792 .0269095
528.614 .0267395
529.435 .0265681
530.255 .0263926
531.075 .0262080
531.894 .0260193
532.712 .0258327
533.530 .0256564
534.347 .0254949
535.163 .0253453
535.979 .0252210
536.794 .0251165
537.608 .0250310
538.422 .0249625
539.235 .0249148
540.048 .0248828
540.860 .0248620
541.671 .0248530
542.481 .0248580
543.292 .0248696
544.101 .0248880
544.910 .0249121
545.718 .0249435
546.526 .0249843
547.333 .0250325
548.139 .0250885
548.945 .0251547
549.750 .0252258
550.555 .0252942
551.359 .0253569
552.162 .0254164
552.965 .0254651
553.768 .0255078
554.569 .0255526
555.371 .0256004
556.171 .0256522
556.972 .0257126
557.771 .0257835
558.570 .0258586
559.369 .0259392
560.167 .0260186
560.964 .0260939
561.761 .0261674
562.558 .0262350
563.354 .0262999
564.149 .0263661
564.944 .0264362
565.738 .0265103
566.532 .0265881
567.325 .0266694
568.118 .0267497
568.910 .0268277
569.702 .0269035
570.494 .0269761
571.285 .0270459
572.075 .0271147
572.865 .0271838
573.654 .0272542
574.443 .0273242
575.232 .0273946
576.020 .0274654
576.807 .0275341
577.594 .0276003
578.381 .0276646
579.167 .0277270
579.952 .0277904
580.738 .0278547
581.522 .0279209
582.307 .0279873
583.091 .0280530
583.874 .0281156
584.657 .0281751
585.440 .0282316
586.222 .0282843
587.004 .0283338
587.785 .0283813
588.566 .0284278
589.346 .0284731
590.126 .0285167
590.906 .0285586
591.685 .0285985
592.464 .0286335
593.242 .0286629
594.020 .0286867
594.797 .0287046
595.575 .0287170
596.351 .0287262
597.128 .0287328
597.904 .0287384
598.679 .0287435
599.454 .0287473
600.229 .0287502
601.004 .0287532
601.778 .0287542
602.551 .0287531
603.325 .0287505
604.097 .0287469
604.870 .0287411
605.642 .0287352
606.414 .0287296
607.185 .0287243
607.956 .0287198
608.727 .0287163
609.497 .0287126
610.267 .0287086
611.037 .0287034
611.806 .0286963
612.575 .0286869
613.344 .0286757
614.112 .0286624
614.880 .0286477
615.647 .0286318
616.414 .0286159
617.181 .0286001
617.948 .0285856
618.714 .0285722
619.480 .0285599
620.245 .0285490
621.011 .0285386
621.775 .0285280
622.540 .0285169
623.304 .0285050
624.068 .0284925
624.832 .0284793
625.595 .0284658
626.358 .0284522
627.120 .0284390
627.883 .0284255
628.645 .0284123
629.406 .0283990
630.168 .0283855
630.929 .0283718
631.689 .0283580
632.450 .0283437
633.210 .0283290
633.970 .0283144
634.729 .0283005
635.489 .0282863
636.248 .0282721
637.006 .0282567
637.765 .0282402
638.523 .0282218
639.280 .0282018
640.038 .0281797
640.795 .0281571
641.552 .0281340
642.309 .0281103
643.065 .0280868
643.821 .0280639
644.577 .0280412
645.332 .0280190
646.088 .0279965
646.843 .0279735
647.597 .0279498
648.352 .0279269
649.106 .0279050
649.860 .0278842
650.613 .0278665
651.367 .0278520
652.120 .0278398
652.872 .0278300
653.625 .0278216
654.377 .0278141
655.129 .0278071
655.881 .0277996
656.632 .0277908
657.384 .0277803
658.135 .0277686
658.885 .0277548
659.636 .0277400
660.386 .0277243
661.136 .0277075
661.885 .0276895
662.635 .0276721
663.384 .0276540
664.133 .0276355
664.881 .0276176
665.630 .0276006
666.378 .0275841
667.126 .0275682
667.874 .0275526
668.621 .0275378
669.368 .0275233
670.115 .0275099
670.862 .0274963
671.608 .0274841
672.354 .0274733
673.100 .0274634
673.846 .0274549
674.591 .0274483
675.337 .0274426
676.082 .0274376
676.826 .0274332
677.571 .0274286
678.315 .0274228
679.059 .0274160
679.803 .0274084
680.547 .0273995
681.290 .0273896
682.033 .0273787
682.776 .0273664
683.518 .0273535
684.261 .0273391
685.003 .0273236
685.745 .0273071
686.487 .0272898
687.228 .0272719
687.969 .0272534
688.710 .0272349
689.451 .0272164
690.192 .0271978
690.932 .0271791
691.672 .0271606
692.412 .0271420
693.152 .0271238
693.891 .0271062
694.630 .0270893
695.369 .0270736
696.108 .0270593
696.846 .0270463
697.585 .0270338
698.323 .0270220
699.061 .0270103
699.798 .0269978
700.536 .0269849
701.273 .0269710
702.010 .0269568
702.746 .0269429
703.483 .0269293
704.219 .0269164
704.955 .0269045
705.691 .0268940
706.427 .0268839
707.162 .0268742
707.897 .0268648
708.632 .0268551
709.367 .0268454
710.101 .0268354
710.835 .0268252
711.569 .0268151
712.303 .0268052
713.037 .0267954
713.770 .0267858
714.503 .0267757
715.236 .0267651
715.969 .0267539
716.702 .0267420
717.434 .0267294
718.166 .0267157
718.898 .0267016
719.629 .0266872
720.361 .0266727
721.092 .0266579
721.823 .0266428
722.554 .0266279
723.284 .0266125
724.014 .0265964
724.744 .0265797
725.474 .0265623
726.204 .0265448
726.933 .0265273
727.662 .0265094
728.391 .0264917
729.120 .0264739
729.849 .0264557
730.577 .0264372
731.305 .0264183
732.033 .0263988
732.760 .0263792
733.488 .0263599
734.215 .0263413
734.942 .0263229
735.669 .0263054
736.395 .0262882
737.122 .0262711
737.848 .0262537
738.573 .0262359
739.299 .0262176
740.024 .0261999
740.750 .0261827
741.474 .0261667
742.199 .0261518
742.924 .0261385
743.648 .0261262
744.372 .0261146
745.096 .0261031
745.819 .0260910
746.543 .0260779
747.266 .0260647
747.989 .0260511
748.711 .0260383
749.434 .0260268
750.156 .0260169
750.878 .0260090
751.599 .0260030
752.321 .0259982
753.042 .0259941
753.763 .0259904
754.484 .0259866
755.205 .0259816
755.925 .0259759
756.645 .0259690
757.365 .0259614
758.085 .0259535
758.804 .0259451
759.523 .0259364
760.242 .0259273
760.961 .0259175
761.679 .0259067
762.397 .0258941
763.115 .0258801
763.833 .0258638
764.551 .0258452
765.268 .0258245
765.985 .0258017
766.702 .0257776
767.418 .0257531
768.134 .0257285
768.850 .0257044
769.566 .0256803
770.282 .0256565
770.997 .0256325
771.712 .0256088
772.427 .0255852
773.142 .0255616
773.856 .0255386
774.570 .0255161
775.284 .0254939
775.998 .0254727
776.711 .0254527
777.424 .0254335
778.137 .0254147
778.849 .0253961
779.562 .0253775
780.274 .0253591
780.986 .0253412
781.697 .0253250
782.409 .0253102
783.120 .0252978
783.831 .0252868
784.541 .0252771
785.252 .0252684
785.962 .0252600
786.671 .0252511
787.381 .0252417
788.090 .0252315
788.799 .0252207
789.508 .0252093
790.217 .0251987
790.925 .0251885
791.633 .0251787
792.341 .0251688
793.048 .0251581
793.755 .0251459
794.462 .0251317
795.169 .0251151
795.875 .0250968
796.581 .0250771
797.287 .0250569
797.993 .0250367
798.698 .0250176
799.403 .0250001
800.108 .0249842
800.812 .0249698
801.517 .0249571
802.221 .0249452
802.924 .0249340
803.628 .0249234
804.331 .0249139
805.034 .0249051
805.736 .0248969
806.439 .0248899
807.141 .0248834
807.843 .0248773
808.544 .0248711
809.245 .0248646
809.946 .0248577
810.647 .0248504
811.347 .0248424
812.047 .0248333
812.747 .0248235
813.447 .0248127
814.146 .0248007
814.845 .0247882
815.543 .0247752
816.242 .0247619
816.940 .0247485
817.638 .0247356
818.335 .0247225
819.032 .0247095
819.729 .0246971
820.426 .0246845
821.122 .0246716
821.818 .0246586
822.514 .0246456
823.209 .0246329
823.905 .0246206
824.599 .0246088
825.294 .0245970
825.988 .0245859
826.682 .0245745
827.376 .0245625
828.069 .0245499
828.762 .0245367
829.455 .0245233
830.147 .0245102
830.840 .0244981
831.531 .0244870
832.223 .0244779
832.914 .0244702
833.605 .0244637
834.296 .0244579
834.986 .0244520
835.676 .0244460
836.366 .0244394
837.055 .0244320
837.744 .0244240
838.433 .0244158
839.121 .0244080
839.809 .0244004
840.497 .0243933
841.185 .0243860
841.872 .0243790
842.559 .0243719
843.245 .0243645
843.932 .0243568
844.617 .0243493
845.303 .0243417
845.988 .0243343
846.673 .0243269
847.358 .0243197
848.042 .0243129
848.726 .0243061
849.410 .0242994
850.093 .0242927
850.776 .0242863
851.459 .0242801
852.141 .0242741
852.823 .0242689
853.505 .0242641
854.186 .0242598
854.867 .0242557
855.548 .0242518
856.228 .0242478
856.908 .0242438
857.588 .0242396
858.267 .0242355
858.946 .0242310
859.625 .0242266
860.303 .0242226
860.981 .0242192
861.659 .0242162
862.336 .0242135
863.013 .0242110
863.690 .0242084
864.366 .0242048
865.042 .0241998
865.718 .0241935
866.393 .0241862
867.068 .0241775
867.743 .0241682
868.417 .0241586
869.091 .0241493
869.765 .0241404
870.438 .0241319
871.111 .0241236
871.783 .0241154
872.456 .0241067
873.127 .0240975
873.799 .0240876
874.470 .0240774
875.141 .0240669
875.811 .0240568
876.481 .0240474
877.151 .0240387
877.820 .0240302
878.489 .0240228
879.158 .0240157
879.826 .0240089
880.494 .0240019
881.162 .0239948
881.829 .0239873
882.496 .0239797
883.163 .0239720
883.829 .0239644
884.495 .0239568
885.160 .0239499
885.825 .0239428
886.490 .0239366
887.154 .0239310
887.818 .0239259
888.482 .0239212
889.145 .0239172
889.808 .0239136
890.471 .0239100
891.133 .0239065
891.795 .0239030
892.456 .0238995
893.117 .0238960
893.778 .0238916
894.439 .0238868
895.099 .0238817
895.758 .0238763
896.417 .0238702
897.076 .0238638
897.735 .0238568
898.393 .0238492
899.051 .0238411
899.708 .0238321
900.365 .0238224
901.022 .0238124
901.678 .0238022
902.334 .0237918
902.990 .0237819
903.645 .0237726
904.300 .0237639
904.954 .0237566
905.608 .0237492
906.262 .0237421
906.915 .0237352
907.568 .0237282
908.221 .0237212
908.873 .0237143
909.525 .0237075
910.176 .0237009
910.828 .0236948
911.478 .0236886
912.129 .0236819
912.778 .0236744
913.428 .0236659
914.077 .0236561
914.726 .0236447
915.375 .0236322
916.023 .0236186
916.670 .0236052
917.318 .0235918
917.964 .0235789
918.611 .0235663
919.257 .0235542
919.903 .0235424
920.548 .0235305
921.193 .0235189
921.838 .0235076
922.482 .0234966
923.126 .0234865
923.770 .0234772
924.413 .0234692
925.056 .0234618
925.698 .0234553
926.340 .0234495
926.982 .0234439
927.623 .0234382
928.264 .0234318
928.904 .0234248
929.544 .0234167
930.184 .0234075
930.823 .0233966
931.462 .0233846
932.101 .0233712
932.739 .0233566
933.377 .0233410
934.014 .0233242
934.651 .0233066
935.288 .0232883
935.924 .0232695
936.560 .0232503
937.196 .0232308
937.831 .0232114
938.466 .0231920
939.100 .0231734
939.734 .0231552
940.368 .0231375
941.001 .0231208
941.634 .0231050
942.266 .0230898
942.899 .0230751
943.530 .0230608
944.162 .0230462
944.793 .0230313
945.423 .0230155
946.053 .0229985
946.683 .0229807
947.313 .0229623
947.942 .0229430
948.571 .0229233
949.199 .0229035
949.827 .0228834
950.455 .0228627
951.082 .0228419
951.709 .0228205
952.335 .0227987
952.961 .0227764
953.587 .0227538
954.212 .0227309
954.837 .0227084
955.462 .0226858
956.086 .0226635
956.710 .0226416
957.334 .0226202
957.957 .0225991
958.579 .0225786
959.202 .0225590
959.824 .0225401
960.445 .0225219
961.067 .0225047
961.688 .0224881
962.308 .0224720
962.928 .0224564
963.548 .0224406
964.168 .0224246
964.787 .0224082
965.406 .0223920
966.024 .0223761
966.642 .0223610
967.260 .0223468
967.877 .0223335
968.494 .0223209
969.110 .0223085
969.727 .0222957
970.342 .0222823
970.958 .0222685
971.573 .0222543
972.188 .0222401
972.802 .0222266
973.416 .0222139
974.030 .0222031
974.643 .0221939
975.256 .0221862
975.869 .0221796
976.481 .0221742
977.093 .0221694
977.705 .0221650
978.316 .0221607
978.927 .0221569
979.538 .0221532
980.148 .0221496
980.758 .0221460
981.367 .0221422
981.977 .0221387
982.586 .0221355
983.194 .0221325
983.802 .0221298
984.410 .0221272
985.018 .0221241
985.625 .0221211
986.232 .0221179
986.838 .0221140
987.445 .0221092
988.050 .0221040
988.656 .0220983
989.261 .0220920
989.866 .0220852
990.471 .0220784
991.075 .0220715
991.679 .0220648
992.282 .0220575
992.886 .0220501
993.489 .0220429
994.091 .0220357
994.694 .0220284
995.296 .0220214
995.897 .0220143
996.499 .0220069
997.100 .0219992
997.701 .0219921
998.301 .0219852
998.901 .0219796
999.501 .0219752
1000.101 .0219727
1000.700 .0219720
1001.299 .0219727
1001.898 .0219743
1002.496 .0219767
1003.094 .0219789
1003.692 .0219800
1004.289 .0219801
1004.887 .0219797
1005.484 .0219790
1006.080 .0219788
1006.677 .0219791
1007.273 .0219801
1007.868 .0219821
1008.464 .0219843
1009.059 .0219862
1009.654 .0219878
1010.249 .0219889
1010.843 .0219892
1011.437 .0219892
1012.031 .0219892
1012.625 .0219903
1013.218 .0219920
1013.811 .0219953
1014.404 .0220000
1014.997 .0220062
1015.589 .0220132
1016.181 .0220207
1016.773 .0220286
1017.365 .0220362
1017.956 .0220426
1018.547 .0220479
1019.138 .0220515
1019.728 .0220545
1020.319 .0220560
1020.909 .0220569
1021.499 .0220570
1022.088 .0220573
1022.678 .0220568
1023.267 .0220562
1023.856 .0220550
1024.445 .0220537
1025.033 .0220512
1025.621 .0220479
1026.209 .0220439
1026.797 .0220393
1027.385 .0220349
1027.972 .0220316
1028.560 .0220292
1029.147 .0220279
1029.734 .0220278
1030.320 .0220293
1030.907 .0220313
1031.493 .0220348
1032.079 .0220386
1032.665 .0220429
1033.250 .0220485
1033.836 .0220544
1034.421 .0220603
1035.006 .0220666
1035.591 .0220732
1036.176 .0220789
1036.761 .0220843
1037.345 .0220897
1037.929 .0220941
1038.514 .0220990
1039.097 .0221047
1039.681 .0221102
1040.265 .0221157
1040.848 .0221221
1041.432 .0221279
1042.015 .0221334
1042.598 .0221385
1043.181 .0221433
1043.764 .0221479
1044.346 .0221535
1044.929 .0221597
1045.511 .0221662
1046.094 .0221743
1046.676 .0221828
1047.258 .0221907
1047.840 .0221987
1048.422 .0222061
1049.003 .0222129
1049.585 .0222188
1050.166 .0222253
1050.748 .0222323
1051.329 .0222398
1051.910 .0222477
1052.491 .0222557
1053.072 .0222638
1053.653 .0222715
1054.234 .0222781
1054.815 .0222831
1055.396 .0222871
1055.976 .0222889
1056.557 .0222898
1057.138 .0222893
1057.718 .0222874
1058.298 .0222851
1058.879 .0222817
1059.459 .0222779
1060.039 .0222727
1060.620 .0222657
1061.200 .0222578
1061.780 .0222482
1062.360 .0222374
1062.940 .0222247
1063.520 .0222112
1064.101 .0221969
1064.681 .0221827
1065.261 .0221686
1065.841 .0221553
1066.421 .0221435
1067.001 .0221330
1067.581 .0221240
1068.161 .0221164
1068.741 .0221115
1069.321 .0221088
1069.901 .0221094
1070.482 .0221127
1071.062 .0221167
1071.642 .0221216
1072.222 .0221267
1072.803 .0221313
1073.383 .0221363
1073.963 .0221415
1074.544 .0221480
1075.124 .0221560
1075.705 .0221659
1076.286 .0221769
1076.866 .0221897
1077.447 .0222035
1078.028 .0222157
1078.609 .0222253
1079.190 .0222321
1079.771 .0222354
1080.352 .0222363
1080.934 .0222364
1081.515 .0222370
1082.097 .0222398
1082.679 .0222449
1083.260 .0222506
1083.842 .0222574
1084.424 .0222657
1085.007 .0222732
1085.589 .0222797
1086.172 .0222860
1086.754 .0222917
1087.337 .0222969
1087.920 .0223042
1088.503 .0223129
1089.087 .0223227
1089.670 .0223329
1090.254 .0223414
1090.838 .0223487
1091.422 .0223531
1092.006 .0223533
1092.590 .0223495
1093.175 .0223444
1093.760 .0223386
1094.345 .0223310
1094.930 .0223245
1095.516 .0223206
1096.102 .0223178
1096.688 .0223170
1097.274 .0223163
1097.860 .0223157
1098.447 .0223151
1099.034 .0223131
1099.622 .0223095
1100.209 .0223062
1100.797 .0223015
1101.385 .0222980
1101.973 .0222954
1102.562 .0222974
1103.151 .0223005
1103.740 .0223038
1104.330 .0223077
1104.920 .0223109
1105.510 .0223119
1106.101 .0223116
1106.691 .0223082
1107.283 .0223050
1107.874 .0223008
1108.466 .0222968
1109.058 .0222941
1109.651 .0222947
1110.244 .0222977
1110.837 .0223029
1111.431 .0223094
1112.025 .0223196
1112.620 .0223302
1113.215 .0223450
1113.810 .0223634
1114.406 .0223835
1115.002 .0224036
1115.599 .0224218
1116.196 .0224377
1116.793 .0224502
1117.391 .0224589
1117.989 .0224653
1118.588 .0224713
1119.187 .0224786
1119.787 .0224842
1120.387 .0224890
1120.988 .0224949
1121.589 .0224989
1122.190 .0224976
1122.793 .0224905
1123.395 .0224768
1123.998 .0224581
1124.602 .0224365
1125.206 .0224155
1125.811 .0223988
1126.416 .0223881
1127.022 .0223838
1127.628 .0223835
1128.235 .0223908
1128.843 .0224014
1129.451 .0224161
1130.059 .0224336
1130.669 .0224546
1131.278 .0224792
1131.889 .0225079
1132.500 .0225433
1133.112 .0225848
1133.724 .0226318
1134.337 .0226837
1134.950 .0227339
1135.564 .0227848
1136.179 .0228335
1136.795 .0228794
1137.411 .0229232
1138.028 .0229666
1138.645 .0230073
1139.263 .0230479
1139.882 .0230858
1140.502 .0231186
1141.122 .0231459
1141.743 .0231792
1142.365 .0232079
1142.987 .0232107
1143.611 .0231844
1144.235 .0231611
1144.859 .0234810
1145.485 .0233892
