Measurement Sequence started on: 10-20-44-796
Integration time: 35
Scans to Average: 2 
>>>>>Begin Spectral Data<<<<<
432.953 .0465334
433.882 .0395394
434.810 .0388820
435.737 .0361201
436.662 .0356929
437.586 .0376745
438.509 .0373604
439.431 .0373754
440.351 .0374432
441.269 .0375731
442.187 .0376958
443.103 .0377716
444.018 .0378486
444.932 .0379325
445.844 .0380327
446.756 .0381205
447.666 .0381961
448.575 .0382483
449.482 .0382803
450.388 .0383126
451.294 .0383386
452.198 .0383528
453.100 .0383699
454.002 .0383893
454.902 .0384039
455.801 .0384091
456.699 .0384060
457.596 .0383765
458.492 .0383342
459.387 .0382738
460.280 .0381959
461.172 .0381097
462.064 .0380232
462.954 .0379303
463.843 .0378320
464.730 .0377312
465.617 .0376275
466.503 .0375233
467.387 .0374206
468.271 .0373172
469.153 .0372175
470.035 .0371203
470.915 .0370281
471.794 .0369373
472.673 .0368543
473.550 .0367780
474.426 .0367133
475.301 .0366599
476.175 .0366183
477.048 .0365850
477.920 .0365601
478.791 .0365404
479.661 .0365198
480.530 .0364937
481.398 .0364616
482.266 .0364253
483.132 .0363848
483.997 .0363415
484.861 .0363044
485.724 .0362769
486.587 .0362582
487.448 .0362471
488.308 .0362397
489.168 .0362317
490.026 .0362179
490.884 .0361895
491.741 .0361468
492.597 .0360911
493.452 .0360255
494.306 .0359541
495.159 .0358846
496.011 .0358231
496.862 .0357677
497.713 .0357169
498.562 .0356690
499.411 .0356167
500.259 .0355529
501.106 .0354771
501.952 .0353894
502.798 .0352914
503.642 .0351833
504.486 .0350711
505.329 .0349636
506.171 .0348621
507.012 .0347705
507.852 .0346853
508.692 .0346084
509.531 .0345370
510.369 .0344592
511.206 .0343761
512.043 .0342870
512.878 .0341870
513.713 .0340756
514.547 .0339560
515.381 .0338332
516.213 .0337042
517.045 .0335776
517.876 .0334614
518.706 .0333572
519.536 .0332646
520.365 .0331868
521.193 .0331108
522.020 .0330368
522.847 .0329540
523.673 .0328545
524.498 .0327419
525.323 .0326148
526.146 .0324777
526.969 .0323392
527.792 .0321981
528.614 .0320606
529.435 .0319274
530.255 .0318022
531.075 .0316675
531.894 .0315117
532.712 .0313350
533.530 .0311391
534.347 .0309338
535.163 .0307231
535.979 .0305226
536.794 .0303542
537.608 .0302250
538.422 .0301309
539.235 .0300762
540.048 .0300570
540.860 .0300644
541.671 .0300873
542.481 .0301200
543.292 .0301505
544.101 .0301899
544.910 .0302356
545.718 .0302883
546.526 .0303495
547.333 .0304171
548.139 .0304861
548.945 .0305547
549.750 .0306129
550.555 .0306551
551.359 .0306782
552.162 .0306899
552.965 .0306862
553.768 .0306736
554.569 .0306576
555.371 .0306415
556.171 .0306304
556.972 .0306317
557.771 .0306379
558.570 .0306546
559.369 .0306824
560.167 .0307191
560.964 .0307686
561.761 .0308240
562.558 .0308889
563.354 .0309660
564.149 .0310494
564.944 .0311368
565.738 .0312249
566.532 .0313137
567.325 .0313996
568.118 .0314828
568.910 .0315650
569.702 .0316436
570.494 .0317202
571.285 .0317925
572.075 .0318577
572.865 .0319169
573.654 .0319685
574.443 .0320086
575.232 .0320421
576.020 .0320682
576.807 .0320892
577.594 .0321096
578.381 .0321316
579.167 .0321561
579.952 .0321856
580.738 .0322203
581.522 .0322585
582.307 .0322997
583.091 .0323433
583.874 .0323870
584.657 .0324315
585.440 .0324765
586.222 .0325199
587.004 .0325616
587.785 .0326017
588.566 .0326382
589.346 .0326689
590.126 .0326937
590.906 .0327126
591.685 .0327273
592.464 .0327379
593.242 .0327448
594.020 .0327487
594.797 .0327519
595.575 .0327548
596.351 .0327558
597.128 .0327547
597.904 .0327514
598.679 .0327450
599.454 .0327357
600.229 .0327239
601.004 .0327104
601.778 .0326955
602.551 .0326810
603.325 .0326660
604.097 .0326498
604.870 .0326333
605.642 .0326155
606.414 .0325970
607.185 .0325770
607.956 .0325555
608.727 .0325328
609.497 .0325112
610.267 .0324903
611.037 .0324701
611.806 .0324516
612.575 .0324350
613.344 .0324189
614.112 .0324036
614.880 .0323887
615.647 .0323732
616.414 .0323581
617.181 .0323434
617.948 .0323279
618.714 .0323126
619.480 .0322973
620.245 .0322816
621.011 .0322649
621.775 .0322468
622.540 .0322265
623.304 .0322045
624.068 .0321809
624.832 .0321550
625.595 .0321276
626.358 .0320996
627.120 .0320717
627.883 .0320429
628.645 .0320149
629.406 .0319871
630.168 .0319597
630.929 .0319329
631.689 .0319060
632.450 .0318786
633.210 .0318516
633.970 .0318241
634.729 .0317968
635.489 .0317688
636.248 .0317410
637.006 .0317136
637.765 .0316873
638.523 .0316619
639.280 .0316378
640.038 .0316142
640.795 .0315919
641.552 .0315690
642.309 .0315461
643.065 .0315223
643.821 .0314982
644.577 .0314741
645.332 .0314501
646.088 .0314268
646.843 .0314055
647.597 .0313850
648.352 .0313668
649.106 .0313498
649.860 .0313331
650.613 .0313163
651.367 .0312994
652.120 .0312816
652.872 .0312633
653.625 .0312442
654.377 .0312257
655.129 .0312076
655.881 .0311910
656.632 .0311748
657.384 .0311589
658.135 .0311437
658.885 .0311277
659.636 .0311101
660.386 .0310920
661.136 .0310721
661.885 .0310517
662.635 .0310302
663.384 .0310090
664.133 .0309879
664.881 .0309678
665.630 .0309488
666.378 .0309311
667.126 .0309146
667.874 .0308988
668.621 .0308833
669.368 .0308685
670.115 .0308536
670.862 .0308384
671.608 .0308234
672.354 .0308088
673.100 .0307943
673.846 .0307808
674.591 .0307680
675.337 .0307568
676.082 .0307462
676.826 .0307360
677.571 .0307256
678.315 .0307150
679.059 .0307038
679.803 .0306916
680.547 .0306790
681.290 .0306655
682.033 .0306508
682.776 .0306350
683.518 .0306178
684.261 .0306000
685.003 .0305816
685.745 .0305629
686.487 .0305443
687.228 .0305266
687.969 .0305095
688.710 .0304933
689.451 .0304776
690.192 .0304618
690.932 .0304449
691.672 .0304266
692.412 .0304067
693.152 .0303851
693.891 .0303628
694.630 .0303400
695.369 .0303177
696.108 .0302967
696.846 .0302764
697.585 .0302572
698.323 .0302383
699.061 .0302194
699.798 .0301997
700.536 .0301789
701.273 .0301573
702.010 .0301355
702.746 .0301136
703.483 .0300921
704.219 .0300710
704.955 .0300503
705.691 .0300302
706.427 .0300103
707.162 .0299902
707.897 .0299704
708.632 .0299508
709.367 .0299309
710.101 .0299111
710.835 .0298919
711.569 .0298728
712.303 .0298534
713.037 .0298343
713.770 .0298148
714.503 .0297954
715.236 .0297764
715.969 .0297576
716.702 .0297395
717.434 .0297226
718.166 .0297061
718.898 .0296893
719.629 .0296724
720.361 .0296553
721.092 .0296371
721.823 .0296184
722.554 .0295985
723.284 .0295778
724.014 .0295562
724.744 .0295342
725.474 .0295113
726.204 .0294881
726.933 .0294646
727.662 .0294408
728.391 .0294168
729.120 .0293929
729.849 .0293696
730.577 .0293473
731.305 .0293261
732.033 .0293062
732.760 .0292865
733.488 .0292672
734.215 .0292477
734.942 .0292283
735.669 .0292082
736.395 .0291878
737.122 .0291671
737.848 .0291461
738.573 .0291252
739.299 .0291044
740.024 .0290837
740.750 .0290636
741.474 .0290439
742.199 .0290242
742.924 .0290042
743.648 .0289844
744.372 .0289647
745.096 .0289461
745.819 .0289280
746.543 .0289112
747.266 .0288956
747.989 .0288815
748.711 .0288688
749.434 .0288571
750.156 .0288469
750.878 .0288375
751.599 .0288288
752.321 .0288207
753.042 .0288128
753.763 .0288057
754.484 .0287987
755.205 .0287921
755.925 .0287854
756.645 .0287783
757.365 .0287701
758.085 .0287609
758.804 .0287503
759.523 .0287381
760.242 .0287238
760.961 .0287077
761.679 .0286900
762.397 .0286707
763.115 .0286500
763.833 .0286281
764.551 .0286055
765.268 .0285826
765.985 .0285590
766.702 .0285357
767.418 .0285127
768.134 .0284908
768.850 .0284701
769.566 .0284505
770.282 .0284321
770.997 .0284153
771.712 .0283996
772.427 .0283850
773.142 .0283714
773.856 .0283586
774.570 .0283465
775.284 .0283346
775.998 .0283229
776.711 .0283111
777.424 .0282989
778.137 .0282865
778.849 .0282731
779.562 .0282594
780.274 .0282453
780.986 .0282314
781.697 .0282181
782.409 .0282054
783.120 .0281937
783.831 .0281829
784.541 .0281733
785.252 .0281646
785.962 .0281567
786.671 .0281493
787.381 .0281422
788.090 .0281357
788.799 .0281292
789.508 .0281226
790.217 .0281158
790.925 .0281086
791.633 .0281007
792.341 .0280919
793.048 .0280817
793.755 .0280704
794.462 .0280582
795.169 .0280446
795.875 .0280304
796.581 .0280160
797.287 .0280018
797.993 .0279880
798.698 .0279747
799.403 .0279623
800.108 .0279501
800.812 .0279389
801.517 .0279282
802.221 .0279180
802.924 .0279090
803.628 .0279007
804.331 .0278936
805.034 .0278881
805.736 .0278833
806.439 .0278797
807.141 .0278771
807.843 .0278751
808.544 .0278725
809.245 .0278695
809.946 .0278654
810.647 .0278600
811.347 .0278530
812.047 .0278445
812.747 .0278344
813.447 .0278233
814.146 .0278111
814.845 .0277985
815.543 .0277861
816.242 .0277741
816.940 .0277617
817.638 .0277494
818.335 .0277364
819.032 .0277228
819.729 .0277082
820.426 .0276932
821.122 .0276774
821.818 .0276615
822.514 .0276455
823.209 .0276304
823.905 .0276161
824.599 .0276023
825.294 .0275889
825.988 .0275756
826.682 .0275618
827.376 .0275471
828.069 .0275315
828.762 .0275157
829.455 .0274996
830.147 .0274838
830.840 .0274680
831.531 .0274530
832.223 .0274392
832.914 .0274262
833.605 .0274136
834.296 .0274018
834.986 .0273902
835.676 .0273792
836.366 .0273687
837.055 .0273589
837.744 .0273495
838.433 .0273402
839.121 .0273307
839.809 .0273207
840.497 .0273096
841.185 .0272976
841.872 .0272844
842.559 .0272707
843.245 .0272568
843.932 .0272428
844.617 .0272290
845.303 .0272159
845.988 .0272031
846.673 .0271907
847.358 .0271782
848.042 .0271663
848.726 .0271549
849.410 .0271438
850.093 .0271333
850.776 .0271234
851.459 .0271143
852.141 .0271054
852.823 .0270968
853.505 .0270883
854.186 .0270793
854.867 .0270702
855.548 .0270607
856.228 .0270510
856.908 .0270418
857.588 .0270329
858.267 .0270241
858.946 .0270156
859.625 .0270070
860.303 .0269975
860.981 .0269873
861.659 .0269766
862.336 .0269649
863.013 .0269527
863.690 .0269404
864.366 .0269281
865.042 .0269164
865.718 .0269059
866.393 .0268962
867.068 .0268870
867.743 .0268777
868.417 .0268678
869.091 .0268566
869.765 .0268448
870.438 .0268320
871.111 .0268184
871.783 .0268046
872.456 .0267909
873.127 .0267770
873.799 .0267639
874.470 .0267507
875.141 .0267375
875.811 .0267242
876.481 .0267107
877.151 .0266966
877.820 .0266820
878.489 .0266676
879.158 .0266534
879.826 .0266394
880.494 .0266259
881.162 .0266119
881.829 .0265982
882.496 .0265843
883.163 .0265703
883.829 .0265561
884.495 .0265422
885.160 .0265292
885.825 .0265172
886.490 .0265063
887.154 .0264974
887.818 .0264899
888.482 .0264838
889.145 .0264788
889.808 .0264747
890.471 .0264708
891.133 .0264676
891.795 .0264648
892.456 .0264625
893.117 .0264606
893.778 .0264592
894.439 .0264580
895.099 .0264576
895.758 .0264577
896.417 .0264574
897.076 .0264569
897.735 .0264560
898.393 .0264538
899.051 .0264502
899.708 .0264455
900.365 .0264393
901.022 .0264321
901.678 .0264242
902.334 .0264153
902.990 .0264063
903.645 .0263978
904.300 .0263896
904.954 .0263819
905.608 .0263748
906.262 .0263674
906.915 .0263596
907.568 .0263515
908.221 .0263429
908.873 .0263338
909.525 .0263242
910.176 .0263143
910.828 .0263038
911.478 .0262934
912.129 .0262828
912.778 .0262721
913.428 .0262618
914.077 .0262513
914.726 .0262401
915.375 .0262282
916.023 .0262160
916.670 .0262032
917.318 .0261898
917.964 .0261756
918.611 .0261608
919.257 .0261458
919.903 .0261307
920.548 .0261156
921.193 .0261010
921.838 .0260873
922.482 .0260742
923.126 .0260614
923.770 .0260493
924.413 .0260375
925.056 .0260265
925.698 .0260160
926.340 .0260061
926.982 .0259967
927.623 .0259879
928.264 .0259797
928.904 .0259725
929.544 .0259652
930.184 .0259577
930.823 .0259493
931.462 .0259398
932.101 .0259291
932.739 .0259171
933.377 .0259038
934.014 .0258898
934.651 .0258756
935.288 .0258613
935.924 .0258468
936.560 .0258325
937.196 .0258183
937.831 .0258036
938.466 .0257884
939.100 .0257722
939.734 .0257552
940.368 .0257384
941.001 .0257218
941.634 .0257060
942.266 .0256919
942.899 .0256788
943.530 .0256666
944.162 .0256547
944.793 .0256419
945.423 .0256272
946.053 .0256102
946.683 .0255906
947.313 .0255685
947.942 .0255445
948.571 .0255197
949.199 .0254945
949.827 .0254701
950.455 .0254468
951.082 .0254248
951.709 .0254039
952.335 .0253841
952.961 .0253648
953.587 .0253466
954.212 .0253291
954.837 .0253123
955.462 .0252968
956.086 .0252831
956.710 .0252715
957.334 .0252617
957.957 .0252542
958.579 .0252484
959.202 .0252436
959.824 .0252396
960.445 .0252349
961.067 .0252292
961.688 .0252221
962.308 .0252132
962.928 .0252028
963.548 .0251906
964.168 .0251770
964.787 .0251618
965.406 .0251462
966.024 .0251301
966.642 .0251134
967.260 .0250965
967.877 .0250798
968.494 .0250630
969.110 .0250463
969.727 .0250291
970.342 .0250118
970.958 .0249955
971.573 .0249801
972.188 .0249657
972.802 .0249534
973.416 .0249435
974.030 .0249357
974.643 .0249295
975.256 .0249251
975.869 .0249211
976.481 .0249177
977.093 .0249143
977.705 .0249105
978.316 .0249068
978.927 .0249033
979.538 .0248997
980.148 .0248972
980.758 .0248954
981.367 .0248942
981.977 .0248938
982.586 .0248946
983.194 .0248953
983.802 .0248960
984.410 .0248961
985.018 .0248953
985.625 .0248934
986.232 .0248906
986.838 .0248866
987.445 .0248819
988.050 .0248764
988.656 .0248698
989.261 .0248623
989.866 .0248538
990.471 .0248437
991.075 .0248321
991.679 .0248188
992.282 .0248042
992.886 .0247881
993.489 .0247716
994.091 .0247554
994.694 .0247403
995.296 .0247271
995.897 .0247164
996.499 .0247087
997.100 .0247039
997.701 .0247019
998.301 .0247017
998.901 .0247029
999.501 .0247050
1000.101 .0247077
1000.700 .0247105
1001.299 .0247137
1001.898 .0247174
1002.496 .0247217
1003.094 .0247260
1003.692 .0247300
1004.289 .0247332
1004.887 .0247353
1005.484 .0247353
1006.080 .0247325
1006.677 .0247273
1007.273 .0247198
1007.868 .0247109
1008.464 .0247020
1009.059 .0246937
1009.654 .0246870
1010.249 .0246820
1010.843 .0246796
1011.437 .0246793
1012.031 .0246800
1012.625 .0246811
1013.218 .0246821
1013.811 .0246835
1014.404 .0246839
1014.997 .0246838
1015.589 .0246839
1016.181 .0246852
1016.773 .0246869
1017.365 .0246889
1017.956 .0246909
1018.547 .0246928
1019.138 .0246940
1019.728 .0246940
1020.319 .0246931
1020.909 .0246914
1021.499 .0246888
1022.088 .0246854
1022.678 .0246809
1023.267 .0246761
1023.856 .0246700
1024.445 .0246636
1025.033 .0246568
1025.621 .0246501
1026.209 .0246433
1026.797 .0246370
1027.385 .0246322
1027.972 .0246288
1028.560 .0246273
1029.147 .0246280
1029.734 .0246303
1030.320 .0246340
1030.907 .0246376
1031.493 .0246402
1032.079 .0246425
1032.665 .0246445
1033.250 .0246459
1033.836 .0246473
1034.421 .0246492
1035.006 .0246528
1035.591 .0246576
1036.176 .0246633
1036.761 .0246697
1037.345 .0246754
1037.929 .0246796
1038.514 .0246806
1039.097 .0246785
1039.681 .0246743
1040.265 .0246682
1040.848 .0246617
1041.432 .0246559
1042.015 .0246511
1042.598 .0246486
1043.181 .0246478
1043.764 .0246494
1044.346 .0246527
1044.929 .0246553
1045.511 .0246569
1046.094 .0246571
1046.676 .0246552
1047.258 .0246511
1047.840 .0246453
1048.422 .0246396
1049.003 .0246334
1049.585 .0246275
1050.166 .0246219
1050.748 .0246169
1051.329 .0246122
1051.910 .0246075
1052.491 .0246016
1053.072 .0245950
1053.653 .0245866
1054.234 .0245761
1054.815 .0245651
1055.396 .0245542
1055.976 .0245434
1056.557 .0245336
1057.138 .0245259
1057.718 .0245201
1058.298 .0245152
1058.879 .0245109
1059.459 .0245071
1060.039 .0245016
1060.620 .0244946
1061.200 .0244860
1061.780 .0244760
1062.360 .0244658
1062.940 .0244566
1063.520 .0244476
1064.101 .0244406
1064.681 .0244339
1065.261 .0244282
1065.841 .0244218
1066.421 .0244162
1067.001 .0244100
1067.581 .0244035
1068.161 .0243983
1068.741 .0243941
1069.321 .0243900
1069.901 .0243878
1070.482 .0243851
1071.062 .0243811
1071.642 .0243748
1072.222 .0243665
1072.803 .0243539
1073.383 .0243396
1073.963 .0243236
1074.544 .0243074
1075.124 .0242913
1075.705 .0242787
1076.286 .0242675
1076.866 .0242597
1077.447 .0242548
1078.028 .0242509
1078.609 .0242490
1079.190 .0242498
1079.771 .0242517
1080.352 .0242568
1080.934 .0242655
1081.515 .0242784
1082.097 .0242930
1082.679 .0243102
1083.260 .0243273
1083.842 .0243436
1084.424 .0243579
1085.007 .0243684
1085.589 .0243740
1086.172 .0243761
1086.754 .0243748
1087.337 .0243727
1087.920 .0243708
1088.503 .0243700
1089.087 .0243691
1089.670 .0243682
1090.254 .0243672
1090.838 .0243632
1091.422 .0243558
1092.006 .0243448
1092.590 .0243297
1093.175 .0243124
1093.760 .0242947
1094.345 .0242800
1094.930 .0242681
1095.516 .0242621
1096.102 .0242604
1096.688 .0242617
1097.274 .0242648
1097.860 .0242666
1098.447 .0242656
1099.034 .0242625
1099.622 .0242572
1100.209 .0242508
1100.797 .0242458
1101.385 .0242440
1101.973 .0242460
1102.562 .0242548
1103.151 .0242680
1103.740 .0242825
1104.330 .0242971
1104.920 .0243109
1105.510 .0243201
1106.101 .0243250
1106.691 .0243237
1107.283 .0243166
1107.874 .0243046
1108.466 .0242878
1109.058 .0242653
1109.651 .0242428
1110.244 .0242197
1110.837 .0241976
1111.431 .0241762
1112.025 .0241595
1112.620 .0241453
1113.215 .0241336
1113.810 .0241263
1114.406 .0241226
1115.002 .0241232
1115.599 .0241264
1116.196 .0241319
1116.793 .0241429
1117.391 .0241556
1117.989 .0241699
1118.588 .0241859
1119.187 .0242037
1119.787 .0242215
1120.387 .0242390
1120.988 .0242548
1121.589 .0242704
1122.190 .0242874
1122.793 .0243064
1123.395 .0243282
1123.998 .0243524
1124.602 .0243771
1125.206 .0244021
1125.811 .0244305
1126.416 .0244593
1127.022 .0244858
1127.628 .0245150
1128.235 .0245451
1128.843 .0245757
1129.451 .0246095
1130.059 .0246449
1130.669 .0246842
1131.278 .0247289
1131.889 .0247760
1132.500 .0248243
1133.112 .0248750
1133.724 .0249280
1134.337 .0249790
1134.950 .0250278
1135.564 .0250744
1136.179 .0251152
1136.795 .0251590
1137.411 .0252070
1138.028 .0252593
1138.645 .0253249
1139.263 .0254022
1139.882 .0254906
1140.502 .0255835
1141.122 .0256819
1141.743 .0258041
1142.365 .0259450
1142.987 .0259744
1143.611 .0259860
1144.235 .0261471
1144.859 .0269120
1145.485 .0271545
