Measurement Sequence started on: 10-20-44-796
Integration time: 35
Scans to Average: 2 
>>>>>Begin Spectral Data<<<<<
432.953 .0375058
433.882 .0365597
434.810 .0352931
435.737 .0377017
436.662 .0374280
437.586 .0367689
438.509 .0366800
439.431 .0365960
440.351 .0365292
441.269 .0364130
442.187 .0363307
443.103 .0362648
444.018 .0362463
444.932 .0362131
445.844 .0361826
446.756 .0361560
447.666 .0361372
448.575 .0361148
449.482 .0361034
450.388 .0360943
451.294 .0360889
452.198 .0360923
453.100 .0361044
454.002 .0361184
454.902 .0361388
455.801 .0361666
456.699 .0362017
457.596 .0362375
458.492 .0362729
459.387 .0362961
460.280 .0363064
461.172 .0362949
462.064 .0362723
462.954 .0362350
463.843 .0361933
464.730 .0361535
465.617 .0361126
466.503 .0360717
467.387 .0360312
468.271 .0359802
469.153 .0359260
470.035 .0358654
470.915 .0357986
471.794 .0357238
472.673 .0356532
473.550 .0355900
474.426 .0355381
475.301 .0354949
476.175 .0354662
477.048 .0354413
477.920 .0354215
478.791 .0353998
479.661 .0353747
480.530 .0353490
481.398 .0353242
482.266 .0353009
483.132 .0352825
483.997 .0352672
484.861 .0352582
485.724 .0352522
486.587 .0352521
487.448 .0352508
488.308 .0352459
489.168 .0352377
490.026 .0352294
490.884 .0352158
491.741 .0351994
492.597 .0351817
493.452 .0351626
494.306 .0351410
495.159 .0351175
496.011 .0350915
496.862 .0350661
497.713 .0350381
498.562 .0350075
499.411 .0349723
500.259 .0349312
501.106 .0348789
501.952 .0348140
502.798 .0347400
503.642 .0346513
504.486 .0345491
505.329 .0344394
506.171 .0343242
507.012 .0342119
507.852 .0341030
508.692 .0339989
509.531 .0339008
510.369 .0338047
511.206 .0337051
512.043 .0336004
512.878 .0334864
513.713 .0333594
514.547 .0332230
515.381 .0330820
516.213 .0329356
517.045 .0327820
517.876 .0326263
518.706 .0324690
519.536 .0323065
520.365 .0321380
521.193 .0319595
522.020 .0317753
522.847 .0315817
523.673 .0313763
524.498 .0311609
525.323 .0309389
526.146 .0307201
526.969 .0305077
527.792 .0303052
528.614 .0301208
529.435 .0299567
530.255 .0298217
531.075 .0297140
531.894 .0296323
532.712 .0295695
533.530 .0295225
534.347 .0294868
535.163 .0294482
535.979 .0294131
536.794 .0293870
537.608 .0293620
538.422 .0293481
539.235 .0293461
540.048 .0293517
540.860 .0293655
541.671 .0293859
542.481 .0294051
543.292 .0294195
544.101 .0294282
544.910 .0294275
545.718 .0294237
546.526 .0294298
547.333 .0294456
548.139 .0294779
548.945 .0295336
549.750 .0295952
550.555 .0296566
551.359 .0297180
552.162 .0297693
552.965 .0298088
553.768 .0298359
554.569 .0298544
555.371 .0298724
556.171 .0298929
556.972 .0299189
557.771 .0299556
558.570 .0300051
559.369 .0300593
560.167 .0301109
560.964 .0301614
561.761 .0302070
562.558 .0302448
563.354 .0302823
564.149 .0303198
564.944 .0303624
565.738 .0304124
566.532 .0304678
567.325 .0305320
568.118 .0306016
568.910 .0306715
569.702 .0307388
570.494 .0308038
571.285 .0308629
572.075 .0309146
572.865 .0309633
573.654 .0310099
574.443 .0310557
575.232 .0311028
576.020 .0311505
576.807 .0312017
577.594 .0312570
578.381 .0313156
579.167 .0313749
579.952 .0314357
580.738 .0314960
581.522 .0315550
582.307 .0316107
583.091 .0316654
583.874 .0317158
584.657 .0317631
585.440 .0318079
586.222 .0318510
587.004 .0318911
587.785 .0319286
588.566 .0319619
589.346 .0319907
590.126 .0320133
590.906 .0320315
591.685 .0320445
592.464 .0320545
593.242 .0320609
594.020 .0320643
594.797 .0320659
595.575 .0320677
596.351 .0320687
597.128 .0320692
597.904 .0320692
598.679 .0320692
599.454 .0320669
600.229 .0320634
601.004 .0320586
601.778 .0320514
602.551 .0320424
603.325 .0320327
604.097 .0320213
604.870 .0320091
605.642 .0319965
606.414 .0319837
607.185 .0319703
607.956 .0319562
608.727 .0319402
609.497 .0319223
610.267 .0319032
611.037 .0318823
611.806 .0318599
612.575 .0318363
613.344 .0318126
614.112 .0317886
614.880 .0317657
615.647 .0317434
616.414 .0317219
617.181 .0317010
617.948 .0316800
618.714 .0316580
619.480 .0316353
620.245 .0316121
621.011 .0315894
621.775 .0315657
622.540 .0315421
623.304 .0315185
624.068 .0314945
624.832 .0314698
625.595 .0314447
626.358 .0314187
627.120 .0313924
627.883 .0313653
628.645 .0313383
629.406 .0313110
630.168 .0312840
630.929 .0312567
631.689 .0312290
632.450 .0312008
633.210 .0311713
633.970 .0311401
634.729 .0311097
635.489 .0310790
636.248 .0310479
637.006 .0310174
637.765 .0309872
638.523 .0309575
639.280 .0309277
640.038 .0308981
640.795 .0308693
641.552 .0308419
642.309 .0308161
643.065 .0307920
643.821 .0307711
644.577 .0307536
645.332 .0307385
646.088 .0307252
646.843 .0307124
647.597 .0306989
648.352 .0306845
649.106 .0306698
649.860 .0306542
650.613 .0306386
651.367 .0306234
652.120 .0306093
652.872 .0305959
653.625 .0305823
654.377 .0305679
655.129 .0305522
655.881 .0305342
656.632 .0305136
657.384 .0304906
658.135 .0304667
658.885 .0304423
659.636 .0304189
660.386 .0303970
661.136 .0303772
661.885 .0303598
662.635 .0303450
663.384 .0303324
664.133 .0303218
664.881 .0303120
665.630 .0303026
666.378 .0302939
667.126 .0302850
667.874 .0302749
668.621 .0302646
669.368 .0302541
670.115 .0302433
670.862 .0302316
671.608 .0302202
672.354 .0302089
673.100 .0301981
673.846 .0301872
674.591 .0301759
675.337 .0301649
676.082 .0301535
676.826 .0301409
677.571 .0301276
678.315 .0301137
679.059 .0300996
679.803 .0300850
680.547 .0300714
681.290 .0300580
682.033 .0300448
682.776 .0300318
683.518 .0300185
684.261 .0300045
685.003 .0299896
685.745 .0299735
686.487 .0299565
687.228 .0299390
687.969 .0299209
688.710 .0299022
689.451 .0298833
690.192 .0298639
690.932 .0298439
691.672 .0298230
692.412 .0298019
693.152 .0297806
693.891 .0297596
694.630 .0297395
695.369 .0297204
696.108 .0297024
696.846 .0296850
697.585 .0296685
698.323 .0296522
699.061 .0296356
699.798 .0296177
700.536 .0295988
701.273 .0295788
702.010 .0295587
702.746 .0295380
703.483 .0295175
704.219 .0294978
704.955 .0294789
705.691 .0294600
706.427 .0294410
707.162 .0294217
707.897 .0294021
708.632 .0293817
709.367 .0293609
710.101 .0293396
710.835 .0293187
711.569 .0292986
712.303 .0292790
713.037 .0292602
713.770 .0292423
714.503 .0292247
715.236 .0292076
715.969 .0291904
716.702 .0291728
717.434 .0291545
718.166 .0291353
718.898 .0291154
719.629 .0290945
720.361 .0290734
721.092 .0290523
721.823 .0290314
722.554 .0290112
723.284 .0289913
724.014 .0289711
724.744 .0289507
725.474 .0289289
726.204 .0289058
726.933 .0288812
727.662 .0288555
728.391 .0288288
729.120 .0288022
729.849 .0287760
730.577 .0287510
731.305 .0287267
732.033 .0287034
732.760 .0286795
733.488 .0286554
734.215 .0286301
734.942 .0286032
735.669 .0285750
736.395 .0285465
737.122 .0285181
737.848 .0284910
738.573 .0284659
739.299 .0284433
740.024 .0284234
740.750 .0284064
741.474 .0283913
742.199 .0283774
742.924 .0283644
743.648 .0283517
744.372 .0283393
745.096 .0283276
745.819 .0283162
746.543 .0283052
747.266 .0282948
747.989 .0282849
748.711 .0282755
749.434 .0282665
750.156 .0282578
750.878 .0282492
751.599 .0282411
752.321 .0282330
753.042 .0282252
753.763 .0282176
754.484 .0282102
755.205 .0282029
755.925 .0281957
756.645 .0281880
757.365 .0281802
758.085 .0281725
758.804 .0281647
759.523 .0281559
760.242 .0281459
760.961 .0281346
761.679 .0281219
762.397 .0281074
763.115 .0280915
763.833 .0280741
764.551 .0280556
765.268 .0280356
765.985 .0280144
766.702 .0279920
767.418 .0279689
768.134 .0279449
768.850 .0279206
769.566 .0278965
770.282 .0278730
770.997 .0278511
771.712 .0278315
772.427 .0278144
773.142 .0277993
773.856 .0277852
774.570 .0277722
775.284 .0277588
775.998 .0277450
776.711 .0277308
777.424 .0277166
778.137 .0277027
778.849 .0276890
779.562 .0276757
780.274 .0276630
780.986 .0276509
781.697 .0276386
782.409 .0276260
783.120 .0276131
783.831 .0275999
784.541 .0275871
785.252 .0275756
785.962 .0275662
786.671 .0275585
787.381 .0275525
788.090 .0275479
788.799 .0275435
789.508 .0275385
790.217 .0275325
790.925 .0275258
791.633 .0275184
792.341 .0275102
793.048 .0275013
793.755 .0274922
794.462 .0274830
795.169 .0274730
795.875 .0274622
796.581 .0274507
797.287 .0274382
797.993 .0274244
798.698 .0274100
799.403 .0273953
800.108 .0273807
800.812 .0273667
801.517 .0273532
802.221 .0273407
802.924 .0273293
803.628 .0273187
804.331 .0273095
805.034 .0273017
805.736 .0272950
806.439 .0272886
807.141 .0272824
807.843 .0272763
808.544 .0272695
809.245 .0272619
809.946 .0272531
810.647 .0272435
811.347 .0272333
812.047 .0272226
812.747 .0272117
813.447 .0272007
814.146 .0271896
814.845 .0271783
815.543 .0271663
816.242 .0271540
816.940 .0271411
817.638 .0271278
818.335 .0271147
819.032 .0271020
819.729 .0270898
820.426 .0270785
821.122 .0270680
821.818 .0270583
822.514 .0270489
823.209 .0270395
823.905 .0270296
824.599 .0270187
825.294 .0270071
825.988 .0269940
826.682 .0269799
827.376 .0269651
828.069 .0269497
828.762 .0269335
829.455 .0269166
830.147 .0268990
830.840 .0268807
831.531 .0268612
832.223 .0268409
832.914 .0268192
833.605 .0267972
834.296 .0267750
834.986 .0267533
835.676 .0267325
836.366 .0267134
837.055 .0266960
837.744 .0266801
838.433 .0266656
839.121 .0266521
839.809 .0266391
840.497 .0266270
841.185 .0266154
841.872 .0266041
842.559 .0265933
843.245 .0265835
843.932 .0265739
844.617 .0265652
845.303 .0265566
845.988 .0265484
846.673 .0265399
847.358 .0265313
848.042 .0265223
848.726 .0265127
849.410 .0265030
850.093 .0264928
850.776 .0264822
851.459 .0264708
852.141 .0264581
852.823 .0264445
853.505 .0264302
854.186 .0264155
854.867 .0264006
855.548 .0263862
856.228 .0263726
856.908 .0263599
857.588 .0263481
858.267 .0263367
858.946 .0263255
859.625 .0263140
860.303 .0263021
860.981 .0262893
861.659 .0262761
862.336 .0262628
863.013 .0262497
863.690 .0262369
864.366 .0262243
865.042 .0262119
865.718 .0261996
866.393 .0261873
867.068 .0261746
867.743 .0261611
868.417 .0261469
869.091 .0261314
869.765 .0261150
870.438 .0260972
871.111 .0260787
871.783 .0260597
872.456 .0260405
873.127 .0260213
873.799 .0260021
874.470 .0259843
875.141 .0259677
875.811 .0259528
876.481 .0259393
877.151 .0259270
877.820 .0259153
878.489 .0259041
879.158 .0258925
879.826 .0258805
880.494 .0258680
881.162 .0258552
881.829 .0258423
882.496 .0258296
883.163 .0258174
883.829 .0258064
884.495 .0257961
885.160 .0257871
885.825 .0257783
886.490 .0257702
887.154 .0257621
887.818 .0257542
888.482 .0257459
889.145 .0257374
889.808 .0257287
890.471 .0257201
891.133 .0257118
891.795 .0257045
892.456 .0256980
893.117 .0256925
893.778 .0256875
894.439 .0256828
895.099 .0256774
895.758 .0256715
896.417 .0256647
897.076 .0256567
897.735 .0256473
898.393 .0256369
899.051 .0256257
899.708 .0256138
900.365 .0256019
901.022 .0255901
901.678 .0255787
902.334 .0255676
902.990 .0255566
903.645 .0255461
904.300 .0255363
904.954 .0255270
905.608 .0255177
906.262 .0255091
906.915 .0255007
907.568 .0254922
908.221 .0254838
908.873 .0254754
909.525 .0254670
910.176 .0254583
910.828 .0254495
911.478 .0254408
912.129 .0254318
912.778 .0254226
913.428 .0254126
914.077 .0254023
914.726 .0253911
915.375 .0253786
916.023 .0253658
916.670 .0253528
917.318 .0253397
917.964 .0253265
918.611 .0253135
919.257 .0253005
919.903 .0252876
920.548 .0252742
921.193 .0252607
921.838 .0252477
922.482 .0252350
923.126 .0252228
923.770 .0252119
924.413 .0252030
925.056 .0251951
925.698 .0251882
926.340 .0251826
926.982 .0251771
927.623 .0251718
928.264 .0251661
928.904 .0251604
929.544 .0251545
930.184 .0251485
930.823 .0251421
931.462 .0251356
932.101 .0251290
932.739 .0251216
933.377 .0251129
934.014 .0251026
934.651 .0250903
935.288 .0250760
935.924 .0250596
936.560 .0250416
937.196 .0250223
937.831 .0250022
938.466 .0249815
939.100 .0249609
939.734 .0249399
940.368 .0249192
941.001 .0248990
941.634 .0248797
942.266 .0248612
942.899 .0248438
943.530 .0248277
944.162 .0248124
944.793 .0247983
945.423 .0247848
946.053 .0247716
946.683 .0247586
947.313 .0247453
947.942 .0247316
948.571 .0247171
949.199 .0247018
949.827 .0246856
950.455 .0246689
951.082 .0246514
951.709 .0246330
952.335 .0246141
952.961 .0245948
953.587 .0245752
954.212 .0245556
954.837 .0245366
955.462 .0245185
956.086 .0245015
956.710 .0244860
957.334 .0244716
957.957 .0244591
958.579 .0244476
959.202 .0244375
959.824 .0244283
960.445 .0244199
961.067 .0244123
961.688 .0244055
962.308 .0243993
962.928 .0243939
963.548 .0243890
964.168 .0243844
964.787 .0243791
965.406 .0243735
966.024 .0243670
966.642 .0243596
967.260 .0243518
967.877 .0243436
968.494 .0243353
969.110 .0243273
969.727 .0243192
970.342 .0243109
970.958 .0243024
971.573 .0242938
972.188 .0242849
972.802 .0242761
973.416 .0242677
974.030 .0242597
974.643 .0242528
975.256 .0242472
975.869 .0242425
976.481 .0242382
977.093 .0242340
977.705 .0242297
978.316 .0242251
978.927 .0242204
979.538 .0242156
980.148 .0242110
980.758 .0242069
981.367 .0242034
981.977 .0242004
982.586 .0241980
983.194 .0241958
983.802 .0241935
984.410 .0241905
985.018 .0241872
985.625 .0241836
986.232 .0241802
986.838 .0241772
987.445 .0241744
988.050 .0241717
988.656 .0241693
989.261 .0241661
989.866 .0241624
990.471 .0241579
991.075 .0241526
991.679 .0241463
992.282 .0241398
992.886 .0241333
993.489 .0241278
994.091 .0241235
994.694 .0241204
995.296 .0241173
995.897 .0241144
996.499 .0241106
997.100 .0241058
997.701 .0241002
998.301 .0240941
998.901 .0240877
999.501 .0240825
1000.101 .0240780
1000.700 .0240750
1001.299 .0240731
1001.898 .0240727
1002.496 .0240727
1003.094 .0240726
1003.692 .0240715
1004.289 .0240701
1004.887 .0240679
1005.484 .0240656
1006.080 .0240632
1006.677 .0240615
1007.273 .0240603
1007.868 .0240602
1008.464 .0240610
1009.059 .0240629
1009.654 .0240655
1010.249 .0240694
1010.843 .0240734
1011.437 .0240785
1012.031 .0240840
1012.625 .0240895
1013.218 .0240949
1013.811 .0241004
1014.404 .0241052
1014.997 .0241097
1015.589 .0241144
1016.181 .0241195
1016.773 .0241246
1017.365 .0241308
1017.956 .0241368
1018.547 .0241423
1019.138 .0241473
1019.728 .0241509
1020.319 .0241520
1020.909 .0241517
1021.499 .0241499
1022.088 .0241467
1022.678 .0241434
1023.267 .0241410
1023.856 .0241396
1024.445 .0241389
1025.033 .0241394
1025.621 .0241395
1026.209 .0241394
1026.797 .0241389
1027.385 .0241369
1027.972 .0241340
1028.560 .0241320
1029.147 .0241303
1029.734 .0241306
1030.320 .0241332
1030.907 .0241389
1031.493 .0241458
1032.079 .0241543
1032.665 .0241629
1033.250 .0241699
1033.836 .0241744
1034.421 .0241766
1035.006 .0241755
1035.591 .0241729
1036.176 .0241688
1036.761 .0241643
1037.345 .0241602
1037.929 .0241575
1038.514 .0241542
1039.097 .0241511
1039.681 .0241472
1040.265 .0241421
1040.848 .0241347
1041.432 .0241260
1042.015 .0241157
1042.598 .0241045
1043.181 .0240935
1043.764 .0240835
1044.346 .0240747
1044.929 .0240675
1045.511 .0240613
1046.094 .0240555
1046.676 .0240500
1047.258 .0240441
1047.840 .0240377
1048.422 .0240310
1049.003 .0240241
1049.585 .0240174
1050.166 .0240111
1050.748 .0240055
1051.329 .0240014
1051.910 .0239986
1052.491 .0239974
1053.072 .0239974
1053.653 .0239980
1054.234 .0239995
1054.815 .0240021
1055.396 .0240051
1055.976 .0240075
1056.557 .0240091
1057.138 .0240098
1057.718 .0240088
1058.298 .0240066
1058.879 .0240040
1059.459 .0240017
1060.039 .0239999
1060.620 .0239977
1061.200 .0239943
1061.780 .0239903
1062.360 .0239843
1062.940 .0239756
1063.520 .0239648
1064.101 .0239522
1064.681 .0239384
1065.261 .0239247
1065.841 .0239112
1066.421 .0239001
1067.001 .0238905
1067.581 .0238833
1068.161 .0238776
1068.741 .0238736
1069.321 .0238700
1069.901 .0238676
1070.482 .0238659
1071.062 .0238650
1071.642 .0238639
1072.222 .0238640
1072.803 .0238643
1073.383 .0238662
1073.963 .0238670
1074.544 .0238675
1075.124 .0238663
1075.705 .0238649
1076.286 .0238595
1076.866 .0238522
1077.447 .0238416
1078.028 .0238288
1078.609 .0238122
1079.190 .0237933
1079.771 .0237725
1080.352 .0237537
1080.934 .0237361
1081.515 .0237224
1082.097 .0237123
1082.679 .0237073
1083.260 .0237050
1083.842 .0237066
1084.424 .0237089
1085.007 .0237118
1085.589 .0237118
1086.172 .0237107
1086.754 .0237084
1087.337 .0237062
1087.920 .0237048
1088.503 .0237055
1089.087 .0237084
1089.670 .0237139
1090.254 .0237172
1090.838 .0237192
1091.422 .0237174
1092.006 .0237113
1092.590 .0236976
1093.175 .0236782
1093.760 .0236560
1094.345 .0236318
1094.930 .0236082
1095.516 .0235901
1096.102 .0235767
1096.688 .0235697
1097.274 .0235673
1097.860 .0235683
1098.447 .0235692
1099.034 .0235685
1099.622 .0235622
1100.209 .0235517
1100.797 .0235370
1101.385 .0235190
1101.973 .0234970
1102.562 .0234777
1103.151 .0234605
1103.740 .0234449
1104.330 .0234331
1104.920 .0234254
1105.510 .0234203
1106.101 .0234182
1106.691 .0234171
1107.283 .0234174
1107.874 .0234175
1108.466 .0234203
1109.058 .0234232
1109.651 .0234280
1110.244 .0234344
1110.837 .0234404
1111.431 .0234475
1112.025 .0234543
1112.620 .0234583
1113.215 .0234620
1113.810 .0234633
1114.406 .0234623
1115.002 .0234579
1115.599 .0234483
1116.196 .0234351
1116.793 .0234170
1117.391 .0233952
1117.989 .0233685
1118.588 .0233409
1119.187 .0233131
1119.787 .0232858
1120.387 .0232622
1120.988 .0232439
1121.589 .0232292
1122.190 .0232230
1122.793 .0232228
1123.395 .0232262
1123.998 .0232327
1124.602 .0232426
1125.206 .0232518
1125.811 .0232625
1126.416 .0232719
1127.022 .0232810
1127.628 .0232906
1128.235 .0233038
1128.843 .0233151
1129.451 .0233283
1130.059 .0233419
1130.669 .0233554
1131.278 .0233675
1131.889 .0233800
1132.500 .0233926
1133.112 .0234080
1133.724 .0234253
1134.337 .0234478
1134.950 .0234727
1135.564 .0235060
1136.179 .0235468
1136.795 .0235988
1137.411 .0236619
1138.028 .0237346
1138.645 .0238200
1139.263 .0239216
1139.882 .0240333
1140.502 .0241551
1141.122 .0242933
1141.743 .0244552
1142.365 .0246282
1142.987 .0246927
1143.611 .0248290
1144.235 .0252798
1144.859 .0256923
1145.485 .0256477
