Measurement Sequence started on: 10-20-44-796
Integration time: 35
Scans to Average: 2 
>>>>>Begin Spectral Data<<<<<
432.953 .0362102
433.882 .0471327
434.810 .0462952
435.737 .0434415
436.662 .0427379
437.586 .0419207
438.509 .0415619
439.431 .0409479
440.351 .0404976
441.269 .0402263
442.187 .0400460
443.103 .0399417
444.018 .0398828
444.932 .0398483
445.844 .0398220
446.756 .0397888
447.666 .0397760
448.575 .0397534
449.482 .0397378
450.388 .0397286
451.294 .0397269
452.198 .0397202
453.100 .0397185
454.002 .0397229
454.902 .0397181
455.801 .0397126
456.699 .0397057
457.596 .0396967
458.492 .0396912
459.387 .0396810
460.280 .0396719
461.172 .0396594
462.064 .0396480
462.954 .0396283
463.843 .0396023
464.730 .0395738
465.617 .0395380
466.503 .0394964
467.387 .0394496
468.271 .0393922
469.153 .0393243
470.035 .0392415
470.915 .0391489
471.794 .0390475
472.673 .0389390
473.550 .0388296
474.426 .0387298
475.301 .0386401
476.175 .0385658
477.048 .0384999
477.920 .0384415
478.791 .0383881
479.661 .0383344
480.530 .0382790
481.398 .0382223
482.266 .0381694
483.132 .0381268
483.997 .0380938
484.861 .0380785
485.724 .0380775
486.587 .0380913
487.448 .0381115
488.308 .0381318
489.168 .0381479
490.026 .0381529
490.884 .0381449
491.741 .0381268
492.597 .0380996
493.452 .0380684
494.306 .0380374
495.159 .0380108
496.011 .0379885
496.862 .0379701
497.713 .0379457
498.562 .0379117
499.411 .0378655
500.259 .0377994
501.106 .0377098
501.952 .0376029
502.798 .0374816
503.642 .0373484
504.486 .0372112
505.329 .0370775
506.171 .0369512
507.012 .0368397
507.852 .0367370
508.692 .0366363
509.531 .0365345
510.369 .0364217
511.206 .0362928
512.043 .0361503
512.878 .0359934
513.713 .0358263
514.547 .0356561
515.381 .0354936
516.213 .0353411
517.045 .0352017
517.876 .0350747
518.706 .0349559
519.536 .0348403
520.365 .0347117
521.193 .0345574
522.020 .0343818
522.847 .0341861
523.673 .0339722
524.498 .0337524
525.323 .0335335
526.146 .0333317
526.969 .0331588
527.792 .0329996
528.614 .0328641
529.435 .0327449
530.255 .0326330
531.075 .0325132
531.894 .0323843
532.712 .0322545
533.530 .0321193
534.347 .0320028
535.163 .0319072
535.979 .0318347
536.794 .0318025
537.608 .0317893
538.422 .0317985
539.235 .0318236
540.048 .0318494
540.860 .0318698
541.671 .0318837
542.481 .0318936
543.292 .0318920
544.101 .0318866
544.910 .0318893
545.718 .0318931
546.526 .0319001
547.333 .0319094
548.139 .0319131
548.945 .0319192
549.750 .0319215
550.555 .0319182
551.359 .0319171
552.162 .0319208
552.965 .0319289
553.768 .0319399
554.569 .0319591
555.371 .0319853
556.171 .0320126
556.972 .0320426
557.771 .0320692
558.570 .0320926
559.369 .0321155
560.167 .0321357
560.964 .0321539
561.761 .0321745
562.558 .0321979
563.354 .0322275
564.149 .0322584
564.944 .0322918
565.738 .0323274
566.532 .0323617
567.325 .0323949
568.118 .0324250
568.910 .0324538
569.702 .0324838
570.494 .0325189
571.285 .0325594
572.075 .0326052
572.865 .0326589
573.654 .0327155
574.443 .0327717
575.232 .0328230
576.020 .0328674
576.807 .0329024
577.594 .0329297
578.381 .0329510
579.167 .0329677
579.952 .0329862
580.738 .0330083
581.522 .0330326
582.307 .0330597
583.091 .0330889
583.874 .0331180
584.657 .0331443
585.440 .0331683
586.222 .0331874
587.004 .0332035
587.785 .0332170
588.566 .0332290
589.346 .0332389
590.126 .0332468
590.906 .0332522
591.685 .0332540
592.464 .0332519
593.242 .0332470
594.020 .0332393
594.797 .0332304
595.575 .0332202
596.351 .0332088
597.128 .0331967
597.904 .0331855
598.679 .0331744
599.454 .0331631
600.229 .0331520
601.004 .0331411
601.778 .0331301
602.551 .0331187
603.325 .0331073
604.097 .0330962
604.870 .0330860
605.642 .0330760
606.414 .0330649
607.185 .0330532
607.956 .0330402
608.727 .0330253
609.497 .0330091
610.267 .0329911
611.037 .0329717
611.806 .0329508
612.575 .0329292
613.344 .0329061
614.112 .0328825
614.880 .0328580
615.647 .0328324
616.414 .0328059
617.181 .0327788
617.948 .0327510
618.714 .0327236
619.480 .0326968
620.245 .0326702
621.011 .0326440
621.775 .0326191
622.540 .0325942
623.304 .0325695
624.068 .0325446
624.832 .0325192
625.595 .0324930
626.358 .0324663
627.120 .0324383
627.883 .0324090
628.645 .0323790
629.406 .0323472
630.168 .0323138
630.929 .0322787
631.689 .0322418
632.450 .0322034
633.210 .0321643
633.970 .0321255
634.729 .0320865
635.489 .0320483
636.248 .0320111
637.006 .0319746
637.765 .0319387
638.523 .0319031
639.280 .0318677
640.038 .0318322
640.795 .0317971
641.552 .0317628
642.309 .0317305
643.065 .0317006
643.821 .0316731
644.577 .0316473
645.332 .0316233
646.088 .0316004
646.843 .0315769
647.597 .0315531
648.352 .0315281
649.106 .0315016
649.860 .0314731
650.613 .0314426
651.367 .0314117
652.120 .0313808
652.872 .0313505
653.625 .0313202
654.377 .0312906
655.129 .0312615
655.881 .0312318
656.632 .0312017
657.384 .0311710
658.135 .0311397
658.885 .0311081
659.636 .0310765
660.386 .0310460
661.136 .0310171
661.885 .0309908
662.635 .0309679
663.384 .0309477
664.133 .0309297
664.881 .0309128
665.630 .0308965
666.378 .0308811
667.126 .0308652
667.874 .0308481
668.621 .0308304
669.368 .0308126
670.115 .0307948
670.862 .0307770
671.608 .0307606
672.354 .0307453
673.100 .0307308
673.846 .0307165
674.591 .0307013
675.337 .0306856
676.082 .0306701
676.826 .0306540
677.571 .0306384
678.315 .0306237
679.059 .0306106
679.803 .0305994
680.547 .0305905
681.290 .0305832
682.033 .0305764
682.776 .0305702
683.518 .0305631
684.261 .0305544
685.003 .0305443
685.745 .0305328
686.487 .0305204
687.228 .0305077
687.969 .0304944
688.710 .0304804
689.451 .0304662
690.192 .0304511
690.932 .0304342
691.672 .0304158
692.412 .0303951
693.152 .0303730
693.891 .0303497
694.630 .0303260
695.369 .0303021
696.108 .0302792
696.846 .0302571
697.585 .0302358
698.323 .0302152
699.061 .0301951
699.798 .0301750
700.536 .0301548
701.273 .0301348
702.010 .0301149
702.746 .0300953
703.483 .0300759
704.219 .0300570
704.955 .0300388
705.691 .0300207
706.427 .0300026
707.162 .0299851
707.897 .0299677
708.632 .0299508
709.367 .0299338
710.101 .0299169
710.835 .0298999
711.569 .0298826
712.303 .0298644
713.037 .0298455
713.770 .0298260
714.503 .0298056
715.236 .0297845
715.969 .0297637
716.702 .0297430
717.434 .0297226
718.166 .0297024
718.898 .0296823
719.629 .0296618
720.361 .0296406
721.092 .0296180
721.823 .0295941
722.554 .0295693
723.284 .0295433
724.014 .0295158
724.744 .0294877
725.474 .0294585
726.204 .0294288
726.933 .0293979
727.662 .0293664
728.391 .0293342
729.120 .0293015
729.849 .0292687
730.577 .0292361
731.305 .0292038
732.033 .0291720
732.760 .0291405
733.488 .0291098
734.215 .0290796
734.942 .0290495
735.669 .0290194
736.395 .0289903
737.122 .0289623
737.848 .0289354
738.573 .0289095
739.299 .0288854
740.024 .0288624
740.750 .0288405
741.474 .0288191
742.199 .0287977
742.924 .0287763
743.648 .0287550
744.372 .0287335
745.096 .0287127
745.819 .0286926
746.543 .0286737
747.266 .0286562
747.989 .0286403
748.711 .0286254
749.434 .0286114
750.156 .0285986
750.878 .0285870
751.599 .0285762
752.321 .0285661
753.042 .0285569
753.763 .0285486
754.484 .0285408
755.205 .0285336
755.925 .0285259
756.645 .0285183
757.365 .0285100
758.085 .0285013
758.804 .0284914
759.523 .0284807
760.242 .0284691
760.961 .0284564
761.679 .0284422
762.397 .0284264
763.115 .0284085
763.833 .0283890
764.551 .0283678
765.268 .0283447
765.985 .0283201
766.702 .0282952
767.418 .0282698
768.134 .0282455
768.850 .0282222
769.566 .0282004
770.282 .0281797
770.997 .0281606
771.712 .0281424
772.427 .0281251
773.142 .0281090
773.856 .0280942
774.570 .0280803
775.284 .0280678
775.998 .0280564
776.711 .0280466
777.424 .0280386
778.137 .0280320
778.849 .0280262
779.562 .0280214
780.274 .0280168
780.986 .0280122
781.697 .0280079
782.409 .0280038
783.120 .0279999
783.831 .0279962
784.541 .0279925
785.252 .0279890
785.962 .0279858
786.671 .0279831
787.381 .0279807
788.090 .0279785
788.799 .0279764
789.508 .0279740
790.217 .0279719
790.925 .0279699
791.633 .0279678
792.341 .0279654
793.048 .0279618
793.755 .0279567
794.462 .0279496
795.169 .0279411
795.875 .0279320
796.581 .0279225
797.287 .0279137
797.993 .0279059
798.698 .0278994
799.403 .0278944
800.108 .0278903
800.812 .0278869
801.517 .0278833
802.221 .0278792
802.924 .0278738
803.628 .0278676
804.331 .0278617
805.034 .0278567
805.736 .0278527
806.439 .0278505
807.141 .0278496
807.843 .0278491
808.544 .0278484
809.245 .0278468
809.946 .0278435
810.647 .0278386
811.347 .0278324
812.047 .0278247
812.747 .0278166
813.447 .0278088
814.146 .0278013
814.845 .0277954
815.543 .0277903
816.242 .0277853
816.940 .0277805
817.638 .0277757
818.335 .0277706
819.032 .0277650
819.729 .0277595
820.426 .0277540
821.122 .0277481
821.818 .0277419
822.514 .0277345
823.209 .0277261
823.905 .0277166
824.599 .0277050
825.294 .0276915
825.988 .0276763
826.682 .0276595
827.376 .0276421
828.069 .0276248
828.762 .0276073
829.455 .0275898
830.147 .0275725
830.840 .0275553
831.531 .0275380
832.223 .0275208
832.914 .0275041
833.605 .0274878
834.296 .0274728
834.986 .0274594
835.676 .0274477
836.366 .0274385
837.055 .0274311
837.744 .0274252
838.433 .0274200
839.121 .0274150
839.809 .0274094
840.497 .0274034
841.185 .0273974
841.872 .0273909
842.559 .0273842
843.245 .0273779
843.932 .0273709
844.617 .0273636
845.303 .0273555
845.988 .0273463
846.673 .0273355
847.358 .0273232
848.042 .0273097
848.726 .0272955
849.410 .0272803
850.093 .0272644
850.776 .0272479
851.459 .0272311
852.141 .0272131
852.823 .0271938
853.505 .0271734
854.186 .0271522
854.867 .0271302
855.548 .0271081
856.228 .0270859
856.908 .0270648
857.588 .0270444
858.267 .0270247
858.946 .0270056
859.625 .0269873
860.303 .0269693
860.981 .0269519
861.659 .0269351
862.336 .0269187
863.013 .0269022
863.690 .0268862
864.366 .0268702
865.042 .0268539
865.718 .0268374
866.393 .0268202
867.068 .0268026
867.743 .0267849
868.417 .0267669
869.091 .0267484
869.765 .0267301
870.438 .0267120
871.111 .0266932
871.783 .0266739
872.456 .0266537
873.127 .0266326
873.799 .0266108
874.470 .0265879
875.141 .0265644
875.811 .0265404
876.481 .0265166
877.151 .0264929
877.820 .0264699
878.489 .0264479
879.158 .0264270
879.826 .0264074
880.494 .0263890
881.162 .0263712
881.829 .0263541
882.496 .0263374
883.163 .0263209
883.829 .0263055
884.495 .0262908
885.160 .0262769
885.825 .0262646
886.490 .0262536
887.154 .0262442
887.818 .0262358
888.482 .0262283
889.145 .0262206
889.808 .0262122
890.471 .0262023
891.133 .0261906
891.795 .0261779
892.456 .0261642
893.117 .0261499
893.778 .0261354
894.439 .0261211
895.099 .0261068
895.758 .0260928
896.417 .0260794
897.076 .0260657
897.735 .0260523
898.393 .0260389
899.051 .0260260
899.708 .0260139
900.365 .0260029
901.022 .0259931
901.678 .0259845
902.334 .0259770
902.990 .0259695
903.645 .0259622
904.300 .0259553
904.954 .0259483
905.608 .0259413
906.262 .0259347
906.915 .0259283
907.568 .0259221
908.221 .0259165
908.873 .0259108
909.525 .0259049
910.176 .0258984
910.828 .0258909
911.478 .0258823
912.129 .0258726
912.778 .0258619
913.428 .0258500
914.077 .0258381
914.726 .0258254
915.375 .0258126
916.023 .0257999
916.670 .0257878
917.318 .0257760
917.964 .0257644
918.611 .0257531
919.257 .0257420
919.903 .0257314
920.548 .0257212
921.193 .0257119
921.838 .0257037
922.482 .0256961
923.126 .0256899
923.770 .0256849
924.413 .0256811
925.056 .0256779
925.698 .0256752
926.340 .0256724
926.982 .0256695
927.623 .0256662
928.264 .0256620
928.904 .0256574
929.544 .0256524
930.184 .0256464
930.823 .0256396
931.462 .0256322
932.101 .0256240
932.739 .0256152
933.377 .0256057
934.014 .0255954
934.651 .0255853
935.288 .0255756
935.924 .0255666
936.560 .0255587
937.196 .0255522
937.831 .0255467
938.466 .0255421
939.100 .0255382
939.734 .0255342
940.368 .0255305
941.001 .0255270
941.634 .0255235
942.266 .0255205
942.899 .0255169
943.530 .0255132
944.162 .0255093
944.793 .0255045
945.423 .0254982
946.053 .0254903
946.683 .0254808
947.313 .0254698
947.942 .0254572
948.571 .0254432
949.199 .0254279
949.827 .0254119
950.455 .0253950
951.082 .0253778
951.709 .0253614
952.335 .0253453
952.961 .0253302
953.587 .0253165
954.212 .0253038
954.837 .0252921
955.462 .0252816
956.086 .0252725
956.710 .0252645
957.334 .0252580
957.957 .0252532
958.579 .0252499
959.202 .0252490
959.824 .0252499
960.445 .0252518
961.067 .0252552
961.688 .0252589
962.308 .0252619
962.928 .0252641
963.548 .0252653
964.168 .0252653
964.787 .0252641
965.406 .0252628
966.024 .0252616
966.642 .0252602
967.260 .0252596
967.877 .0252589
968.494 .0252583
969.110 .0252579
969.727 .0252562
970.342 .0252533
970.958 .0252501
971.573 .0252461
972.188 .0252416
972.802 .0252376
973.416 .0252347
974.030 .0252324
974.643 .0252306
975.256 .0252296
975.869 .0252286
976.481 .0252278
977.093 .0252270
977.705 .0252262
978.316 .0252259
978.927 .0252261
979.538 .0252262
980.148 .0252263
980.758 .0252267
981.367 .0252270
981.977 .0252265
982.586 .0252258
983.194 .0252250
983.802 .0252238
984.410 .0252223
985.018 .0252217
985.625 .0252216
986.232 .0252222
986.838 .0252231
987.445 .0252238
988.050 .0252240
988.656 .0252236
989.261 .0252221
989.866 .0252187
990.471 .0252142
991.075 .0252084
991.679 .0252014
992.282 .0251945
992.886 .0251877
993.489 .0251814
994.091 .0251760
994.694 .0251712
995.296 .0251670
995.897 .0251628
996.499 .0251586
997.100 .0251541
997.701 .0251502
998.301 .0251468
998.901 .0251444
999.501 .0251435
1000.101 .0251447
1000.700 .0251472
1001.299 .0251512
1001.898 .0251560
1002.496 .0251615
1003.094 .0251668
1003.692 .0251711
1004.289 .0251739
1004.887 .0251762
1005.484 .0251771
1006.080 .0251774
1006.677 .0251764
1007.273 .0251747
1007.868 .0251717
1008.464 .0251674
1009.059 .0251619
1009.654 .0251553
1010.249 .0251478
1010.843 .0251402
1011.437 .0251326
1012.031 .0251252
1012.625 .0251179
1013.218 .0251116
1013.811 .0251053
1014.404 .0250990
1014.997 .0250931
1015.589 .0250874
1016.181 .0250827
1016.773 .0250796
1017.365 .0250781
1017.956 .0250781
1018.547 .0250804
1019.138 .0250836
1019.728 .0250870
1020.319 .0250911
1020.909 .0250951
1021.499 .0250982
1022.088 .0251013
1022.678 .0251037
1023.267 .0251053
1023.856 .0251069
1024.445 .0251083
1025.033 .0251087
1025.621 .0251082
1026.209 .0251057
1026.797 .0251007
1027.385 .0250933
1027.972 .0250835
1028.560 .0250714
1029.147 .0250574
1029.734 .0250427
1030.320 .0250272
1030.907 .0250122
1031.493 .0249982
1032.079 .0249858
1032.665 .0249752
1033.250 .0249662
1033.836 .0249588
1034.421 .0249528
1035.006 .0249478
1035.591 .0249442
1036.176 .0249412
1036.761 .0249394
1037.345 .0249377
1037.929 .0249363
1038.514 .0249342
1039.097 .0249322
1039.681 .0249294
1040.265 .0249262
1040.848 .0249219
1041.432 .0249167
1042.015 .0249099
1042.598 .0249018
1043.181 .0248925
1043.764 .0248825
1044.346 .0248714
1044.929 .0248598
1045.511 .0248465
1046.094 .0248320
1046.676 .0248168
1047.258 .0248016
1047.840 .0247861
1048.422 .0247713
1049.003 .0247563
1049.585 .0247415
1050.166 .0247261
1050.748 .0247106
1051.329 .0246938
1051.910 .0246767
1052.491 .0246586
1053.072 .0246400
1053.653 .0246214
1054.234 .0246048
1054.815 .0245904
1055.396 .0245798
1055.976 .0245725
1056.557 .0245672
1057.138 .0245630
1057.718 .0245589
1058.298 .0245533
1058.879 .0245461
1059.459 .0245363
1060.039 .0245245
1060.620 .0245103
1061.200 .0244954
1061.780 .0244791
1062.360 .0244617
1062.940 .0244441
1063.520 .0244260
1064.101 .0244071
1064.681 .0243874
1065.261 .0243678
1065.841 .0243484
1066.421 .0243299
1067.001 .0243122
1067.581 .0242955
1068.161 .0242802
1068.741 .0242669
1069.321 .0242551
1069.901 .0242452
1070.482 .0242374
1071.062 .0242313
1071.642 .0242265
1072.222 .0242234
1072.803 .0242201
1073.383 .0242154
1073.963 .0242081
1074.544 .0241982
1075.124 .0241847
1075.705 .0241681
1076.286 .0241495
1076.866 .0241298
1077.447 .0241093
1078.028 .0240888
1078.609 .0240688
1079.190 .0240495
1079.771 .0240316
1080.352 .0240136
1080.934 .0239962
1081.515 .0239801
1082.097 .0239650
1082.679 .0239506
1083.260 .0239379
1083.842 .0239274
1084.424 .0239177
1085.007 .0239092
1085.589 .0239018
1086.172 .0238940
1086.754 .0238874
1087.337 .0238826
1087.920 .0238803
1088.503 .0238811
1089.087 .0238851
1089.670 .0238925
1090.254 .0239034
1090.838 .0239168
1091.422 .0239311
1092.006 .0239461
1092.590 .0239602
1093.175 .0239719
1093.760 .0239790
1094.345 .0239824
1094.930 .0239824
1095.516 .0239808
1096.102 .0239781
1096.688 .0239743
1097.274 .0239712
1097.860 .0239670
1098.447 .0239604
1099.034 .0239511
1099.622 .0239363
1100.209 .0239176
1100.797 .0238932
1101.385 .0238646
1101.973 .0238339
1102.562 .0238033
1103.151 .0237759
1103.740 .0237535
1104.330 .0237389
1104.920 .0237303
1105.510 .0237261
1106.101 .0237278
1106.691 .0237321
1107.283 .0237390
1107.874 .0237485
1108.466 .0237604
1109.058 .0237765
1109.651 .0237972
1110.244 .0238220
1110.837 .0238483
1111.431 .0238774
1112.025 .0239041
1112.620 .0239262
1113.215 .0239432
1113.810 .0239549
1114.406 .0239615
1115.002 .0239646
1115.599 .0239653
1116.196 .0239631
1116.793 .0239606
1117.391 .0239570
1117.989 .0239496
1118.588 .0239399
1119.187 .0239261
1119.787 .0239102
1120.387 .0238926
1120.988 .0238784
1121.589 .0238682
1122.190 .0238644
1122.793 .0238702
1123.395 .0238849
1123.998 .0239094
1124.602 .0239421
1125.206 .0239820
1125.811 .0240274
1126.416 .0240749
1127.022 .0241229
1127.628 .0241723
1128.235 .0242238
1128.843 .0242747
1129.451 .0243243
1130.059 .0243713
1130.669 .0244186
1131.278 .0244640
1131.889 .0245070
1132.500 .0245497
1133.112 .0245947
1133.724 .0246426
1134.337 .0246897
1134.950 .0247352
1135.564 .0247819
1136.179 .0248301
1136.795 .0248828
1137.411 .0249388
1138.028 .0249969
1138.645 .0250662
1139.263 .0251468
1139.882 .0252358
1140.502 .0253365
1141.122 .0254381
1141.743 .0255583
1142.365 .0256655
1142.987 .0257880
1143.611 .0259833
1144.235 .0258562
1144.859 .0263765
1145.485 .0259313
