Measurement Sequence started on: 10-20-44-796
Integration time: 35
Scans to Average: 2 
>>>>>Begin Spectral Data<<<<<
432.953 .0220343
433.882 .0262892
434.810 .0275655
435.737 .0307933
436.662 .0315922
437.586 .0308322
438.509 .0316963
439.431 .0323565
440.351 .0329346
441.269 .0334012
442.187 .0338100
443.103 .0341680
444.018 .0344056
444.932 .0345537
445.844 .0345897
446.756 .0345313
447.666 .0344276
448.575 .0343016
449.482 .0341727
450.388 .0340711
451.294 .0340007
452.198 .0339594
453.100 .0339316
454.002 .0339070
454.902 .0338777
455.801 .0338455
456.699 .0338011
457.596 .0337507
458.492 .0336938
459.387 .0336501
460.280 .0336283
461.172 .0336318
462.064 .0336640
462.954 .0337196
463.843 .0337925
464.730 .0338751
465.617 .0339488
466.503 .0340113
467.387 .0340523
468.271 .0340706
469.153 .0340696
470.035 .0340579
470.915 .0340405
471.794 .0340246
472.673 .0340112
473.550 .0339987
474.426 .0339891
475.301 .0339777
476.175 .0339626
477.048 .0339441
477.920 .0339198
478.791 .0338862
479.661 .0338445
480.530 .0338078
481.398 .0337735
482.266 .0337463
483.132 .0337313
483.997 .0337224
484.861 .0337220
485.724 .0337289
486.587 .0337409
487.448 .0337552
488.308 .0337720
489.168 .0337872
490.026 .0337991
490.884 .0338054
491.741 .0338040
492.597 .0337937
493.452 .0337803
494.306 .0337585
495.159 .0337253
496.011 .0336865
496.862 .0336416
497.713 .0335916
498.562 .0335356
499.411 .0334711
500.259 .0333956
501.106 .0333140
501.952 .0332262
502.798 .0331330
503.642 .0330381
504.486 .0329447
505.329 .0328549
506.171 .0327712
507.012 .0326935
507.852 .0326145
508.692 .0325416
509.531 .0324700
510.369 .0323883
511.206 .0323042
512.043 .0322102
512.878 .0321121
513.713 .0320077
514.547 .0319021
515.381 .0317912
516.213 .0316730
517.045 .0315469
517.876 .0314040
518.706 .0312438
519.536 .0310755
520.365 .0308908
521.193 .0306952
522.020 .0304987
522.847 .0303010
523.673 .0301022
524.498 .0299084
525.323 .0297094
526.146 .0295104
526.969 .0293065
527.792 .0290945
528.614 .0288684
529.435 .0286394
530.255 .0284192
531.075 .0282063
531.894 .0280136
532.712 .0278438
533.530 .0276971
534.347 .0275803
535.163 .0274898
535.979 .0274225
536.794 .0273749
537.608 .0273392
538.422 .0273154
539.235 .0272917
540.048 .0272720
540.860 .0272556
541.671 .0272453
542.481 .0272463
543.292 .0272602
544.101 .0272860
544.910 .0273279
545.718 .0273892
546.526 .0274702
547.333 .0275585
548.139 .0276521
548.945 .0277400
549.750 .0278252
550.555 .0279041
551.359 .0279766
552.162 .0280400
552.965 .0281024
553.768 .0281648
554.569 .0282291
555.371 .0282889
556.171 .0283439
556.972 .0283892
557.771 .0284226
558.570 .0284381
559.369 .0284356
560.167 .0284195
560.964 .0283996
561.761 .0283769
562.558 .0283667
563.354 .0283694
564.149 .0283915
564.944 .0284368
565.738 .0285061
566.532 .0285896
567.325 .0286831
568.118 .0287826
568.910 .0288843
569.702 .0289878
570.494 .0290935
571.285 .0291966
572.075 .0293071
572.865 .0294202
573.654 .0295324
574.443 .0296376
575.232 .0297367
576.020 .0298239
576.807 .0298974
577.594 .0299568
578.381 .0300060
579.167 .0300483
579.952 .0300907
580.738 .0301336
581.522 .0301817
582.307 .0302317
583.091 .0302824
583.874 .0303325
584.657 .0303826
585.440 .0304297
586.222 .0304742
587.004 .0305176
587.785 .0305618
588.566 .0306038
589.346 .0306423
590.126 .0306758
590.906 .0307043
591.685 .0307247
592.464 .0307358
593.242 .0307396
594.020 .0307374
594.797 .0307308
595.575 .0307224
596.351 .0307132
597.128 .0307029
597.904 .0306919
598.679 .0306797
599.454 .0306653
600.229 .0306499
601.004 .0306338
601.778 .0306179
602.551 .0306030
603.325 .0305908
604.097 .0305803
604.870 .0305727
605.642 .0305663
606.414 .0305595
607.185 .0305509
607.956 .0305393
608.727 .0305244
609.497 .0305065
610.267 .0304868
611.037 .0304659
611.806 .0304435
612.575 .0304206
613.344 .0303969
614.112 .0303723
614.880 .0303468
615.647 .0303203
616.414 .0302924
617.181 .0302630
617.948 .0302329
618.714 .0302035
619.480 .0301763
620.245 .0301508
621.011 .0301280
621.775 .0301076
622.540 .0300897
623.304 .0300735
624.068 .0300590
624.832 .0300464
625.595 .0300350
626.358 .0300241
627.120 .0300130
627.883 .0300018
628.645 .0299916
629.406 .0299816
630.168 .0299730
630.929 .0299653
631.689 .0299587
632.450 .0299519
633.210 .0299453
633.970 .0299376
634.729 .0299280
635.489 .0299162
636.248 .0299012
637.006 .0298831
637.765 .0298630
638.523 .0298420
639.280 .0298210
640.038 .0298001
640.795 .0297798
641.552 .0297590
642.309 .0297385
643.065 .0297174
643.821 .0296956
644.577 .0296724
645.332 .0296482
646.088 .0296238
646.843 .0295996
647.597 .0295766
648.352 .0295559
649.106 .0295383
649.860 .0295238
650.613 .0295117
651.367 .0295016
652.120 .0294928
652.872 .0294842
653.625 .0294745
654.377 .0294625
655.129 .0294478
655.881 .0294317
656.632 .0294145
657.384 .0293968
658.135 .0293801
658.885 .0293641
659.636 .0293495
660.386 .0293359
661.136 .0293230
661.885 .0293096
662.635 .0292948
663.384 .0292792
664.133 .0292618
664.881 .0292435
665.630 .0292254
666.378 .0292081
667.126 .0291932
667.874 .0291805
668.621 .0291692
669.368 .0291589
670.115 .0291496
670.862 .0291402
671.608 .0291301
672.354 .0291193
673.100 .0291079
673.846 .0290961
674.591 .0290839
675.337 .0290724
676.082 .0290611
676.826 .0290505
677.571 .0290400
678.315 .0290293
679.059 .0290183
679.803 .0290063
680.547 .0289939
681.290 .0289803
682.033 .0289660
682.776 .0289505
683.518 .0289339
684.261 .0289165
685.003 .0288985
685.745 .0288794
686.487 .0288592
687.228 .0288378
687.969 .0288147
688.710 .0287899
689.451 .0287633
690.192 .0287348
690.932 .0287055
691.672 .0286749
692.412 .0286448
693.152 .0286145
693.891 .0285848
694.630 .0285555
695.369 .0285271
696.108 .0284989
696.846 .0284707
697.585 .0284428
698.323 .0284156
699.061 .0283885
699.798 .0283629
700.536 .0283384
701.273 .0283152
702.010 .0282933
702.746 .0282725
703.483 .0282519
704.219 .0282325
704.955 .0282135
705.691 .0281952
706.427 .0281771
707.162 .0281600
707.897 .0281428
708.632 .0281255
709.367 .0281083
710.101 .0280904
710.835 .0280717
711.569 .0280530
712.303 .0280333
713.037 .0280135
713.770 .0279931
714.503 .0279724
715.236 .0279510
715.969 .0279298
716.702 .0279083
717.434 .0278868
718.166 .0278662
718.898 .0278474
719.629 .0278304
720.361 .0278154
721.092 .0278020
721.823 .0277899
722.554 .0277777
723.284 .0277655
724.014 .0277519
724.744 .0277377
725.474 .0277228
726.204 .0277079
726.933 .0276933
727.662 .0276794
728.391 .0276658
729.120 .0276525
729.849 .0276384
730.577 .0276228
731.305 .0276046
732.033 .0275838
732.760 .0275608
733.488 .0275361
734.215 .0275109
734.942 .0274865
735.669 .0274637
736.395 .0274430
737.122 .0274240
737.848 .0274065
738.573 .0273899
739.299 .0273738
740.024 .0273582
740.750 .0273430
741.474 .0273283
742.199 .0273141
742.924 .0273014
743.648 .0272899
744.372 .0272796
745.096 .0272704
745.819 .0272620
746.543 .0272541
747.266 .0272466
747.989 .0272388
748.711 .0272316
749.434 .0272249
750.156 .0272193
750.878 .0272150
751.599 .0272125
752.321 .0272119
753.042 .0272127
753.763 .0272148
754.484 .0272184
755.205 .0272222
755.925 .0272263
756.645 .0272300
757.365 .0272332
758.085 .0272359
758.804 .0272371
759.523 .0272367
760.242 .0272345
760.961 .0272300
761.679 .0272231
762.397 .0272138
763.115 .0272027
763.833 .0271894
764.551 .0271747
765.268 .0271591
765.985 .0271421
766.702 .0271237
767.418 .0271042
768.134 .0270838
768.850 .0270631
769.566 .0270423
770.282 .0270223
770.997 .0270040
771.712 .0269876
772.427 .0269729
773.142 .0269594
773.856 .0269471
774.570 .0269350
775.284 .0269223
775.998 .0269093
776.711 .0268959
777.424 .0268826
778.137 .0268703
778.849 .0268599
779.562 .0268518
780.274 .0268451
780.986 .0268406
781.697 .0268373
782.409 .0268341
783.120 .0268306
783.831 .0268263
784.541 .0268218
785.252 .0268169
785.962 .0268117
786.671 .0268064
787.381 .0268011
788.090 .0267957
788.799 .0267892
789.508 .0267809
790.217 .0267710
790.925 .0267583
791.633 .0267430
792.341 .0267259
793.048 .0267065
793.755 .0266856
794.462 .0266637
795.169 .0266411
795.875 .0266186
796.581 .0265966
797.287 .0265766
797.993 .0265579
798.698 .0265416
799.403 .0265275
800.108 .0265152
800.812 .0265051
801.517 .0264960
802.221 .0264879
802.924 .0264804
803.628 .0264734
804.331 .0264669
805.034 .0264608
805.736 .0264554
806.439 .0264503
807.141 .0264453
807.843 .0264400
808.544 .0264339
809.245 .0264259
809.946 .0264164
810.647 .0264049
811.347 .0263918
812.047 .0263773
812.747 .0263617
813.447 .0263457
814.146 .0263286
814.845 .0263113
815.543 .0262933
816.242 .0262749
816.940 .0262561
817.638 .0262366
818.335 .0262174
819.032 .0261990
819.729 .0261810
820.426 .0261637
821.122 .0261473
821.818 .0261311
822.514 .0261143
823.209 .0260965
823.905 .0260770
824.599 .0260563
825.294 .0260346
825.988 .0260124
826.682 .0259902
827.376 .0259694
828.069 .0259493
828.762 .0259304
829.455 .0259131
830.147 .0258962
830.840 .0258796
831.531 .0258636
832.223 .0258475
832.914 .0258311
833.605 .0258152
834.296 .0257999
834.986 .0257851
835.676 .0257721
836.366 .0257596
837.055 .0257482
837.744 .0257380
838.433 .0257288
839.121 .0257192
839.809 .0257096
840.497 .0257000
841.185 .0256899
841.872 .0256796
842.559 .0256689
843.245 .0256576
843.932 .0256465
844.617 .0256354
845.303 .0256238
845.988 .0256115
846.673 .0255991
847.358 .0255859
848.042 .0255727
848.726 .0255591
849.410 .0255454
850.093 .0255320
850.776 .0255188
851.459 .0255053
852.141 .0254912
852.823 .0254765
853.505 .0254609
854.186 .0254446
854.867 .0254282
855.548 .0254118
856.228 .0253961
856.908 .0253821
857.588 .0253694
858.267 .0253579
858.946 .0253475
859.625 .0253378
860.303 .0253284
860.981 .0253191
861.659 .0253091
862.336 .0252992
863.013 .0252897
863.690 .0252808
864.366 .0252721
865.042 .0252645
865.718 .0252580
866.393 .0252513
867.068 .0252446
867.743 .0252369
868.417 .0252276
869.091 .0252173
869.765 .0252056
870.438 .0251927
871.111 .0251786
871.783 .0251638
872.456 .0251483
873.127 .0251323
873.799 .0251161
874.470 .0250997
875.141 .0250831
875.811 .0250664
876.481 .0250492
877.151 .0250318
877.820 .0250148
878.489 .0249984
879.158 .0249823
879.826 .0249667
880.494 .0249520
881.162 .0249381
881.829 .0249252
882.496 .0249135
883.163 .0249032
883.829 .0248940
884.495 .0248858
885.160 .0248784
885.825 .0248717
886.490 .0248654
887.154 .0248595
887.818 .0248532
888.482 .0248462
889.145 .0248385
889.808 .0248301
890.471 .0248221
891.133 .0248144
891.795 .0248070
892.456 .0248003
893.117 .0247943
893.778 .0247889
894.439 .0247833
895.099 .0247775
895.758 .0247715
896.417 .0247645
897.076 .0247570
897.735 .0247492
898.393 .0247422
899.051 .0247359
899.708 .0247300
900.365 .0247250
901.022 .0247202
901.678 .0247155
902.334 .0247111
902.990 .0247071
903.645 .0247040
904.300 .0247019
904.954 .0246998
905.608 .0246986
906.262 .0246977
906.915 .0246971
907.568 .0246957
908.221 .0246940
908.873 .0246917
909.525 .0246887
910.176 .0246852
910.828 .0246824
911.478 .0246790
912.129 .0246759
912.778 .0246717
913.428 .0246664
914.077 .0246592
914.726 .0246502
915.375 .0246398
916.023 .0246290
916.670 .0246178
917.318 .0246068
917.964 .0245958
918.611 .0245860
919.257 .0245765
919.903 .0245673
920.548 .0245583
921.193 .0245496
921.838 .0245411
922.482 .0245333
923.126 .0245262
923.770 .0245205
924.413 .0245159
925.056 .0245125
925.698 .0245097
926.340 .0245073
926.982 .0245051
927.623 .0245030
928.264 .0245008
928.904 .0244982
929.544 .0244950
930.184 .0244915
930.823 .0244870
931.462 .0244816
932.101 .0244751
932.739 .0244675
933.377 .0244592
934.014 .0244504
934.651 .0244420
935.288 .0244339
935.924 .0244269
936.560 .0244205
937.196 .0244142
937.831 .0244077
938.466 .0244000
939.100 .0243913
939.734 .0243818
940.368 .0243717
941.001 .0243619
941.634 .0243531
942.266 .0243461
942.899 .0243407
943.530 .0243366
944.162 .0243332
944.793 .0243292
945.423 .0243234
946.053 .0243153
946.683 .0243047
947.313 .0242918
947.942 .0242772
948.571 .0242618
949.199 .0242471
949.827 .0242332
950.455 .0242210
951.082 .0242099
951.709 .0242001
952.335 .0241903
952.961 .0241792
953.587 .0241671
954.212 .0241532
954.837 .0241381
955.462 .0241225
956.086 .0241065
956.710 .0240917
957.334 .0240775
957.957 .0240649
958.579 .0240529
959.202 .0240420
959.824 .0240304
960.445 .0240183
961.067 .0240055
961.688 .0239920
962.308 .0239779
962.928 .0239640
963.548 .0239504
964.168 .0239376
964.787 .0239257
965.406 .0239144
966.024 .0239037
966.642 .0238945
967.260 .0238859
967.877 .0238784
968.494 .0238718
969.110 .0238661
969.727 .0238606
970.342 .0238557
970.958 .0238514
971.573 .0238473
972.188 .0238437
972.802 .0238401
973.416 .0238367
974.030 .0238332
974.643 .0238298
975.256 .0238266
975.869 .0238235
976.481 .0238204
977.093 .0238168
977.705 .0238133
978.316 .0238101
978.927 .0238074
979.538 .0238054
980.148 .0238041
980.758 .0238032
981.367 .0238022
981.977 .0238006
982.586 .0237983
983.194 .0237946
983.802 .0237901
984.410 .0237848
985.018 .0237792
985.625 .0237736
986.232 .0237692
986.838 .0237664
987.445 .0237651
988.050 .0237648
988.656 .0237650
989.261 .0237655
989.866 .0237654
990.471 .0237638
991.075 .0237616
991.679 .0237588
992.282 .0237559
992.886 .0237532
993.489 .0237514
994.091 .0237506
994.694 .0237515
995.296 .0237535
995.897 .0237565
996.499 .0237596
997.100 .0237619
997.701 .0237633
998.301 .0237636
998.901 .0237633
999.501 .0237618
1000.101 .0237602
1000.700 .0237598
1001.299 .0237603
1001.898 .0237614
1002.496 .0237631
1003.094 .0237654
1003.692 .0237677
1004.289 .0237698
1004.887 .0237705
1005.484 .0237699
1006.080 .0237678
1006.677 .0237638
1007.273 .0237588
1007.868 .0237527
1008.464 .0237467
1009.059 .0237400
1009.654 .0237340
1010.249 .0237286
1010.843 .0237229
1011.437 .0237175
1012.031 .0237116
1012.625 .0237055
1013.218 .0236985
1013.811 .0236912
1014.404 .0236842
1014.997 .0236785
1015.589 .0236740
1016.181 .0236708
1016.773 .0236682
1017.365 .0236670
1017.956 .0236655
1018.547 .0236630
1019.138 .0236598
1019.728 .0236551
1020.319 .0236492
1020.909 .0236429
1021.499 .0236362
1022.088 .0236304
1022.678 .0236247
1023.267 .0236208
1023.856 .0236180
1024.445 .0236169
1025.033 .0236172
1025.621 .0236192
1026.209 .0236227
1026.797 .0236289
1027.385 .0236361
1027.972 .0236454
1028.560 .0236565
1029.147 .0236694
1029.734 .0236834
1030.320 .0236976
1030.907 .0237129
1031.493 .0237274
1032.079 .0237406
1032.665 .0237531
1033.250 .0237630
1033.836 .0237707
1034.421 .0237747
1035.006 .0237750
1035.591 .0237715
1036.176 .0237661
1036.761 .0237588
1037.345 .0237497
1037.929 .0237403
1038.514 .0237304
1039.097 .0237197
1039.681 .0237080
1040.265 .0236966
1040.848 .0236835
1041.432 .0236707
1042.015 .0236578
1042.598 .0236441
1043.181 .0236311
1043.764 .0236183
1044.346 .0236057
1044.929 .0235940
1045.511 .0235820
1046.094 .0235689
1046.676 .0235551
1047.258 .0235426
1047.840 .0235292
1048.422 .0235163
1049.003 .0235029
1049.585 .0234902
1050.166 .0234782
1050.748 .0234676
1051.329 .0234586
1051.910 .0234535
1052.491 .0234528
1053.072 .0234557
1053.653 .0234620
1054.234 .0234721
1054.815 .0234818
1055.396 .0234913
1055.976 .0234990
1056.557 .0235034
1057.138 .0235040
1057.718 .0235027
1058.298 .0234997
1058.879 .0234977
1059.459 .0234960
1060.039 .0234943
1060.620 .0234915
1061.200 .0234878
1061.780 .0234806
1062.360 .0234681
1062.940 .0234537
1063.520 .0234370
1064.101 .0234190
1064.681 .0234036
1065.261 .0233906
1065.841 .0233816
1066.421 .0233766
1067.001 .0233732
1067.581 .0233715
1068.161 .0233699
1068.741 .0233656
1069.321 .0233571
1069.901 .0233468
1070.482 .0233339
1071.062 .0233182
1071.642 .0233029
1072.222 .0232902
1072.803 .0232787
1073.383 .0232716
1073.963 .0232661
1074.544 .0232627
1075.124 .0232604
1075.705 .0232564
1076.286 .0232504
1076.866 .0232420
1077.447 .0232298
1078.028 .0232142
1078.609 .0231984
1079.190 .0231862
1079.771 .0231763
1080.352 .0231711
1080.934 .0231694
1081.515 .0231697
1082.097 .0231705
1082.679 .0231676
1083.260 .0231596
1083.842 .0231484
1084.424 .0231322
1085.007 .0231138
1085.589 .0230964
1086.172 .0230827
1086.754 .0230763
1087.337 .0230785
1087.920 .0230904
1088.503 .0231075
1089.087 .0231296
1089.670 .0231528
1090.254 .0231751
1090.838 .0231981
1091.422 .0232193
1092.006 .0232387
1092.590 .0232582
1093.175 .0232768
1093.760 .0232932
1094.345 .0233073
1094.930 .0233168
1095.516 .0233207
1096.102 .0233215
1096.688 .0233152
1097.274 .0233057
1097.860 .0232943
1098.447 .0232821
1099.034 .0232678
1099.622 .0232506
1100.209 .0232322
1100.797 .0232064
1101.385 .0231756
1101.973 .0231411
1102.562 .0231036
1103.151 .0230664
1103.740 .0230295
1104.330 .0229948
1104.920 .0229638
1105.510 .0229353
1106.101 .0229063
1106.691 .0228774
1107.283 .0228492
1107.874 .0228207
1108.466 .0227916
1109.058 .0227651
1109.651 .0227448
1110.244 .0227285
1110.837 .0227201
1111.431 .0227180
1112.025 .0227192
1112.620 .0227239
1113.215 .0227289
1113.810 .0227361
1114.406 .0227466
1115.002 .0227624
1115.599 .0227834
1116.196 .0228078
1116.793 .0228399
1117.391 .0228738
1117.989 .0229075
1118.588 .0229412
1119.187 .0229684
1119.787 .0229868
1120.387 .0229974
1120.988 .0229972
1121.589 .0229895
1122.190 .0229776
1122.793 .0229605
1123.395 .0229404
1123.998 .0229193
1124.602 .0228992
1125.206 .0228813
1125.811 .0228719
1126.416 .0228725
1127.022 .0228815
1127.628 .0229007
1128.235 .0229265
1128.843 .0229594
1129.451 .0229970
1130.059 .0230355
1130.669 .0230735
1131.278 .0231156
1131.889 .0231593
1132.500 .0232083
1133.112 .0232712
1133.724 .0233464
1134.337 .0234355
1134.950 .0235350
1135.564 .0236367
1136.179 .0237350
1136.795 .0238245
1137.411 .0238987
1138.028 .0239519
1138.645 .0239922
1139.263 .0240313
1139.882 .0240657
1140.502 .0241132
1141.122 .0241607
1141.743 .0242177
1142.365 .0242822
1142.987 .0244487
1143.611 .0246029
1144.235 .0242918
1144.859 .0244433
1145.485 .0245927
