Measurement Sequence started on: 10-20-44-796
Integration time: 35
Scans to Average: 2 
>>>>>Begin Spectral Data<<<<<
432.953 .0443707
433.882 .0403197
434.810 .0391619
435.737 .0338026
436.662 .0324346
437.586 .0340535
438.509 .0331872
439.431 .0326456
440.351 .0322800
441.269 .0321079
442.187 .0319715
443.103 .0318520
444.018 .0317305
444.932 .0316587
445.844 .0316305
446.756 .0316304
447.666 .0316548
448.575 .0316850
449.482 .0317144
450.388 .0317207
451.294 .0317109
452.198 .0316812
453.100 .0316398
454.002 .0315952
454.902 .0315603
455.801 .0315348
456.699 .0315413
457.596 .0315657
458.492 .0316065
459.387 .0316518
460.280 .0317071
461.172 .0317545
462.064 .0317964
462.954 .0318220
463.843 .0318385
464.730 .0318511
465.617 .0318665
466.503 .0318860
467.387 .0319174
468.271 .0319584
469.153 .0320079
470.035 .0320537
470.915 .0320952
471.794 .0321203
472.673 .0321364
473.550 .0321377
474.426 .0321320
475.301 .0321172
476.175 .0321008
477.048 .0320810
477.920 .0320622
478.791 .0320399
479.661 .0320131
480.530 .0319816
481.398 .0319443
482.266 .0319020
483.132 .0318598
483.997 .0318200
484.861 .0317903
485.724 .0317692
486.587 .0317596
487.448 .0317543
488.308 .0317544
489.168 .0317522
490.026 .0317500
490.884 .0317426
491.741 .0317295
492.597 .0317110
493.452 .0316883
494.306 .0316610
495.159 .0316295
496.011 .0315936
496.862 .0315527
497.713 .0315029
498.562 .0314428
499.411 .0313686
500.259 .0312842
501.106 .0311887
501.952 .0310892
502.798 .0309851
503.642 .0308820
504.486 .0307787
505.329 .0306779
506.171 .0305803
507.012 .0304867
507.852 .0303978
508.692 .0303108
509.531 .0302294
510.369 .0301537
511.206 .0300819
512.043 .0300137
512.878 .0299456
513.713 .0298743
514.547 .0297968
515.381 .0297143
516.213 .0296190
517.045 .0295141
517.876 .0294030
518.706 .0292857
519.536 .0291676
520.365 .0290504
521.193 .0289330
522.020 .0288173
522.847 .0286988
523.673 .0285666
524.498 .0284145
525.323 .0282426
526.146 .0280551
526.969 .0278527
527.792 .0276367
528.614 .0274176
529.435 .0271992
530.255 .0269965
531.075 .0268044
531.894 .0266322
532.712 .0264732
533.530 .0263166
534.347 .0261636
535.163 .0260064
535.979 .0258499
536.794 .0257049
537.608 .0255737
538.422 .0254698
539.235 .0253922
540.048 .0253481
540.860 .0253374
541.671 .0253673
542.481 .0254264
543.292 .0255002
544.101 .0255786
544.910 .0256588
545.718 .0257284
546.526 .0257954
547.333 .0258582
548.139 .0259212
548.945 .0259889
549.750 .0260595
550.555 .0261376
551.359 .0262283
552.162 .0263220
552.965 .0264186
553.768 .0265096
554.569 .0265924
555.371 .0266579
556.171 .0267098
556.972 .0267500
557.771 .0267795
558.570 .0268037
559.369 .0268289
560.167 .0268554
560.964 .0268923
561.761 .0269383
562.558 .0269962
563.354 .0270647
564.149 .0271373
564.944 .0272121
565.738 .0272876
566.532 .0273617
567.325 .0274324
568.118 .0275014
568.910 .0275756
569.702 .0276536
570.494 .0277416
571.285 .0278376
572.075 .0279448
572.865 .0280583
573.654 .0281763
574.443 .0282946
575.232 .0284111
576.020 .0285239
576.807 .0286288
577.594 .0287273
578.381 .0288206
579.167 .0289069
579.952 .0289926
580.738 .0290769
581.522 .0291631
582.307 .0292478
583.091 .0293320
583.874 .0294127
584.657 .0294898
585.440 .0295603
586.222 .0296223
587.004 .0296765
587.785 .0297250
588.566 .0297677
589.346 .0298069
590.126 .0298452
590.906 .0298812
591.685 .0299143
592.464 .0299449
593.242 .0299704
594.020 .0299907
594.797 .0300062
595.575 .0300160
596.351 .0300214
597.128 .0300240
597.904 .0300243
598.679 .0300224
599.454 .0300213
600.229 .0300193
601.004 .0300161
601.778 .0300116
602.551 .0300061
603.325 .0299985
604.097 .0299911
604.870 .0299835
605.642 .0299773
606.414 .0299729
607.185 .0299703
607.956 .0299686
608.727 .0299686
609.497 .0299686
610.267 .0299684
611.037 .0299667
611.806 .0299648
612.575 .0299610
613.344 .0299565
614.112 .0299509
614.880 .0299447
615.647 .0299373
616.414 .0299289
617.181 .0299188
617.948 .0299080
618.714 .0298962
619.480 .0298848
620.245 .0298736
621.011 .0298633
621.775 .0298539
622.540 .0298460
623.304 .0298394
624.068 .0298338
624.832 .0298281
625.595 .0298225
626.358 .0298163
627.120 .0298095
627.883 .0298022
628.645 .0297945
629.406 .0297870
630.168 .0297803
630.929 .0297740
631.689 .0297682
632.450 .0297628
633.210 .0297571
633.970 .0297504
634.729 .0297422
635.489 .0297317
636.248 .0297182
637.006 .0297027
637.765 .0296852
638.523 .0296666
639.280 .0296483
640.038 .0296309
640.795 .0296151
641.552 .0296020
642.309 .0295904
643.065 .0295803
643.821 .0295713
644.577 .0295625
645.332 .0295531
646.088 .0295444
646.843 .0295357
647.597 .0295281
648.352 .0295223
649.106 .0295191
649.860 .0295177
650.613 .0295191
651.367 .0295219
652.120 .0295253
652.872 .0295295
653.625 .0295333
654.377 .0295355
655.129 .0295370
655.881 .0295372
656.632 .0295362
657.384 .0295334
658.135 .0295296
658.885 .0295240
659.636 .0295178
660.386 .0295107
661.136 .0295030
661.885 .0294948
662.635 .0294870
663.384 .0294792
664.133 .0294713
664.881 .0294632
665.630 .0294543
666.378 .0294450
667.126 .0294354
667.874 .0294247
668.621 .0294133
669.368 .0294013
670.115 .0293894
670.862 .0293767
671.608 .0293637
672.354 .0293504
673.100 .0293368
673.846 .0293233
674.591 .0293092
675.337 .0292953
676.082 .0292824
676.826 .0292702
677.571 .0292589
678.315 .0292483
679.059 .0292386
679.803 .0292296
680.547 .0292213
681.290 .0292134
682.033 .0292053
682.776 .0291971
683.518 .0291882
684.261 .0291785
685.003 .0291678
685.745 .0291565
686.487 .0291441
687.228 .0291310
687.969 .0291168
688.710 .0291011
689.451 .0290845
690.192 .0290667
690.932 .0290479
691.672 .0290284
692.412 .0290081
693.152 .0289875
693.891 .0289669
694.630 .0289469
695.369 .0289277
696.108 .0289097
696.846 .0288928
697.585 .0288767
698.323 .0288616
699.061 .0288465
699.798 .0288316
700.536 .0288171
701.273 .0288033
702.010 .0287902
702.746 .0287782
703.483 .0287677
704.219 .0287583
704.955 .0287501
705.691 .0287423
706.427 .0287348
707.162 .0287271
707.897 .0287186
708.632 .0287099
709.367 .0287012
710.101 .0286924
710.835 .0286839
711.569 .0286757
712.303 .0286675
713.037 .0286590
713.770 .0286496
714.503 .0286390
715.236 .0286274
715.969 .0286145
716.702 .0286005
717.434 .0285861
718.166 .0285718
718.898 .0285572
719.629 .0285426
720.361 .0285284
721.092 .0285140
721.823 .0284989
722.554 .0284829
723.284 .0284658
724.014 .0284480
724.744 .0284291
725.474 .0284095
726.204 .0283899
726.933 .0283705
727.662 .0283511
728.391 .0283324
729.120 .0283138
729.849 .0282958
730.577 .0282781
731.305 .0282604
732.033 .0282423
732.760 .0282234
733.488 .0282038
734.215 .0281837
734.942 .0281632
735.669 .0281421
736.395 .0281206
737.122 .0280996
737.848 .0280785
738.573 .0280575
739.299 .0280369
740.024 .0280168
740.750 .0279970
741.474 .0279775
742.199 .0279579
742.924 .0279384
743.648 .0279196
744.372 .0279012
745.096 .0278835
745.819 .0278663
746.543 .0278499
747.266 .0278347
747.989 .0278209
748.711 .0278089
749.434 .0277978
750.156 .0277880
750.878 .0277790
751.599 .0277703
752.321 .0277613
753.042 .0277521
753.763 .0277421
754.484 .0277316
755.205 .0277205
755.925 .0277091
756.645 .0276976
757.365 .0276868
758.085 .0276764
758.804 .0276659
759.523 .0276548
760.242 .0276426
760.961 .0276284
761.679 .0276124
762.397 .0275938
763.115 .0275733
763.833 .0275513
764.551 .0275283
765.268 .0275045
765.985 .0274810
766.702 .0274575
767.418 .0274339
768.134 .0274097
768.850 .0273855
769.566 .0273606
770.282 .0273352
770.997 .0273095
771.712 .0272843
772.427 .0272599
773.142 .0272362
773.856 .0272133
774.570 .0271918
775.284 .0271707
775.998 .0271497
776.711 .0271284
777.424 .0271065
778.137 .0270843
778.849 .0270617
779.562 .0270394
780.274 .0270174
780.986 .0269965
781.697 .0269765
782.409 .0269580
783.120 .0269410
783.831 .0269257
784.541 .0269113
785.252 .0268983
785.962 .0268863
786.671 .0268748
787.381 .0268644
788.090 .0268550
788.799 .0268463
789.508 .0268379
790.217 .0268297
790.925 .0268220
791.633 .0268136
792.341 .0268051
793.048 .0267951
793.755 .0267839
794.462 .0267713
795.169 .0267568
795.875 .0267412
796.581 .0267249
797.287 .0267083
797.993 .0266913
798.698 .0266743
799.403 .0266573
800.108 .0266401
800.812 .0266230
801.517 .0266059
802.221 .0265885
802.924 .0265703
803.628 .0265523
804.331 .0265345
805.034 .0265174
805.736 .0265010
806.439 .0264849
807.141 .0264698
807.843 .0264552
808.544 .0264411
809.245 .0264270
809.946 .0264136
810.647 .0264006
811.347 .0263875
812.047 .0263746
812.747 .0263623
813.447 .0263503
814.146 .0263390
814.845 .0263283
815.543 .0263179
816.242 .0263076
816.940 .0262974
817.638 .0262868
818.335 .0262762
819.032 .0262650
819.729 .0262534
820.426 .0262410
821.122 .0262280
821.818 .0262142
822.514 .0261998
823.209 .0261851
823.905 .0261701
824.599 .0261543
825.294 .0261379
825.988 .0261206
826.682 .0261025
827.376 .0260838
828.069 .0260642
828.762 .0260442
829.455 .0260240
830.147 .0260034
830.840 .0259830
831.531 .0259629
832.223 .0259436
832.914 .0259252
833.605 .0259077
834.296 .0258910
834.986 .0258750
835.676 .0258596
836.366 .0258447
837.055 .0258298
837.744 .0258145
838.433 .0257988
839.121 .0257826
839.809 .0257662
840.497 .0257496
841.185 .0257333
841.872 .0257179
842.559 .0257037
843.245 .0256905
843.932 .0256779
844.617 .0256658
845.303 .0256538
845.988 .0256418
846.673 .0256294
847.358 .0256167
848.042 .0256036
848.726 .0255906
849.410 .0255783
850.093 .0255662
850.776 .0255544
851.459 .0255429
852.141 .0255310
852.823 .0255186
853.505 .0255050
854.186 .0254902
854.867 .0254742
855.548 .0254573
856.228 .0254395
856.908 .0254215
857.588 .0254037
858.267 .0253865
858.946 .0253696
859.625 .0253535
860.303 .0253375
860.981 .0253219
861.659 .0253067
862.336 .0252917
863.013 .0252772
863.690 .0252633
864.366 .0252498
865.042 .0252369
865.718 .0252245
866.393 .0252125
867.068 .0252007
867.743 .0251893
868.417 .0251776
869.091 .0251655
869.765 .0251527
870.438 .0251395
871.111 .0251256
871.783 .0251113
872.456 .0250962
873.127 .0250804
873.799 .0250639
874.470 .0250466
875.141 .0250288
875.811 .0250107
876.481 .0249921
877.151 .0249733
877.820 .0249541
878.489 .0249346
879.158 .0249146
879.826 .0248946
880.494 .0248747
881.162 .0248550
881.829 .0248357
882.496 .0248169
883.163 .0247990
883.829 .0247822
884.495 .0247668
885.160 .0247531
885.825 .0247413
886.490 .0247310
887.154 .0247223
887.818 .0247151
888.482 .0247091
889.145 .0247038
889.808 .0246988
890.471 .0246938
891.133 .0246887
891.795 .0246831
892.456 .0246771
893.117 .0246711
893.778 .0246652
894.439 .0246592
895.099 .0246527
895.758 .0246454
896.417 .0246371
897.076 .0246276
897.735 .0246172
898.393 .0246053
899.051 .0245923
899.708 .0245782
900.365 .0245634
901.022 .0245482
901.678 .0245329
902.334 .0245180
902.990 .0245034
903.645 .0244893
904.300 .0244760
904.954 .0244633
905.608 .0244513
906.262 .0244404
906.915 .0244305
907.568 .0244210
908.221 .0244120
908.873 .0244028
909.525 .0243941
910.176 .0243855
910.828 .0243773
911.478 .0243695
912.129 .0243620
912.778 .0243554
913.428 .0243488
914.077 .0243425
914.726 .0243364
915.375 .0243301
916.023 .0243236
916.670 .0243171
917.318 .0243108
917.964 .0243048
918.611 .0242997
919.257 .0242955
919.903 .0242924
920.548 .0242899
921.193 .0242879
921.838 .0242859
922.482 .0242837
923.126 .0242812
923.770 .0242781
924.413 .0242748
925.056 .0242709
925.698 .0242664
926.340 .0242613
926.982 .0242553
927.623 .0242484
928.264 .0242400
928.904 .0242304
929.544 .0242193
930.184 .0242065
930.823 .0241923
931.462 .0241769
932.101 .0241607
932.739 .0241438
933.377 .0241265
934.014 .0241089
934.651 .0240914
935.288 .0240743
935.924 .0240581
936.560 .0240430
937.196 .0240293
937.831 .0240165
938.466 .0240046
939.100 .0239933
939.734 .0239825
940.368 .0239717
941.001 .0239611
941.634 .0239505
942.266 .0239396
942.899 .0239284
943.530 .0239172
944.162 .0239054
944.793 .0238929
945.423 .0238795
946.053 .0238646
946.683 .0238476
947.313 .0238288
947.942 .0238079
948.571 .0237853
949.199 .0237614
949.827 .0237367
950.455 .0237116
951.082 .0236874
951.709 .0236640
952.335 .0236418
952.961 .0236214
953.587 .0236022
954.212 .0235839
954.837 .0235669
955.462 .0235504
956.086 .0235347
956.710 .0235198
957.334 .0235060
957.957 .0234930
958.579 .0234808
959.202 .0234693
959.824 .0234583
960.445 .0234479
961.067 .0234377
961.688 .0234277
962.308 .0234182
962.928 .0234088
963.548 .0233992
964.168 .0233893
964.787 .0233793
965.406 .0233691
966.024 .0233593
966.642 .0233497
967.260 .0233407
967.877 .0233326
968.494 .0233254
969.110 .0233192
969.727 .0233138
970.342 .0233091
970.958 .0233050
971.573 .0233010
972.188 .0232971
972.802 .0232935
973.416 .0232905
974.030 .0232884
974.643 .0232871
975.256 .0232865
975.869 .0232862
976.481 .0232860
977.093 .0232859
977.705 .0232854
978.316 .0232849
978.927 .0232840
979.538 .0232827
980.148 .0232819
980.758 .0232808
981.367 .0232798
981.977 .0232787
982.586 .0232775
983.194 .0232758
983.802 .0232737
984.410 .0232710
985.018 .0232685
985.625 .0232664
986.232 .0232649
986.838 .0232638
987.445 .0232631
988.050 .0232628
988.656 .0232621
989.261 .0232612
989.866 .0232592
990.471 .0232558
991.075 .0232520
991.679 .0232473
992.282 .0232423
992.886 .0232370
993.489 .0232321
994.091 .0232275
994.694 .0232235
995.296 .0232200
995.897 .0232163
996.499 .0232121
997.100 .0232078
997.701 .0232026
998.301 .0231967
998.901 .0231910
999.501 .0231861
1000.101 .0231826
1000.700 .0231808
1001.299 .0231803
1001.898 .0231811
1002.496 .0231831
1003.094 .0231851
1003.692 .0231865
1004.289 .0231869
1004.887 .0231867
1005.484 .0231854
1006.080 .0231840
1006.677 .0231830
1007.273 .0231826
1007.868 .0231830
1008.464 .0231847
1009.059 .0231870
1009.654 .0231895
1010.249 .0231913
1010.843 .0231931
1011.437 .0231942
1012.031 .0231946
1012.625 .0231941
1013.218 .0231930
1013.811 .0231921
1014.404 .0231916
1014.997 .0231904
1015.589 .0231893
1016.181 .0231888
1016.773 .0231890
1017.365 .0231896
1017.956 .0231912
1018.547 .0231931
1019.138 .0231953
1019.728 .0231976
1020.319 .0231994
1020.909 .0232003
1021.499 .0232007
1022.088 .0232008
1022.678 .0232009
1023.267 .0232016
1023.856 .0232033
1024.445 .0232057
1025.033 .0232089
1025.621 .0232118
1026.209 .0232134
1026.797 .0232126
1027.385 .0232093
1027.972 .0232041
1028.560 .0231971
1029.147 .0231892
1029.734 .0231820
1030.320 .0231773
1030.907 .0231752
1031.493 .0231762
1032.079 .0231794
1032.665 .0231840
1033.250 .0231894
1033.836 .0231943
1034.421 .0231976
1035.006 .0232004
1035.591 .0232023
1036.176 .0232037
1036.761 .0232051
1037.345 .0232075
1037.929 .0232102
1038.514 .0232139
1039.097 .0232179
1039.681 .0232213
1040.265 .0232233
1040.848 .0232242
1041.432 .0232230
1042.015 .0232199
1042.598 .0232152
1043.181 .0232088
1043.764 .0232013
1044.346 .0231939
1044.929 .0231859
1045.511 .0231780
1046.094 .0231705
1046.676 .0231630
1047.258 .0231544
1047.840 .0231449
1048.422 .0231348
1049.003 .0231234
1049.585 .0231118
1050.166 .0231005
1050.748 .0230895
1051.329 .0230798
1051.910 .0230720
1052.491 .0230653
1053.072 .0230603
1053.653 .0230558
1054.234 .0230520
1054.815 .0230480
1055.396 .0230450
1055.976 .0230429
1056.557 .0230427
1057.138 .0230458
1057.718 .0230521
1058.298 .0230604
1058.879 .0230711
1059.459 .0230815
1060.039 .0230911
1060.620 .0230972
1061.200 .0230998
1061.780 .0230979
1062.360 .0230929
1062.940 .0230866
1063.520 .0230798
1064.101 .0230729
1064.681 .0230673
1065.261 .0230628
1065.841 .0230579
1066.421 .0230519
1067.001 .0230441
1067.581 .0230339
1068.161 .0230212
1068.741 .0230070
1069.321 .0229925
1069.901 .0229793
1070.482 .0229691
1071.062 .0229602
1071.642 .0229533
1072.222 .0229489
1072.803 .0229436
1073.383 .0229387
1073.963 .0229335
1074.544 .0229291
1075.124 .0229243
1075.705 .0229203
1076.286 .0229169
1076.866 .0229143
1077.447 .0229114
1078.028 .0229076
1078.609 .0229027
1079.190 .0228978
1079.771 .0228910
1080.352 .0228828
1080.934 .0228761
1081.515 .0228721
1082.097 .0228702
1082.679 .0228721
1083.260 .0228744
1083.842 .0228788
1084.424 .0228819
1085.007 .0228835
1085.589 .0228830
1086.172 .0228806
1086.754 .0228766
1087.337 .0228712
1087.920 .0228666
1088.503 .0228617
1089.087 .0228564
1089.670 .0228519
1090.254 .0228461
1090.838 .0228382
1091.422 .0228277
1092.006 .0228131
1092.590 .0227968
1093.175 .0227812
1093.760 .0227644
1094.345 .0227482
1094.930 .0227346
1095.516 .0227239
1096.102 .0227156
1096.688 .0227090
1097.274 .0227045
1097.860 .0226997
1098.447 .0226949
1099.034 .0226888
1099.622 .0226810
1100.209 .0226740
1100.797 .0226672
1101.385 .0226595
1101.973 .0226525
1102.562 .0226448
1103.151 .0226353
1103.740 .0226240
1104.330 .0226118
1104.920 .0225979
1105.510 .0225798
1106.101 .0225617
1106.691 .0225418
1107.283 .0225239
1107.874 .0225072
1108.466 .0224913
1109.058 .0224774
1109.651 .0224641
1110.244 .0224520
1110.837 .0224393
1111.431 .0224263
1112.025 .0224127
1112.620 .0223971
1113.215 .0223813
1113.810 .0223635
1114.406 .0223471
1115.002 .0223308
1115.599 .0223183
1116.196 .0223076
1116.793 .0222985
1117.391 .0222899
1117.989 .0222836
1118.588 .0222791
1119.187 .0222750
1119.787 .0222727
1120.387 .0222676
1120.988 .0222627
1121.589 .0222603
1122.190 .0222560
1122.793 .0222551
1123.395 .0222552
1123.998 .0222615
1124.602 .0222705
1125.206 .0222856
1125.811 .0223052
1126.416 .0223273
1127.022 .0223553
1127.628 .0223839
1128.235 .0224111
1128.843 .0224396
1129.451 .0224645
1130.059 .0224898
1130.669 .0225178
1131.278 .0225480
1131.889 .0225772
1132.500 .0226126
1133.112 .0226514
1133.724 .0226925
1134.337 .0227344
1134.950 .0227749
1135.564 .0228154
1136.179 .0228565
1136.795 .0228984
1137.411 .0229405
1138.028 .0229865
1138.645 .0230412
1139.263 .0230997
1139.882 .0231610
1140.502 .0232304
1141.122 .0233074
1141.743 .0233991
1142.365 .0234857
1142.987 .0234424
1143.611 .0237047
1144.235 .0238204
1144.859 .0240998
1145.485 .0237813
