Measurement Sequence started on: 10-20-44-796
Integration time: 35
Scans to Average: 2 
>>>>>Begin Spectral Data<<<<<
432.953 .0443254
433.882 .0457176
434.810 .0422137
435.737 .0412213
436.662 .0405843
437.586 .0406437
438.509 .0401840
439.431 .0397931
440.351 .0395506
441.269 .0393416
442.187 .0391362
443.103 .0389466
444.018 .0387294
444.932 .0385297
445.844 .0383568
446.756 .0382288
447.666 .0381368
448.575 .0380719
449.482 .0380255
450.388 .0379852
451.294 .0379315
452.198 .0378606
453.100 .0377751
454.002 .0376909
454.902 .0375998
455.801 .0375209
456.699 .0374666
457.596 .0374322
458.492 .0374150
459.387 .0374079
460.280 .0374082
461.172 .0374023
462.064 .0373894
462.954 .0373627
463.843 .0373159
464.730 .0372592
465.617 .0371959
466.503 .0371337
467.387 .0370775
468.271 .0370255
469.153 .0369798
470.035 .0369343
470.915 .0368968
471.794 .0368565
472.673 .0368138
473.550 .0367759
474.426 .0367396
475.301 .0367050
476.175 .0366733
477.048 .0366425
477.920 .0366155
478.791 .0365898
479.661 .0365612
480.530 .0365264
481.398 .0364876
482.266 .0364484
483.132 .0364083
483.997 .0363693
484.861 .0363398
485.724 .0363180
486.587 .0363022
487.448 .0362877
488.308 .0362666
489.168 .0362397
490.026 .0361998
490.884 .0361501
491.741 .0360896
492.597 .0360226
493.452 .0359564
494.306 .0358918
495.159 .0358338
496.011 .0357802
496.862 .0357271
497.713 .0356701
498.562 .0356059
499.411 .0355311
500.259 .0354407
501.106 .0353418
501.952 .0352394
502.798 .0351374
503.642 .0350406
504.486 .0349536
505.329 .0348759
506.171 .0348081
507.012 .0347465
507.852 .0346836
508.692 .0346193
509.531 .0345496
510.369 .0344736
511.206 .0343940
512.043 .0343141
512.878 .0342316
513.713 .0341480
514.547 .0340668
515.381 .0339818
516.213 .0338933
517.045 .0337954
517.876 .0336847
518.706 .0335667
519.536 .0334424
520.365 .0333145
521.193 .0331879
522.020 .0330650
522.847 .0329464
523.673 .0328277
524.498 .0327056
525.323 .0325771
526.146 .0324476
526.969 .0323217
527.792 .0321920
528.614 .0320608
529.435 .0319420
530.255 .0318346
531.075 .0317439
531.894 .0316604
532.712 .0315744
533.530 .0314768
534.347 .0313553
535.163 .0312013
535.979 .0310202
536.794 .0308260
537.608 .0306274
538.422 .0304404
539.235 .0302773
540.048 .0301378
540.860 .0300276
541.671 .0299510
542.481 .0298968
543.292 .0298522
544.101 .0298153
544.910 .0297856
545.718 .0297661
546.526 .0297664
547.333 .0297846
548.139 .0298314
548.945 .0299064
549.750 .0300010
550.555 .0301022
551.359 .0302123
552.162 .0303195
552.965 .0304176
553.768 .0304984
554.569 .0305643
555.371 .0306147
556.171 .0306533
556.972 .0306863
557.771 .0307201
558.570 .0307529
559.369 .0307935
560.167 .0308316
560.964 .0308753
561.761 .0309204
562.558 .0309664
563.354 .0310172
564.149 .0310727
564.944 .0311343
565.738 .0312017
566.532 .0312730
567.325 .0313526
568.118 .0314317
568.910 .0315127
569.702 .0315954
570.494 .0316777
571.285 .0317591
572.075 .0318392
572.865 .0319156
573.654 .0319902
574.443 .0320582
575.232 .0321187
576.020 .0321712
576.807 .0322168
577.594 .0322587
578.381 .0322941
579.167 .0323286
579.952 .0323639
580.738 .0324000
581.522 .0324383
582.307 .0324765
583.091 .0325162
583.874 .0325558
584.657 .0325927
585.440 .0326293
586.222 .0326638
587.004 .0326975
587.785 .0327310
588.566 .0327634
589.346 .0327925
590.126 .0328183
590.906 .0328388
591.685 .0328541
592.464 .0328627
593.242 .0328668
594.020 .0328661
594.797 .0328630
595.575 .0328576
596.351 .0328500
597.128 .0328409
597.904 .0328311
598.679 .0328183
599.454 .0328029
600.229 .0327853
601.004 .0327661
601.778 .0327439
602.551 .0327218
603.325 .0326997
604.097 .0326785
604.870 .0326583
605.642 .0326403
606.414 .0326223
607.185 .0326052
607.956 .0325883
608.727 .0325715
609.497 .0325550
610.267 .0325381
611.037 .0325193
611.806 .0325005
612.575 .0324812
613.344 .0324609
614.112 .0324388
614.880 .0324173
615.647 .0323952
616.414 .0323732
617.181 .0323519
617.948 .0323319
618.714 .0323130
619.480 .0322960
620.245 .0322786
621.011 .0322613
621.775 .0322434
622.540 .0322244
623.304 .0322052
624.068 .0321864
624.832 .0321682
625.595 .0321513
626.358 .0321360
627.120 .0321221
627.883 .0321082
628.645 .0320942
629.406 .0320784
630.168 .0320603
630.929 .0320398
631.689 .0320165
632.450 .0319912
633.210 .0319656
633.970 .0319398
634.729 .0319149
635.489 .0318913
636.248 .0318686
637.006 .0318466
637.765 .0318246
638.523 .0318016
639.280 .0317780
640.038 .0317546
640.795 .0317321
641.552 .0317100
642.309 .0316905
643.065 .0316734
643.821 .0316583
644.577 .0316453
645.332 .0316333
646.088 .0316217
646.843 .0316098
647.597 .0315962
648.352 .0315808
649.106 .0315642
649.860 .0315468
650.613 .0315281
651.367 .0315089
652.120 .0314897
652.872 .0314697
653.625 .0314498
654.377 .0314305
655.129 .0314118
655.881 .0313939
656.632 .0313771
657.384 .0313612
658.135 .0313458
658.885 .0313313
659.636 .0313171
660.386 .0313038
661.136 .0312906
661.885 .0312775
662.635 .0312648
663.384 .0312529
664.133 .0312422
664.881 .0312321
665.630 .0312227
666.378 .0312140
667.126 .0312045
667.874 .0311932
668.621 .0311793
669.368 .0311626
670.115 .0311424
670.862 .0311194
671.608 .0310946
672.354 .0310694
673.100 .0310449
673.846 .0310226
674.591 .0310020
675.337 .0309833
676.082 .0309665
676.826 .0309503
677.571 .0309341
678.315 .0309170
679.059 .0308989
679.803 .0308802
680.547 .0308615
681.290 .0308431
682.033 .0308248
682.776 .0308079
683.518 .0307918
684.261 .0307758
685.003 .0307594
685.745 .0307419
686.487 .0307231
687.228 .0307024
687.969 .0306802
688.710 .0306562
689.451 .0306308
690.192 .0306049
690.932 .0305786
691.672 .0305527
692.412 .0305272
693.152 .0305022
693.891 .0304780
694.630 .0304543
695.369 .0304307
696.108 .0304072
696.846 .0303837
697.585 .0303604
698.323 .0303364
699.061 .0303120
699.798 .0302876
700.536 .0302627
701.273 .0302375
702.010 .0302126
702.746 .0301877
703.483 .0301630
704.219 .0301380
704.955 .0301132
705.691 .0300883
706.427 .0300638
707.162 .0300396
707.897 .0300161
708.632 .0299933
709.367 .0299713
710.101 .0299496
710.835 .0299289
711.569 .0299091
712.303 .0298900
713.037 .0298718
713.770 .0298540
714.503 .0298361
715.236 .0298183
715.969 .0298004
716.702 .0297825
717.434 .0297645
718.166 .0297461
718.898 .0297270
719.629 .0297075
720.361 .0296881
721.092 .0296683
721.823 .0296489
722.554 .0296294
723.284 .0296097
724.014 .0295891
724.744 .0295675
725.474 .0295453
726.204 .0295226
726.933 .0295001
727.662 .0294770
728.391 .0294543
729.120 .0294326
729.849 .0294114
730.577 .0293914
731.305 .0293722
732.033 .0293539
732.760 .0293352
733.488 .0293163
734.215 .0292967
734.942 .0292766
735.669 .0292565
736.395 .0292369
737.122 .0292177
737.848 .0291993
738.573 .0291820
739.299 .0291656
740.024 .0291502
740.750 .0291355
741.474 .0291202
742.199 .0291049
742.924 .0290890
743.648 .0290725
744.372 .0290554
745.096 .0290390
745.819 .0290232
746.543 .0290078
747.266 .0289934
747.989 .0289799
748.711 .0289674
749.434 .0289555
750.156 .0289439
750.878 .0289329
751.599 .0289228
752.321 .0289134
753.042 .0289049
753.763 .0288980
754.484 .0288924
755.205 .0288878
755.925 .0288842
756.645 .0288812
757.365 .0288783
758.085 .0288750
758.804 .0288705
759.523 .0288644
760.242 .0288565
760.961 .0288468
761.679 .0288359
762.397 .0288239
763.115 .0288108
763.833 .0287963
764.551 .0287813
765.268 .0287656
765.985 .0287488
766.702 .0287313
767.418 .0287130
768.134 .0286934
768.850 .0286731
769.566 .0286520
770.282 .0286308
770.997 .0286104
771.712 .0285913
772.427 .0285732
773.142 .0285561
773.856 .0285399
774.570 .0285243
775.284 .0285090
775.998 .0284939
776.711 .0284781
777.424 .0284612
778.137 .0284437
778.849 .0284253
779.562 .0284068
780.274 .0283890
780.986 .0283723
781.697 .0283567
782.409 .0283424
783.120 .0283293
783.831 .0283172
784.541 .0283064
785.252 .0282962
785.962 .0282860
786.671 .0282757
787.381 .0282651
788.090 .0282541
788.799 .0282432
789.508 .0282328
790.217 .0282222
790.925 .0282113
791.633 .0282000
792.341 .0281873
793.048 .0281729
793.755 .0281572
794.462 .0281405
795.169 .0281227
795.875 .0281047
796.581 .0280868
797.287 .0280698
797.993 .0280542
798.698 .0280395
799.403 .0280252
800.108 .0280111
800.812 .0279971
801.517 .0279822
802.221 .0279671
802.924 .0279523
803.628 .0279382
804.331 .0279253
805.034 .0279136
805.736 .0279025
806.439 .0278920
807.141 .0278816
807.843 .0278704
808.544 .0278576
809.245 .0278428
809.946 .0278261
810.647 .0278079
811.347 .0277891
812.047 .0277707
812.747 .0277531
813.447 .0277372
814.146 .0277228
814.845 .0277097
815.543 .0276974
816.242 .0276856
816.940 .0276742
817.638 .0276624
818.335 .0276505
819.032 .0276382
819.729 .0276258
820.426 .0276136
821.122 .0276011
821.818 .0275875
822.514 .0275730
823.209 .0275569
823.905 .0275388
824.599 .0275184
825.294 .0274962
825.988 .0274728
826.682 .0274485
827.376 .0274239
828.069 .0274001
828.762 .0273772
829.455 .0273556
830.147 .0273349
830.840 .0273155
831.531 .0272965
832.223 .0272781
832.914 .0272601
833.605 .0272427
834.296 .0272266
834.986 .0272114
835.676 .0271973
836.366 .0271848
837.055 .0271734
837.744 .0271625
838.433 .0271516
839.121 .0271403
839.809 .0271280
840.497 .0271144
841.185 .0270995
841.872 .0270837
842.559 .0270670
843.245 .0270501
843.932 .0270329
844.617 .0270160
845.303 .0269996
845.988 .0269836
846.673 .0269684
847.358 .0269543
848.042 .0269410
848.726 .0269285
849.410 .0269167
850.093 .0269059
850.776 .0268954
851.459 .0268849
852.141 .0268743
852.823 .0268629
853.505 .0268509
854.186 .0268382
854.867 .0268247
855.548 .0268111
856.228 .0267980
856.908 .0267854
857.588 .0267734
858.267 .0267619
858.946 .0267506
859.625 .0267393
860.303 .0267275
860.981 .0267155
861.659 .0267026
862.336 .0266895
863.013 .0266761
863.690 .0266626
864.366 .0266495
865.042 .0266371
865.718 .0266252
866.393 .0266139
867.068 .0266030
867.743 .0265922
868.417 .0265810
869.091 .0265696
869.765 .0265580
870.438 .0265458
871.111 .0265332
871.783 .0265208
872.456 .0265079
873.127 .0264954
873.799 .0264832
874.470 .0264713
875.141 .0264600
875.811 .0264492
876.481 .0264384
877.151 .0264279
877.820 .0264178
878.489 .0264077
879.158 .0263972
879.826 .0263869
880.494 .0263764
881.162 .0263654
881.829 .0263541
882.496 .0263423
883.163 .0263301
883.829 .0263179
884.495 .0263055
885.160 .0262933
885.825 .0262818
886.490 .0262716
887.154 .0262627
887.818 .0262552
888.482 .0262494
889.145 .0262449
889.808 .0262420
890.471 .0262404
891.133 .0262399
891.795 .0262399
892.456 .0262401
893.117 .0262409
893.778 .0262413
894.439 .0262410
895.099 .0262401
895.758 .0262384
896.417 .0262358
897.076 .0262321
897.735 .0262273
898.393 .0262216
899.051 .0262152
899.708 .0262080
900.365 .0261993
901.022 .0261901
901.678 .0261802
902.334 .0261695
902.990 .0261589
903.645 .0261487
904.300 .0261392
904.954 .0261307
905.608 .0261229
906.262 .0261163
906.915 .0261103
907.568 .0261045
908.221 .0260988
908.873 .0260927
909.525 .0260862
910.176 .0260787
910.828 .0260700
911.478 .0260608
912.129 .0260504
912.778 .0260393
913.428 .0260275
914.077 .0260155
914.726 .0260032
915.375 .0259905
916.023 .0259783
916.670 .0259667
917.318 .0259555
917.964 .0259451
918.611 .0259351
919.257 .0259260
919.903 .0259170
920.548 .0259082
921.193 .0258996
921.838 .0258911
922.482 .0258826
923.126 .0258744
923.770 .0258663
924.413 .0258588
925.056 .0258516
925.698 .0258450
926.340 .0258387
926.982 .0258327
927.623 .0258264
928.264 .0258203
928.904 .0258137
929.544 .0258070
930.184 .0257996
930.823 .0257920
931.462 .0257841
932.101 .0257757
932.739 .0257666
933.377 .0257566
934.014 .0257454
934.651 .0257332
935.288 .0257198
935.924 .0257061
936.560 .0256920
937.196 .0256778
937.831 .0256636
938.466 .0256495
939.100 .0256353
939.734 .0256213
940.368 .0256067
941.001 .0255918
941.634 .0255761
942.266 .0255591
942.899 .0255416
943.530 .0255238
944.162 .0255061
944.793 .0254883
945.423 .0254705
946.053 .0254525
946.683 .0254334
947.313 .0254135
947.942 .0253922
948.571 .0253691
949.199 .0253448
949.827 .0253188
950.455 .0252916
951.082 .0252651
951.709 .0252396
952.335 .0252164
952.961 .0251958
953.587 .0251785
954.212 .0251635
954.837 .0251507
955.462 .0251395
956.086 .0251286
956.710 .0251187
957.334 .0251097
957.957 .0251005
958.579 .0250917
959.202 .0250836
959.824 .0250762
960.445 .0250692
961.067 .0250624
961.688 .0250549
962.308 .0250472
962.928 .0250384
963.548 .0250288
964.168 .0250183
964.787 .0250076
965.406 .0249967
966.024 .0249855
966.642 .0249744
967.260 .0249630
967.877 .0249514
968.494 .0249398
969.110 .0249283
969.727 .0249170
970.342 .0249052
970.958 .0248943
971.573 .0248842
972.188 .0248744
972.802 .0248645
973.416 .0248548
974.030 .0248446
974.643 .0248342
975.256 .0248234
975.869 .0248124
976.481 .0248022
977.093 .0247934
977.705 .0247855
978.316 .0247788
978.927 .0247738
979.538 .0247699
980.148 .0247668
980.758 .0247643
981.367 .0247619
981.977 .0247602
982.586 .0247591
983.194 .0247584
983.802 .0247579
984.410 .0247577
985.018 .0247573
985.625 .0247562
986.232 .0247545
986.838 .0247521
987.445 .0247491
988.050 .0247460
988.656 .0247427
989.261 .0247388
989.866 .0247346
990.471 .0247295
991.075 .0247235
991.679 .0247161
992.282 .0247074
992.886 .0246974
993.489 .0246871
994.091 .0246769
994.694 .0246669
995.296 .0246576
995.897 .0246499
996.499 .0246425
997.100 .0246350
997.701 .0246272
998.301 .0246186
998.901 .0246093
999.501 .0245995
1000.101 .0245892
1000.700 .0245796
1001.299 .0245713
1001.898 .0245648
1002.496 .0245597
1003.094 .0245565
1003.692 .0245545
1004.289 .0245523
1004.887 .0245501
1005.484 .0245471
1006.080 .0245428
1006.677 .0245380
1007.273 .0245329
1007.868 .0245274
1008.464 .0245225
1009.059 .0245186
1009.654 .0245156
1010.249 .0245132
1010.843 .0245114
1011.437 .0245099
1012.031 .0245072
1012.625 .0245039
1013.218 .0244991
1013.811 .0244938
1014.404 .0244887
1014.997 .0244841
1015.589 .0244805
1016.181 .0244783
1016.773 .0244777
1017.365 .0244783
1017.956 .0244798
1018.547 .0244813
1019.138 .0244820
1019.728 .0244818
1020.319 .0244810
1020.909 .0244806
1021.499 .0244802
1022.088 .0244813
1022.678 .0244834
1023.267 .0244865
1023.856 .0244891
1024.445 .0244914
1025.033 .0244930
1025.621 .0244932
1026.209 .0244921
1026.797 .0244895
1027.385 .0244863
1027.972 .0244841
1028.560 .0244832
1029.147 .0244836
1029.734 .0244858
1030.320 .0244888
1030.907 .0244905
1031.493 .0244904
1032.079 .0244879
1032.665 .0244822
1033.250 .0244742
1033.836 .0244644
1034.421 .0244538
1035.006 .0244434
1035.591 .0244346
1036.176 .0244270
1036.761 .0244206
1037.345 .0244152
1037.929 .0244093
1038.514 .0244023
1039.097 .0243951
1039.681 .0243870
1040.265 .0243791
1040.848 .0243718
1041.432 .0243660
1042.015 .0243620
1042.598 .0243600
1043.181 .0243599
1043.764 .0243620
1044.346 .0243651
1044.929 .0243685
1045.511 .0243715
1046.094 .0243742
1046.676 .0243767
1047.258 .0243780
1047.840 .0243788
1048.422 .0243788
1049.003 .0243782
1049.585 .0243770
1050.166 .0243744
1050.748 .0243719
1051.329 .0243688
1051.910 .0243655
1052.491 .0243625
1053.072 .0243601
1053.653 .0243581
1054.234 .0243561
1054.815 .0243543
1055.396 .0243511
1055.976 .0243465
1056.557 .0243408
1057.138 .0243349
1057.718 .0243292
1058.298 .0243242
1058.879 .0243192
1059.459 .0243148
1060.039 .0243110
1060.620 .0243056
1061.200 .0242983
1061.780 .0242883
1062.360 .0242761
1062.940 .0242622
1063.520 .0242473
1064.101 .0242335
1064.681 .0242213
1065.261 .0242124
1065.841 .0242052
1066.421 .0241995
1067.001 .0241943
1067.581 .0241886
1068.161 .0241822
1068.741 .0241749
1069.321 .0241680
1069.901 .0241623
1070.482 .0241591
1071.062 .0241589
1071.642 .0241613
1072.222 .0241650
1072.803 .0241677
1073.383 .0241688
1073.963 .0241660
1074.544 .0241603
1075.124 .0241507
1075.705 .0241394
1076.286 .0241284
1076.866 .0241182
1077.447 .0241089
1078.028 .0241017
1078.609 .0240964
1079.190 .0240920
1079.771 .0240882
1080.352 .0240852
1080.934 .0240816
1081.515 .0240799
1082.097 .0240789
1082.679 .0240798
1083.260 .0240830
1083.842 .0240897
1084.424 .0240973
1085.007 .0241069
1085.589 .0241176
1086.172 .0241276
1086.754 .0241372
1087.337 .0241467
1087.920 .0241550
1088.503 .0241631
1089.087 .0241690
1089.670 .0241731
1090.254 .0241742
1090.838 .0241740
1091.422 .0241704
1092.006 .0241649
1092.590 .0241575
1093.175 .0241476
1093.760 .0241340
1094.345 .0241174
1094.930 .0240987
1095.516 .0240808
1096.102 .0240624
1096.688 .0240459
1097.274 .0240330
1097.860 .0240241
1098.447 .0240174
1099.034 .0240139
1099.622 .0240124
1100.209 .0240136
1100.797 .0240137
1101.385 .0240137
1101.973 .0240140
1102.562 .0240155
1103.151 .0240200
1103.740 .0240269
1104.330 .0240372
1104.920 .0240496
1105.510 .0240634
1106.101 .0240787
1106.691 .0240923
1107.283 .0241068
1107.874 .0241183
1108.466 .0241273
1109.058 .0241373
1109.651 .0241438
1110.244 .0241495
1110.837 .0241582
1111.431 .0241699
1112.025 .0241829
1112.620 .0241979
1113.215 .0242160
1113.810 .0242339
1114.406 .0242560
1115.002 .0242803
1115.599 .0243027
1116.196 .0243242
1116.793 .0243431
1117.391 .0243540
1117.989 .0243595
1118.588 .0243619
1119.187 .0243564
1119.787 .0243485
1120.387 .0243416
1120.988 .0243331
1121.589 .0243260
1122.190 .0243224
1122.793 .0243219
1123.395 .0243210
1123.998 .0243247
1124.602 .0243287
1125.206 .0243322
1125.811 .0243421
1126.416 .0243534
1127.022 .0243677
1127.628 .0243838
1128.235 .0244003
1128.843 .0244150
1129.451 .0244306
1130.059 .0244447
1130.669 .0244533
1131.278 .0244623
1131.889 .0244723
1132.500 .0244815
1133.112 .0244937
1133.724 .0245063
1134.337 .0245238
1134.950 .0245403
1135.564 .0245572
1136.179 .0245703
1136.795 .0245907
1137.411 .0246183
1138.028 .0246553
1138.645 .0247073
1139.263 .0247784
1139.882 .0248637
1140.502 .0249653
1141.122 .0250816
1141.743 .0252243
1142.365 .0254080
1142.987 .0254152
1143.611 .0255401
1144.235 .0258168
1144.859 .0263505
1145.485 .0272036
