Measurement Sequence started on: 10-20-44-796
Integration time: 35
Scans to Average: 2 
>>>>>Begin Spectral Data<<<<<
432.953 .0533602
433.882 .0374886
434.810 .0366056
435.737 .0346639
436.662 .0342339
437.586 .0348884
438.509 .0338811
439.431 .0335199
440.351 .0332427
441.269 .0330522
442.187 .0329133
443.103 .0328183
444.018 .0327416
444.932 .0327047
445.844 .0326763
446.756 .0326595
447.666 .0326457
448.575 .0326192
449.482 .0325935
450.388 .0325704
451.294 .0325424
452.198 .0324972
453.100 .0324533
454.002 .0324165
454.902 .0323793
455.801 .0323457
456.699 .0323105
457.596 .0322648
458.492 .0322096
459.387 .0321524
460.280 .0320946
461.172 .0320357
462.064 .0319794
462.954 .0319208
463.843 .0318583
464.730 .0317980
465.617 .0317361
466.503 .0316765
467.387 .0316182
468.271 .0315616
469.153 .0315075
470.035 .0314620
470.915 .0314300
471.794 .0314077
472.673 .0314006
473.550 .0314048
474.426 .0314124
475.301 .0314211
476.175 .0314305
477.048 .0314386
477.920 .0314445
478.791 .0314503
479.661 .0314477
480.530 .0314402
481.398 .0314285
482.266 .0314105
483.132 .0313892
483.997 .0313639
484.861 .0313323
485.724 .0312964
486.587 .0312628
487.448 .0312262
488.308 .0311866
489.168 .0311487
490.026 .0311083
490.884 .0310643
491.741 .0310156
492.597 .0309622
493.452 .0309062
494.306 .0308530
495.159 .0307996
496.011 .0307435
496.862 .0306923
497.713 .0306374
498.562 .0305771
499.411 .0305102
500.259 .0304349
501.106 .0303510
501.952 .0302638
502.798 .0301747
503.642 .0300863
504.486 .0300020
505.329 .0299234
506.171 .0298452
507.012 .0297676
507.852 .0296862
508.692 .0296022
509.531 .0295122
510.369 .0294209
511.206 .0293273
512.043 .0292359
512.878 .0291481
513.713 .0290629
514.547 .0289785
515.381 .0288923
516.213 .0287920
517.045 .0286742
517.876 .0285360
518.706 .0283816
519.536 .0282106
520.365 .0280265
521.193 .0278377
522.020 .0276532
522.847 .0274740
523.673 .0273040
524.498 .0271434
525.323 .0269938
526.146 .0268553
526.969 .0267233
527.792 .0266014
528.614 .0264903
529.435 .0263869
530.255 .0262991
531.075 .0262162
531.894 .0261431
532.712 .0260680
533.530 .0259921
534.347 .0259203
535.163 .0258488
535.979 .0257848
536.794 .0257239
537.608 .0256726
538.422 .0256398
539.235 .0256066
540.048 .0255732
540.860 .0255343
541.671 .0254948
542.481 .0254421
543.292 .0253811
544.101 .0253215
544.910 .0252800
545.718 .0252605
546.526 .0252747
547.333 .0253197
548.139 .0254043
548.945 .0255179
549.750 .0256452
550.555 .0257843
551.359 .0259345
552.162 .0260770
552.965 .0262152
553.768 .0263464
554.569 .0264728
555.371 .0265794
556.171 .0266712
556.972 .0267447
557.771 .0268021
558.570 .0268384
559.369 .0268532
560.167 .0268507
560.964 .0268504
561.761 .0268453
562.558 .0268438
563.354 .0268522
564.149 .0268643
564.944 .0268803
565.738 .0268995
566.532 .0269231
567.325 .0269537
568.118 .0269935
568.910 .0270487
569.702 .0271149
570.494 .0271971
571.285 .0272901
572.075 .0273932
572.865 .0275022
573.654 .0276092
574.443 .0277084
575.232 .0278034
576.020 .0278935
576.807 .0279776
577.594 .0280599
578.381 .0281377
579.167 .0282120
579.952 .0282797
580.738 .0283422
581.522 .0284010
582.307 .0284534
583.091 .0285064
583.874 .0285581
584.657 .0286091
585.440 .0286579
586.222 .0287052
587.004 .0287515
587.785 .0287942
588.566 .0288314
589.346 .0288635
590.126 .0288906
590.906 .0289131
591.685 .0289292
592.464 .0289406
593.242 .0289487
594.020 .0289530
594.797 .0289528
595.575 .0289517
596.351 .0289492
597.128 .0289459
597.904 .0289420
598.679 .0289396
599.454 .0289361
600.229 .0289317
601.004 .0289256
601.778 .0289185
602.551 .0289102
603.325 .0289022
604.097 .0288941
604.870 .0288877
605.642 .0288844
606.414 .0288829
607.185 .0288821
607.956 .0288828
608.727 .0288829
609.497 .0288815
610.267 .0288784
611.037 .0288731
611.806 .0288657
612.575 .0288580
613.344 .0288502
614.112 .0288417
614.880 .0288322
615.647 .0288220
616.414 .0288096
617.181 .0287954
617.948 .0287797
618.714 .0287613
619.480 .0287427
620.245 .0287240
621.011 .0287048
621.775 .0286863
622.540 .0286684
623.304 .0286520
624.068 .0286368
624.832 .0286232
625.595 .0286106
626.358 .0285992
627.120 .0285896
627.883 .0285808
628.645 .0285723
629.406 .0285639
630.168 .0285543
630.929 .0285436
631.689 .0285317
632.450 .0285191
633.210 .0285061
633.970 .0284937
634.729 .0284823
635.489 .0284716
636.248 .0284607
637.006 .0284497
637.765 .0284375
638.523 .0284236
639.280 .0284080
640.038 .0283904
640.795 .0283719
641.552 .0283536
642.309 .0283368
643.065 .0283220
643.821 .0283092
644.577 .0282986
645.332 .0282880
646.088 .0282777
646.843 .0282660
647.597 .0282523
648.352 .0282365
649.106 .0282193
649.860 .0282010
650.613 .0281816
651.367 .0281634
652.120 .0281469
652.872 .0281320
653.625 .0281192
654.377 .0281080
655.129 .0280979
655.881 .0280880
656.632 .0280779
657.384 .0280662
658.135 .0280530
658.885 .0280379
659.636 .0280216
660.386 .0280045
661.136 .0279881
661.885 .0279728
662.635 .0279588
663.384 .0279471
664.133 .0279367
664.881 .0279262
665.630 .0279156
666.378 .0279041
667.126 .0278905
667.874 .0278737
668.621 .0278558
669.368 .0278363
670.115 .0278173
670.862 .0277998
671.608 .0277844
672.354 .0277721
673.100 .0277622
673.846 .0277543
674.591 .0277471
675.337 .0277398
676.082 .0277309
676.826 .0277196
677.571 .0277064
678.315 .0276917
679.059 .0276768
679.803 .0276628
680.547 .0276505
681.290 .0276406
682.033 .0276328
682.776 .0276261
683.518 .0276196
684.261 .0276133
685.003 .0276052
685.745 .0275955
686.487 .0275830
687.228 .0275680
687.969 .0275516
688.710 .0275342
689.451 .0275165
690.192 .0274990
690.932 .0274822
691.672 .0274660
692.412 .0274501
693.152 .0274346
693.891 .0274186
694.630 .0274022
695.369 .0273854
696.108 .0273679
696.846 .0273491
697.585 .0273294
698.323 .0273088
699.061 .0272884
699.798 .0272679
700.536 .0272478
701.273 .0272292
702.010 .0272122
702.746 .0271963
703.483 .0271817
704.219 .0271676
704.955 .0271536
705.691 .0271394
706.427 .0271249
707.162 .0271098
707.897 .0270950
708.632 .0270810
709.367 .0270681
710.101 .0270560
710.835 .0270453
711.569 .0270343
712.303 .0270236
713.037 .0270125
713.770 .0270006
714.503 .0269880
715.236 .0269758
715.969 .0269636
716.702 .0269522
717.434 .0269421
718.166 .0269330
718.898 .0269240
719.629 .0269151
720.361 .0269055
721.092 .0268946
721.823 .0268823
722.554 .0268691
723.284 .0268542
724.014 .0268389
724.744 .0268219
725.474 .0268036
726.204 .0267838
726.933 .0267625
727.662 .0267401
728.391 .0267166
729.120 .0266926
729.849 .0266684
730.577 .0266446
731.305 .0266216
732.033 .0265994
732.760 .0265778
733.488 .0265563
734.215 .0265350
734.942 .0265138
735.669 .0264930
736.395 .0264737
737.122 .0264564
737.848 .0264412
738.573 .0264281
739.299 .0264159
740.024 .0264031
740.750 .0263896
741.474 .0263743
742.199 .0263564
742.924 .0263360
743.648 .0263146
744.372 .0262921
745.096 .0262709
745.819 .0262511
746.543 .0262326
747.266 .0262164
747.989 .0262024
748.711 .0261893
749.434 .0261771
750.156 .0261662
750.878 .0261565
751.599 .0261484
752.321 .0261425
753.042 .0261381
753.763 .0261361
754.484 .0261365
755.205 .0261382
755.925 .0261405
756.645 .0261435
757.365 .0261457
758.085 .0261473
758.804 .0261482
759.523 .0261469
760.242 .0261437
760.961 .0261383
761.679 .0261309
762.397 .0261210
763.115 .0261080
763.833 .0260925
764.551 .0260742
765.268 .0260534
765.985 .0260301
766.702 .0260046
767.418 .0259783
768.134 .0259511
768.850 .0259241
769.566 .0258971
770.282 .0258711
770.997 .0258473
771.712 .0258249
772.427 .0258042
773.142 .0257847
773.856 .0257664
774.570 .0257493
775.284 .0257341
775.998 .0257202
776.711 .0257083
777.424 .0256987
778.137 .0256906
778.849 .0256836
779.562 .0256774
780.274 .0256714
780.986 .0256642
781.697 .0256554
782.409 .0256451
783.120 .0256328
783.831 .0256203
784.541 .0256075
785.252 .0255953
785.962 .0255841
786.671 .0255730
787.381 .0255621
788.090 .0255509
788.799 .0255395
789.508 .0255265
790.217 .0255121
790.925 .0254967
791.633 .0254801
792.341 .0254626
793.048 .0254455
793.755 .0254290
794.462 .0254134
795.169 .0253981
795.875 .0253834
796.581 .0253694
797.287 .0253561
797.993 .0253431
798.698 .0253310
799.403 .0253195
800.108 .0253088
800.812 .0252982
801.517 .0252882
802.221 .0252784
802.924 .0252691
803.628 .0252604
804.331 .0252520
805.034 .0252444
805.736 .0252375
806.439 .0252312
807.141 .0252257
807.843 .0252201
808.544 .0252137
809.245 .0252060
809.946 .0251968
810.647 .0251859
811.347 .0251735
812.047 .0251599
812.747 .0251462
813.447 .0251327
814.146 .0251201
814.845 .0251085
815.543 .0250978
816.242 .0250882
816.940 .0250786
817.638 .0250687
818.335 .0250574
819.032 .0250448
819.729 .0250312
820.426 .0250166
821.122 .0250016
821.818 .0249862
822.514 .0249711
823.209 .0249560
823.905 .0249414
824.599 .0249266
825.294 .0249111
825.988 .0248953
826.682 .0248784
827.376 .0248606
828.069 .0248421
828.762 .0248236
829.455 .0248047
830.147 .0247865
830.840 .0247689
831.531 .0247516
832.223 .0247357
832.914 .0247207
833.605 .0247064
834.296 .0246930
834.986 .0246800
835.676 .0246668
836.366 .0246539
837.055 .0246411
837.744 .0246284
838.433 .0246154
839.121 .0246028
839.809 .0245902
840.497 .0245782
841.185 .0245666
841.872 .0245556
842.559 .0245450
843.245 .0245350
843.932 .0245247
844.617 .0245144
845.303 .0245034
845.988 .0244922
846.673 .0244802
847.358 .0244685
848.042 .0244568
848.726 .0244461
849.410 .0244365
850.093 .0244292
850.776 .0244230
851.459 .0244184
852.141 .0244140
852.823 .0244099
853.505 .0244055
854.186 .0244006
854.867 .0243949
855.548 .0243893
856.228 .0243837
856.908 .0243788
857.588 .0243741
858.267 .0243703
858.946 .0243667
859.625 .0243630
860.303 .0243579
860.981 .0243515
861.659 .0243433
862.336 .0243334
863.013 .0243219
863.690 .0243097
864.366 .0242965
865.042 .0242832
865.718 .0242698
866.393 .0242568
867.068 .0242441
867.743 .0242322
868.417 .0242198
869.091 .0242076
869.765 .0241950
870.438 .0241820
871.111 .0241687
871.783 .0241562
872.456 .0241443
873.127 .0241332
873.799 .0241232
874.470 .0241135
875.141 .0241044
875.811 .0240960
876.481 .0240874
877.151 .0240789
877.820 .0240700
878.489 .0240609
879.158 .0240514
879.826 .0240428
880.494 .0240344
881.162 .0240269
881.829 .0240204
882.496 .0240140
883.163 .0240078
883.829 .0240015
884.495 .0239949
885.160 .0239886
885.825 .0239828
886.490 .0239773
887.154 .0239720
887.818 .0239677
888.482 .0239635
889.145 .0239602
889.808 .0239572
890.471 .0239536
891.133 .0239500
891.795 .0239468
892.456 .0239432
893.117 .0239395
893.778 .0239365
894.439 .0239341
895.099 .0239314
895.758 .0239289
896.417 .0239255
897.076 .0239213
897.735 .0239162
898.393 .0239100
899.051 .0239025
899.708 .0238951
900.365 .0238873
901.022 .0238789
901.678 .0238708
902.334 .0238634
902.990 .0238554
903.645 .0238476
904.300 .0238401
904.954 .0238324
905.608 .0238237
906.262 .0238152
906.915 .0238062
907.568 .0237974
908.221 .0237888
908.873 .0237799
909.525 .0237713
910.176 .0237638
910.828 .0237563
911.478 .0237489
912.129 .0237423
912.778 .0237365
913.428 .0237304
914.077 .0237250
914.726 .0237204
915.375 .0237162
916.023 .0237128
916.670 .0237098
917.318 .0237069
917.964 .0237037
918.611 .0236996
919.257 .0236944
919.903 .0236885
920.548 .0236816
921.193 .0236736
921.838 .0236654
922.482 .0236576
923.126 .0236497
923.770 .0236424
924.413 .0236349
925.056 .0236271
925.698 .0236184
926.340 .0236084
926.982 .0235969
927.623 .0235844
928.264 .0235711
928.904 .0235580
929.544 .0235458
930.184 .0235355
930.823 .0235268
931.462 .0235201
932.101 .0235145
932.739 .0235084
933.377 .0235006
934.014 .0234907
934.651 .0234778
935.288 .0234629
935.924 .0234458
936.560 .0234284
937.196 .0234116
937.831 .0233961
938.466 .0233821
939.100 .0233690
939.734 .0233564
940.368 .0233430
941.001 .0233278
941.634 .0233110
942.266 .0232926
942.899 .0232728
943.530 .0232527
944.162 .0232331
944.793 .0232149
945.423 .0231977
946.053 .0231813
946.683 .0231660
947.313 .0231507
947.942 .0231348
948.571 .0231179
949.199 .0231000
949.827 .0230816
950.455 .0230622
951.082 .0230426
951.709 .0230225
952.335 .0230021
952.961 .0229814
953.587 .0229604
954.212 .0229400
954.837 .0229203
955.462 .0229013
956.086 .0228840
956.710 .0228691
957.334 .0228560
957.957 .0228435
958.579 .0228310
959.202 .0228185
959.824 .0228051
960.445 .0227909
961.067 .0227762
961.688 .0227624
962.308 .0227501
962.928 .0227393
963.548 .0227297
964.168 .0227217
964.787 .0227143
965.406 .0227068
966.024 .0226984
966.642 .0226890
967.260 .0226779
967.877 .0226661
968.494 .0226539
969.110 .0226423
969.727 .0226310
970.342 .0226203
970.958 .0226104
971.573 .0226011
972.188 .0225919
972.802 .0225833
973.416 .0225754
974.030 .0225687
974.643 .0225622
975.256 .0225560
975.869 .0225502
976.481 .0225449
977.093 .0225391
977.705 .0225326
978.316 .0225255
978.927 .0225183
979.538 .0225107
980.148 .0225039
980.758 .0224982
981.367 .0224930
981.977 .0224894
982.586 .0224864
983.194 .0224834
983.802 .0224805
984.410 .0224773
985.018 .0224742
985.625 .0224708
986.232 .0224671
986.838 .0224631
987.445 .0224589
988.050 .0224553
988.656 .0224500
989.261 .0224438
989.866 .0224359
990.471 .0224269
991.075 .0224163
991.679 .0224044
992.282 .0223914
992.886 .0223779
993.489 .0223643
994.091 .0223507
994.694 .0223365
995.296 .0223225
995.897 .0223085
996.499 .0222946
997.100 .0222803
997.701 .0222671
998.301 .0222552
998.901 .0222458
999.501 .0222390
1000.101 .0222352
1000.700 .0222329
1001.299 .0222320
1001.898 .0222321
1002.496 .0222323
1003.094 .0222321
1003.692 .0222314
1004.289 .0222302
1004.887 .0222302
1005.484 .0222314
1006.080 .0222341
1006.677 .0222381
1007.273 .0222441
1007.868 .0222499
1008.464 .0222544
1009.059 .0222592
1009.654 .0222638
1010.249 .0222688
1010.843 .0222748
1011.437 .0222820
1012.031 .0222909
1012.625 .0223014
1013.218 .0223121
1013.811 .0223218
1014.404 .0223300
1014.997 .0223349
1015.589 .0223356
1016.181 .0223340
1016.773 .0223309
1017.365 .0223282
1017.956 .0223267
1018.547 .0223274
1019.138 .0223293
1019.728 .0223329
1020.319 .0223363
1020.909 .0223379
1021.499 .0223379
1022.088 .0223351
1022.678 .0223293
1023.267 .0223226
1023.856 .0223160
1024.445 .0223113
1025.033 .0223088
1025.621 .0223081
1026.209 .0223079
1026.797 .0223072
1027.385 .0223036
1027.972 .0222966
1028.560 .0222871
1029.147 .0222751
1029.734 .0222618
1030.320 .0222493
1030.907 .0222394
1031.493 .0222330
1032.079 .0222311
1032.665 .0222327
1033.250 .0222362
1033.836 .0222406
1034.421 .0222440
1035.006 .0222468
1035.591 .0222505
1036.176 .0222546
1036.761 .0222607
1037.345 .0222694
1037.929 .0222810
1038.514 .0222940
1039.097 .0223076
1039.681 .0223202
1040.265 .0223307
1040.848 .0223384
1041.432 .0223430
1042.015 .0223448
1042.598 .0223461
1043.181 .0223474
1043.764 .0223498
1044.346 .0223533
1044.929 .0223571
1045.511 .0223606
1046.094 .0223635
1046.676 .0223648
1047.258 .0223646
1047.840 .0223627
1048.422 .0223607
1049.003 .0223586
1049.585 .0223566
1050.166 .0223549
1050.748 .0223540
1051.329 .0223534
1051.910 .0223523
1052.491 .0223494
1053.072 .0223470
1053.653 .0223443
1054.234 .0223416
1054.815 .0223387
1055.396 .0223357
1055.976 .0223320
1056.557 .0223270
1057.138 .0223209
1057.718 .0223140
1058.298 .0223061
1058.879 .0222987
1059.459 .0222905
1060.039 .0222830
1060.620 .0222762
1061.200 .0222703
1061.780 .0222649
1062.360 .0222601
1062.940 .0222545
1063.520 .0222484
1064.101 .0222414
1064.681 .0222343
1065.261 .0222270
1065.841 .0222202
1066.421 .0222152
1067.001 .0222119
1067.581 .0222103
1068.161 .0222110
1068.741 .0222144
1069.321 .0222217
1069.901 .0222314
1070.482 .0222428
1071.062 .0222536
1071.642 .0222618
1072.222 .0222677
1072.803 .0222697
1073.383 .0222689
1073.963 .0222679
1074.544 .0222670
1075.124 .0222660
1075.705 .0222662
1076.286 .0222682
1076.866 .0222697
1077.447 .0222703
1078.028 .0222675
1078.609 .0222587
1079.190 .0222442
1079.771 .0222242
1080.352 .0221998
1080.934 .0221767
1081.515 .0221579
1082.097 .0221431
1082.679 .0221353
1083.260 .0221346
1083.842 .0221395
1084.424 .0221505
1085.007 .0221676
1085.589 .0221865
1086.172 .0222057
1086.754 .0222256
1087.337 .0222439
1087.920 .0222623
1088.503 .0222819
1089.087 .0223016
1089.670 .0223223
1090.254 .0223421
1090.838 .0223599
1091.422 .0223761
1092.006 .0223915
1092.590 .0224052
1093.175 .0224166
1093.760 .0224247
1094.345 .0224289
1094.930 .0224279
1095.516 .0224242
1096.102 .0224186
1096.688 .0224113
1097.274 .0224031
1097.860 .0223910
1098.447 .0223770
1099.034 .0223613
1099.622 .0223418
1100.209 .0223220
1100.797 .0222994
1101.385 .0222777
1101.973 .0222573
1102.562 .0222372
1103.151 .0222202
1103.740 .0222062
1104.330 .0221951
1104.920 .0221850
1105.510 .0221728
1106.101 .0221600
1106.691 .0221468
1107.283 .0221357
1107.874 .0221284
1108.466 .0221250
1109.058 .0221270
1109.651 .0221355
1110.244 .0221497
1110.837 .0221686
1111.431 .0221857
1112.025 .0221993
1112.620 .0222095
1113.215 .0222116
1113.810 .0222070
1114.406 .0221981
1115.002 .0221881
1115.599 .0221817
1116.196 .0221758
1116.793 .0221715
1117.391 .0221706
1117.989 .0221697
1118.588 .0221695
1119.187 .0221648
1119.787 .0221565
1120.387 .0221438
1120.988 .0221285
1121.589 .0221135
1122.190 .0220986
1122.793 .0220840
1123.395 .0220720
1123.998 .0220619
1124.602 .0220571
1125.206 .0220555
1125.811 .0220614
1126.416 .0220784
1127.022 .0221012
1127.628 .0221266
1128.235 .0221576
1128.843 .0221915
1129.451 .0222298
1130.059 .0222721
1130.669 .0223174
1131.278 .0223661
1131.889 .0224160
1132.500 .0224680
1133.112 .0225212
1133.724 .0225766
1134.337 .0226304
1134.950 .0226749
1135.564 .0227161
1136.179 .0227530
1136.795 .0227859
1137.411 .0228213
1138.028 .0228591
1138.645 .0228989
1139.263 .0229370
1139.882 .0229729
1140.502 .0230156
1141.122 .0230633
1141.743 .0231379
1142.365 .0232218
1142.987 .0230728
1143.611 .0233650
1144.235 .0234529
1144.859 .0240801
1145.485 .0239160
