Measurement Sequence started on: 10-20-44-796
Integration time: 35
Scans to Average: 2 
>>>>>Begin Spectral Data<<<<<
432.953 .0451903
433.882 .0445457
434.810 .0451166
435.737 .0412221
436.662 .0388913
437.586 .0398414
438.509 .0391234
439.431 .0385860
440.351 .0381744
441.269 .0379616
442.187 .0378426
443.103 .0377504
444.018 .0376553
444.932 .0375810
445.844 .0375461
446.756 .0375035
447.666 .0374746
448.575 .0374462
449.482 .0374123
450.388 .0373832
451.294 .0373377
452.198 .0372686
453.100 .0371901
454.002 .0370967
454.902 .0370009
455.801 .0369063
456.699 .0368244
457.596 .0367438
458.492 .0366777
459.387 .0366210
460.280 .0365741
461.172 .0365310
462.064 .0364963
462.954 .0364490
463.843 .0363933
464.730 .0363336
465.617 .0362673
466.503 .0362039
467.387 .0361439
468.271 .0360883
469.153 .0360431
470.035 .0359987
470.915 .0359613
471.794 .0359228
472.673 .0358840
473.550 .0358389
474.426 .0357934
475.301 .0357464
476.175 .0356966
477.048 .0356458
477.920 .0355943
478.791 .0355409
479.661 .0354846
480.530 .0354292
481.398 .0353762
482.266 .0353321
483.132 .0352989
483.997 .0352734
484.861 .0352598
485.724 .0352579
486.587 .0352596
487.448 .0352627
488.308 .0352629
489.168 .0352571
490.026 .0352443
490.884 .0352294
491.741 .0352126
492.597 .0352026
493.452 .0352025
494.306 .0352110
495.159 .0352211
496.011 .0352346
496.862 .0352439
497.713 .0352408
498.562 .0352225
499.411 .0351871
500.259 .0351316
501.106 .0350624
501.952 .0349793
502.798 .0348876
503.642 .0347925
504.486 .0347004
505.329 .0346083
506.171 .0345222
507.012 .0344380
507.852 .0343542
508.692 .0342674
509.531 .0341768
510.369 .0340770
511.206 .0339691
512.043 .0338527
512.878 .0337289
513.713 .0335990
514.547 .0334727
515.381 .0333530
516.213 .0332486
517.045 .0331581
517.876 .0330780
518.706 .0329997
519.536 .0329194
520.365 .0328222
521.193 .0327121
522.020 .0325813
522.847 .0324326
523.673 .0322653
524.498 .0320883
525.323 .0319022
526.146 .0317135
526.969 .0315205
527.792 .0313308
528.614 .0311347
529.435 .0309385
530.255 .0307413
531.075 .0305447
531.894 .0303518
532.712 .0301711
533.530 .0299991
534.347 .0298396
535.163 .0296888
535.979 .0295562
536.794 .0294396
537.608 .0293464
538.422 .0292741
539.235 .0292197
540.048 .0291940
540.860 .0291929
541.671 .0292042
542.481 .0292315
543.292 .0292683
544.101 .0293057
544.910 .0293452
545.718 .0293837
546.526 .0294177
547.333 .0294572
548.139 .0295055
548.945 .0295608
549.750 .0296218
550.555 .0296955
551.359 .0297764
552.162 .0298587
552.965 .0299366
553.768 .0300016
554.569 .0300567
555.371 .0301043
556.171 .0301378
556.972 .0301688
557.771 .0301952
558.570 .0302247
559.369 .0302567
560.167 .0302921
560.964 .0303324
561.761 .0303796
562.558 .0304268
563.354 .0304757
564.149 .0305266
564.944 .0305800
565.738 .0306284
566.532 .0306840
567.325 .0307381
568.118 .0307944
568.910 .0308526
569.702 .0309121
570.494 .0309691
571.285 .0310250
572.075 .0310770
572.865 .0311244
573.654 .0311662
574.443 .0312060
575.232 .0312396
576.020 .0312713
576.807 .0312991
577.594 .0313229
578.381 .0313452
579.167 .0313682
579.952 .0313930
580.738 .0314199
581.522 .0314499
582.307 .0314832
583.091 .0315202
583.874 .0315594
584.657 .0316000
585.440 .0316363
586.222 .0316685
587.004 .0316945
587.785 .0317137
588.566 .0317255
589.346 .0317339
590.126 .0317396
590.906 .0317450
591.685 .0317494
592.464 .0317548
593.242 .0317605
594.020 .0317689
594.797 .0317781
595.575 .0317890
596.351 .0317981
597.128 .0318070
597.904 .0318124
598.679 .0318171
599.454 .0318181
600.229 .0318176
601.004 .0318143
601.778 .0318094
602.551 .0318024
603.325 .0317935
604.097 .0317820
604.870 .0317700
605.642 .0317553
606.414 .0317396
607.185 .0317212
607.956 .0317023
608.727 .0316806
609.497 .0316590
610.267 .0316359
611.037 .0316130
611.806 .0315895
612.575 .0315668
613.344 .0315440
614.112 .0315219
614.880 .0314999
615.647 .0314776
616.414 .0314537
617.181 .0314306
617.948 .0314046
618.714 .0313782
619.480 .0313510
620.245 .0313239
621.011 .0312971
621.775 .0312715
622.540 .0312465
623.304 .0312212
624.068 .0311957
624.832 .0311696
625.595 .0311413
626.358 .0311138
627.120 .0310860
627.883 .0310586
628.645 .0310325
629.406 .0310088
630.168 .0309854
630.929 .0309643
631.689 .0309434
632.450 .0309206
633.210 .0308965
633.970 .0308693
634.729 .0308401
635.489 .0308096
636.248 .0307791
637.006 .0307494
637.765 .0307201
638.523 .0306929
639.280 .0306649
640.038 .0306366
640.795 .0306080
641.552 .0305784
642.309 .0305478
643.065 .0305166
643.821 .0304855
644.577 .0304559
645.332 .0304283
646.088 .0304018
646.843 .0303765
647.597 .0303522
648.352 .0303277
649.106 .0303030
649.860 .0302769
650.613 .0302516
651.367 .0302271
652.120 .0302047
652.872 .0301845
653.625 .0301664
654.377 .0301511
655.129 .0301381
655.881 .0301261
656.632 .0301159
657.384 .0301053
658.135 .0300949
658.885 .0300841
659.636 .0300726
660.386 .0300603
661.136 .0300476
661.885 .0300356
662.635 .0300247
663.384 .0300146
664.133 .0300057
664.881 .0299977
665.630 .0299917
666.378 .0299875
667.126 .0299833
667.874 .0299796
668.621 .0299753
669.368 .0299691
670.115 .0299609
670.862 .0299508
671.608 .0299399
672.354 .0299283
673.100 .0299156
673.846 .0299029
674.591 .0298901
675.337 .0298782
676.082 .0298659
676.826 .0298535
677.571 .0298399
678.315 .0298245
679.059 .0298062
679.803 .0297862
680.547 .0297645
681.290 .0297425
682.033 .0297193
682.776 .0296962
683.518 .0296735
684.261 .0296516
685.003 .0296301
685.745 .0296102
686.487 .0295913
687.228 .0295731
687.969 .0295548
688.710 .0295371
689.451 .0295195
690.192 .0295026
690.932 .0294852
691.672 .0294683
692.412 .0294516
693.152 .0294362
693.891 .0294208
694.630 .0294066
695.369 .0293933
696.108 .0293800
696.846 .0293657
697.585 .0293509
698.323 .0293349
699.061 .0293180
699.798 .0292997
700.536 .0292810
701.273 .0292612
702.010 .0292405
702.746 .0292187
703.483 .0291970
704.219 .0291745
704.955 .0291511
705.691 .0291264
706.427 .0291011
707.162 .0290749
707.897 .0290485
708.632 .0290220
709.367 .0289962
710.101 .0289711
710.835 .0289468
711.569 .0289223
712.303 .0288992
713.037 .0288766
713.770 .0288545
714.503 .0288326
715.236 .0288110
715.969 .0287893
716.702 .0287673
717.434 .0287458
718.166 .0287243
718.898 .0287033
719.629 .0286837
720.361 .0286646
721.092 .0286463
721.823 .0286288
722.554 .0286113
723.284 .0285938
724.014 .0285755
724.744 .0285552
725.474 .0285323
726.204 .0285078
726.933 .0284813
727.662 .0284533
728.391 .0284246
729.120 .0283969
729.849 .0283699
730.577 .0283440
731.305 .0283189
732.033 .0282948
732.760 .0282714
733.488 .0282485
734.215 .0282253
734.942 .0282022
735.669 .0281788
736.395 .0281560
737.122 .0281335
737.848 .0281121
738.573 .0280923
739.299 .0280740
740.024 .0280573
740.750 .0280422
741.474 .0280275
742.199 .0280125
742.924 .0279970
743.648 .0279807
744.372 .0279633
745.096 .0279456
745.819 .0279280
746.543 .0279105
747.266 .0278937
747.989 .0278774
748.711 .0278618
749.434 .0278464
750.156 .0278307
750.878 .0278135
751.599 .0277957
752.321 .0277772
753.042 .0277583
753.763 .0277404
754.484 .0277246
755.205 .0277109
755.925 .0276998
756.645 .0276906
757.365 .0276829
758.085 .0276756
758.804 .0276686
759.523 .0276603
760.242 .0276513
760.961 .0276410
761.679 .0276302
762.397 .0276190
763.115 .0276084
763.833 .0275975
764.551 .0275863
765.268 .0275746
765.985 .0275613
766.702 .0275459
767.418 .0275288
768.134 .0275096
768.850 .0274895
769.566 .0274690
770.282 .0274493
770.997 .0274302
771.712 .0274128
772.427 .0273969
773.142 .0273826
773.856 .0273699
774.570 .0273583
775.284 .0273477
775.998 .0273382
776.711 .0273297
777.424 .0273216
778.137 .0273139
778.849 .0273062
779.562 .0272980
780.274 .0272892
780.986 .0272796
781.697 .0272686
782.409 .0272572
783.120 .0272462
783.831 .0272354
784.541 .0272252
785.252 .0272162
785.962 .0272073
786.671 .0271989
787.381 .0271900
788.090 .0271815
788.799 .0271726
789.508 .0271644
790.217 .0271565
790.925 .0271499
791.633 .0271452
792.341 .0271419
793.048 .0271398
793.755 .0271393
794.462 .0271383
795.169 .0271370
795.875 .0271352
796.581 .0271334
797.287 .0271307
797.993 .0271279
798.698 .0271245
799.403 .0271207
800.108 .0271160
800.812 .0271104
801.517 .0271033
802.221 .0270956
802.924 .0270864
803.628 .0270762
804.331 .0270659
805.034 .0270559
805.736 .0270457
806.439 .0270362
807.141 .0270268
807.843 .0270174
808.544 .0270074
809.245 .0269972
809.946 .0269861
810.647 .0269750
811.347 .0269636
812.047 .0269527
812.747 .0269427
813.447 .0269334
814.146 .0269246
814.845 .0269168
815.543 .0269092
816.242 .0269016
816.940 .0268936
817.638 .0268852
818.335 .0268762
819.032 .0268668
819.729 .0268569
820.426 .0268464
821.122 .0268358
821.818 .0268250
822.514 .0268143
823.209 .0268038
823.905 .0267928
824.599 .0267815
825.294 .0267700
825.988 .0267582
826.682 .0267452
827.376 .0267310
828.069 .0267159
828.762 .0266996
829.455 .0266831
830.147 .0266663
830.840 .0266500
831.531 .0266346
832.223 .0266203
832.914 .0266065
833.605 .0265933
834.296 .0265805
834.986 .0265674
835.676 .0265542
836.366 .0265404
837.055 .0265256
837.744 .0265105
838.433 .0264952
839.121 .0264801
839.809 .0264645
840.497 .0264492
841.185 .0264333
841.872 .0264172
842.559 .0264006
843.245 .0263834
843.932 .0263659
844.617 .0263482
845.303 .0263302
845.988 .0263121
846.673 .0262946
847.358 .0262782
848.042 .0262631
848.726 .0262497
849.410 .0262375
850.093 .0262263
850.776 .0262158
851.459 .0262056
852.141 .0261941
852.823 .0261817
853.505 .0261686
854.186 .0261543
854.867 .0261395
855.548 .0261250
856.228 .0261118
856.908 .0261006
857.588 .0260907
858.267 .0260817
858.946 .0260723
859.625 .0260624
860.303 .0260505
860.981 .0260358
861.659 .0260194
862.336 .0260013
863.013 .0259820
863.690 .0259627
864.366 .0259438
865.042 .0259253
865.718 .0259069
866.393 .0258881
867.068 .0258680
867.743 .0258459
868.417 .0258219
869.091 .0257957
869.765 .0257682
870.438 .0257406
871.111 .0257130
871.783 .0256860
872.456 .0256601
873.127 .0256354
873.799 .0256117
874.470 .0255891
875.141 .0255677
875.811 .0255474
876.481 .0255282
877.151 .0255100
877.820 .0254932
878.489 .0254781
879.158 .0254645
879.826 .0254521
880.494 .0254407
881.162 .0254300
881.829 .0254195
882.496 .0254085
883.163 .0253974
883.829 .0253865
884.495 .0253750
885.160 .0253633
885.825 .0253521
886.490 .0253417
887.154 .0253320
887.818 .0253224
888.482 .0253129
889.145 .0253027
889.808 .0252918
890.471 .0252803
891.133 .0252681
891.795 .0252559
892.456 .0252441
893.117 .0252327
893.778 .0252222
894.439 .0252128
895.099 .0252041
895.758 .0251962
896.417 .0251890
897.076 .0251821
897.735 .0251750
898.393 .0251680
899.051 .0251612
899.708 .0251546
900.365 .0251481
901.022 .0251418
901.678 .0251355
902.334 .0251287
902.990 .0251219
903.645 .0251148
904.300 .0251078
904.954 .0251007
905.608 .0250935
906.262 .0250872
906.915 .0250812
907.568 .0250754
908.221 .0250699
908.873 .0250643
909.525 .0250584
910.176 .0250520
910.828 .0250453
911.478 .0250385
912.129 .0250315
912.778 .0250242
913.428 .0250172
914.077 .0250105
914.726 .0250038
915.375 .0249969
916.023 .0249908
916.670 .0249856
917.318 .0249807
917.964 .0249773
918.611 .0249754
919.257 .0249743
919.903 .0249738
920.548 .0249727
921.193 .0249714
921.838 .0249698
922.482 .0249677
923.126 .0249653
923.770 .0249628
924.413 .0249607
925.056 .0249590
925.698 .0249579
926.340 .0249575
926.982 .0249569
927.623 .0249558
928.264 .0249533
928.904 .0249489
929.544 .0249424
930.184 .0249344
930.823 .0249256
931.462 .0249164
932.101 .0249072
932.739 .0248988
933.377 .0248914
934.014 .0248844
934.651 .0248781
935.288 .0248716
935.924 .0248650
936.560 .0248579
937.196 .0248502
937.831 .0248427
938.466 .0248355
939.100 .0248291
939.734 .0248240
940.368 .0248198
941.001 .0248165
941.634 .0248131
942.266 .0248102
942.899 .0248064
943.530 .0248014
944.162 .0247947
944.793 .0247859
945.423 .0247752
946.053 .0247626
946.683 .0247481
947.313 .0247331
947.942 .0247176
948.571 .0247016
949.199 .0246849
949.827 .0246671
950.455 .0246486
951.082 .0246291
951.709 .0246089
952.335 .0245885
952.961 .0245687
953.587 .0245504
954.212 .0245336
954.837 .0245190
955.462 .0245074
956.086 .0244978
956.710 .0244902
957.334 .0244837
957.957 .0244777
958.579 .0244720
959.202 .0244670
959.824 .0244626
960.445 .0244598
961.067 .0244580
961.688 .0244571
962.308 .0244563
962.928 .0244560
963.548 .0244548
964.168 .0244527
964.787 .0244505
965.406 .0244480
966.024 .0244458
966.642 .0244450
967.260 .0244454
967.877 .0244481
968.494 .0244516
969.110 .0244557
969.727 .0244591
970.342 .0244622
970.958 .0244641
971.573 .0244650
972.188 .0244662
972.802 .0244674
973.416 .0244688
974.030 .0244703
974.643 .0244714
975.256 .0244714
975.869 .0244697
976.481 .0244656
977.093 .0244590
977.705 .0244511
978.316 .0244421
978.927 .0244334
979.538 .0244258
980.148 .0244193
980.758 .0244139
981.367 .0244101
981.977 .0244071
982.586 .0244037
983.194 .0244004
983.802 .0243962
984.410 .0243911
985.018 .0243858
985.625 .0243799
986.232 .0243740
986.838 .0243681
987.445 .0243625
988.050 .0243563
988.656 .0243498
989.261 .0243431
989.866 .0243357
990.471 .0243289
991.075 .0243222
991.679 .0243154
992.282 .0243095
992.886 .0243047
993.489 .0243006
994.091 .0242975
994.694 .0242954
995.296 .0242940
995.897 .0242929
996.499 .0242920
997.100 .0242916
997.701 .0242912
998.301 .0242911
998.901 .0242912
999.501 .0242911
1000.101 .0242911
1000.700 .0242902
1001.299 .0242882
1001.898 .0242851
1002.496 .0242815
1003.094 .0242763
1003.692 .0242699
1004.289 .0242632
1004.887 .0242561
1005.484 .0242493
1006.080 .0242435
1006.677 .0242381
1007.273 .0242329
1007.868 .0242278
1008.464 .0242223
1009.059 .0242159
1009.654 .0242087
1010.249 .0242006
1010.843 .0241915
1011.437 .0241825
1012.031 .0241730
1012.625 .0241631
1013.218 .0241537
1013.811 .0241457
1014.404 .0241381
1014.997 .0241312
1015.589 .0241242
1016.181 .0241182
1016.773 .0241133
1017.365 .0241101
1017.956 .0241077
1018.547 .0241070
1019.138 .0241077
1019.728 .0241095
1020.319 .0241114
1020.909 .0241132
1021.499 .0241132
1022.088 .0241115
1022.678 .0241069
1023.267 .0240995
1023.856 .0240904
1024.445 .0240798
1025.033 .0240688
1025.621 .0240579
1026.209 .0240469
1026.797 .0240357
1027.385 .0240243
1027.972 .0240139
1028.560 .0240038
1029.147 .0239946
1029.734 .0239865
1030.320 .0239797
1030.907 .0239744
1031.493 .0239715
1032.079 .0239704
1032.665 .0239708
1033.250 .0239720
1033.836 .0239723
1034.421 .0239724
1035.006 .0239715
1035.591 .0239701
1036.176 .0239668
1036.761 .0239619
1037.345 .0239560
1037.929 .0239476
1038.514 .0239367
1039.097 .0239234
1039.681 .0239094
1040.265 .0238945
1040.848 .0238787
1041.432 .0238627
1042.015 .0238470
1042.598 .0238335
1043.181 .0238224
1043.764 .0238131
1044.346 .0238061
1044.929 .0238018
1045.511 .0237987
1046.094 .0237962
1046.676 .0237947
1047.258 .0237934
1047.840 .0237918
1048.422 .0237893
1049.003 .0237853
1049.585 .0237787
1050.166 .0237702
1050.748 .0237602
1051.329 .0237486
1051.910 .0237361
1052.491 .0237229
1053.072 .0237098
1053.653 .0236980
1054.234 .0236884
1054.815 .0236799
1055.396 .0236726
1055.976 .0236679
1056.557 .0236644
1057.138 .0236603
1057.718 .0236552
1058.298 .0236489
1058.879 .0236405
1059.459 .0236299
1060.039 .0236163
1060.620 .0236001
1061.200 .0235832
1061.780 .0235647
1062.360 .0235446
1062.940 .0235250
1063.520 .0235073
1064.101 .0234900
1064.681 .0234728
1065.261 .0234544
1065.841 .0234344
1066.421 .0234132
1067.001 .0233903
1067.581 .0233660
1068.161 .0233436
1068.741 .0233238
1069.321 .0233076
1069.901 .0232958
1070.482 .0232896
1071.062 .0232860
1071.642 .0232864
1072.222 .0232870
1072.803 .0232851
1073.383 .0232799
1073.963 .0232713
1074.544 .0232601
1075.124 .0232476
1075.705 .0232344
1076.286 .0232218
1076.866 .0232115
1077.447 .0232060
1078.028 .0232013
1078.609 .0231987
1079.190 .0231969
1079.771 .0231962
1080.352 .0231942
1080.934 .0231913
1081.515 .0231873
1082.097 .0231827
1082.679 .0231781
1083.260 .0231721
1083.842 .0231650
1084.424 .0231569
1085.007 .0231493
1085.589 .0231423
1086.172 .0231325
1086.754 .0231221
1087.337 .0231104
1087.920 .0230976
1088.503 .0230851
1089.087 .0230718
1089.670 .0230570
1090.254 .0230422
1090.838 .0230314
1091.422 .0230210
1092.006 .0230128
1092.590 .0230080
1093.175 .0230036
1093.760 .0229978
1094.345 .0229910
1094.930 .0229791
1095.516 .0229649
1096.102 .0229516
1096.688 .0229375
1097.274 .0229242
1097.860 .0229181
1098.447 .0229162
1099.034 .0229209
1099.622 .0229323
1100.209 .0229484
1100.797 .0229603
1101.385 .0229689
1101.973 .0229729
1102.562 .0229693
1103.151 .0229614
1103.740 .0229506
1104.330 .0229386
1104.920 .0229313
1105.510 .0229266
1106.101 .0229276
1106.691 .0229338
1107.283 .0229462
1107.874 .0229575
1108.466 .0229669
1109.058 .0229719
1109.651 .0229731
1110.244 .0229699
1110.837 .0229673
1111.431 .0229671
1112.025 .0229683
1112.620 .0229746
1113.215 .0229897
1113.810 .0230126
1114.406 .0230425
1115.002 .0230771
1115.599 .0231155
1116.196 .0231501
1116.793 .0231783
1117.391 .0231985
1117.989 .0232112
1118.588 .0232191
1119.187 .0232221
1119.787 .0232195
1120.387 .0232188
1120.988 .0232174
1121.589 .0232154
1122.190 .0232145
1122.793 .0232151
1123.395 .0232147
1123.998 .0232112
1124.602 .0232031
1125.206 .0231926
1125.811 .0231808
1126.416 .0231710
1127.022 .0231622
1127.628 .0231604
1128.235 .0231652
1128.843 .0231760
1129.451 .0231957
1130.059 .0232249
1130.669 .0232617
1131.278 .0233101
1131.889 .0233641
1132.500 .0234236
1133.112 .0234826
1133.724 .0235359
1134.337 .0235854
1134.950 .0236295
1135.564 .0236675
1136.179 .0237015
1136.795 .0237390
1137.411 .0237901
1138.028 .0238489
1138.645 .0239270
1139.263 .0240160
1139.882 .0241115
1140.502 .0242117
1141.122 .0243270
1141.743 .0244515
1142.365 .0246159
1142.987 .0244364
1143.611 .0246147
1144.235 .0253242
1144.859 .0254419
1145.485 .0262606
