Measurement Sequence started on: 10-20-44-796
Integration time: 35
Scans to Average: 2 
>>>>>Begin Spectral Data<<<<<
432.953 .0304783
433.882 .0292625
434.810 .0354491
435.737 .0344140
436.662 .0342513
437.586 .0337028
438.509 .0338220
439.431 .0338675
440.351 .0337266
441.269 .0336364
442.187 .0335580
443.103 .0334829
444.018 .0334212
444.932 .0333492
445.844 .0332681
446.756 .0331941
447.666 .0331321
448.575 .0330690
449.482 .0330266
450.388 .0329965
451.294 .0329737
452.198 .0329580
453.100 .0329396
454.002 .0329230
454.902 .0329027
455.801 .0328818
456.699 .0328609
457.596 .0328510
458.492 .0328475
459.387 .0328473
460.280 .0328458
461.172 .0328449
462.064 .0328393
462.954 .0328249
463.843 .0328056
464.730 .0327748
465.617 .0327366
466.503 .0326840
467.387 .0326243
468.271 .0325588
469.153 .0324915
470.035 .0324221
470.915 .0323539
471.794 .0322881
472.673 .0322283
473.550 .0321730
474.426 .0321259
475.301 .0320865
476.175 .0320551
477.048 .0320281
477.920 .0320104
478.791 .0319972
479.661 .0319905
480.530 .0319904
481.398 .0320000
482.266 .0320142
483.132 .0320338
483.997 .0320573
484.861 .0320801
485.724 .0321033
486.587 .0321230
487.448 .0321340
488.308 .0321398
489.168 .0321386
490.026 .0321296
490.884 .0321113
491.741 .0320879
492.597 .0320574
493.452 .0320213
494.306 .0319824
495.159 .0319357
496.011 .0318824
496.862 .0318261
497.713 .0317644
498.562 .0316948
499.411 .0316236
500.259 .0315494
501.106 .0314702
501.952 .0313871
502.798 .0312981
503.642 .0312059
504.486 .0311119
505.329 .0310188
506.171 .0309215
507.012 .0308240
507.852 .0307278
508.692 .0306286
509.531 .0305281
510.369 .0304263
511.206 .0303182
512.043 .0302028
512.878 .0300775
513.713 .0299420
514.547 .0297962
515.381 .0296486
516.213 .0294970
517.045 .0293453
517.876 .0291930
518.706 .0290342
519.536 .0288692
520.365 .0287024
521.193 .0285304
522.020 .0283588
522.847 .0281872
523.673 .0280185
524.498 .0278526
525.323 .0276899
526.146 .0275315
526.969 .0273828
527.792 .0272410
528.614 .0270994
529.435 .0269648
530.255 .0268467
531.075 .0267386
531.894 .0266496
532.712 .0265816
533.530 .0265319
534.347 .0264981
535.163 .0264653
535.979 .0264257
536.794 .0263873
537.608 .0263504
538.422 .0263122
539.235 .0262791
540.048 .0262615
540.860 .0262554
541.671 .0262658
542.481 .0262897
543.292 .0263199
544.101 .0263525
544.910 .0263842
545.718 .0264023
546.526 .0264150
547.333 .0264260
548.139 .0264459
548.945 .0264800
549.750 .0265297
550.555 .0265893
551.359 .0266576
552.162 .0267334
552.965 .0268116
553.768 .0268843
554.569 .0269579
555.371 .0270248
556.171 .0270924
556.972 .0271572
557.771 .0272230
558.570 .0272920
559.369 .0273636
560.167 .0274363
560.964 .0275073
561.761 .0275727
562.558 .0276363
563.354 .0276963
564.149 .0277561
564.944 .0278157
565.738 .0278773
566.532 .0279426
567.325 .0280119
568.118 .0280854
568.910 .0281633
569.702 .0282441
570.494 .0283290
571.285 .0284118
572.075 .0284944
572.865 .0285747
573.654 .0286511
574.443 .0287239
575.232 .0287925
576.020 .0288579
576.807 .0289193
577.594 .0289760
578.381 .0290299
579.167 .0290821
579.952 .0291353
580.738 .0291900
581.522 .0292470
582.307 .0293064
583.091 .0293662
583.874 .0294235
584.657 .0294771
585.440 .0295268
586.222 .0295711
587.004 .0296094
587.785 .0296445
588.566 .0296758
589.346 .0297046
590.126 .0297324
590.906 .0297588
591.685 .0297840
592.464 .0298064
593.242 .0298247
594.020 .0298377
594.797 .0298477
595.575 .0298545
596.351 .0298589
597.128 .0298628
597.904 .0298667
598.679 .0298704
599.454 .0298742
600.229 .0298776
601.004 .0298792
601.778 .0298798
602.551 .0298782
603.325 .0298744
604.097 .0298685
604.870 .0298605
605.642 .0298513
606.414 .0298411
607.185 .0298300
607.956 .0298180
608.727 .0298048
609.497 .0297907
610.267 .0297755
611.037 .0297597
611.806 .0297430
612.575 .0297262
613.344 .0297092
614.112 .0296918
614.880 .0296749
615.647 .0296586
616.414 .0296433
617.181 .0296296
617.948 .0296173
618.714 .0296065
619.480 .0295971
620.245 .0295887
621.011 .0295799
621.775 .0295703
622.540 .0295596
623.304 .0295471
624.068 .0295342
624.832 .0295211
625.595 .0295081
626.358 .0294964
627.120 .0294863
627.883 .0294765
628.645 .0294671
629.406 .0294570
630.168 .0294454
630.929 .0294327
631.689 .0294184
632.450 .0294023
633.210 .0293862
633.970 .0293708
634.729 .0293564
635.489 .0293427
636.248 .0293298
637.006 .0293159
637.765 .0293009
638.523 .0292841
639.280 .0292648
640.038 .0292434
640.795 .0292215
641.552 .0291987
642.309 .0291763
643.065 .0291553
643.821 .0291359
644.577 .0291181
645.332 .0291019
646.088 .0290861
646.843 .0290703
647.597 .0290544
648.352 .0290381
649.106 .0290219
649.860 .0290057
650.613 .0289901
651.367 .0289753
652.120 .0289615
652.872 .0289485
653.625 .0289354
654.377 .0289226
655.129 .0289099
655.881 .0288965
656.632 .0288830
657.384 .0288690
658.135 .0288553
658.885 .0288414
659.636 .0288274
660.386 .0288136
661.136 .0288003
661.885 .0287875
662.635 .0287756
663.384 .0287641
664.133 .0287540
664.881 .0287450
665.630 .0287367
666.378 .0287292
667.126 .0287220
667.874 .0287142
668.621 .0287055
669.368 .0286953
670.115 .0286836
670.862 .0286708
671.608 .0286574
672.354 .0286435
673.100 .0286294
673.846 .0286155
674.591 .0286017
675.337 .0285881
676.082 .0285746
676.826 .0285602
677.571 .0285460
678.315 .0285317
679.059 .0285176
679.803 .0285044
680.547 .0284922
681.290 .0284810
682.033 .0284699
682.776 .0284586
683.518 .0284462
684.261 .0284330
685.003 .0284185
685.745 .0284029
686.487 .0283868
687.228 .0283712
687.969 .0283558
688.710 .0283411
689.451 .0283270
690.192 .0283126
690.932 .0282975
691.672 .0282814
692.412 .0282635
693.152 .0282447
693.891 .0282249
694.630 .0282055
695.369 .0281871
696.108 .0281707
696.846 .0281558
697.585 .0281425
698.323 .0281306
699.061 .0281191
699.798 .0281072
700.536 .0280952
701.273 .0280822
702.010 .0280691
702.746 .0280556
703.483 .0280420
704.219 .0280287
704.955 .0280156
705.691 .0280022
706.427 .0279887
707.162 .0279744
707.897 .0279595
708.632 .0279438
709.367 .0279277
710.101 .0279113
710.835 .0278950
711.569 .0278790
712.303 .0278624
713.037 .0278460
713.770 .0278300
714.503 .0278136
715.236 .0277973
715.969 .0277809
716.702 .0277646
717.434 .0277490
718.166 .0277339
718.898 .0277196
719.629 .0277067
720.361 .0276953
721.092 .0276843
721.823 .0276733
722.554 .0276625
723.284 .0276509
724.014 .0276378
724.744 .0276238
725.474 .0276084
726.204 .0275921
726.933 .0275758
727.662 .0275592
728.391 .0275432
729.120 .0275278
729.849 .0275127
730.577 .0274975
731.305 .0274819
732.033 .0274658
732.760 .0274484
733.488 .0274304
734.215 .0274120
734.942 .0273935
735.669 .0273752
736.395 .0273574
737.122 .0273405
737.848 .0273241
738.573 .0273080
739.299 .0272914
740.024 .0272744
740.750 .0272563
741.474 .0272370
742.199 .0272164
742.924 .0271950
743.648 .0271734
744.372 .0271515
745.096 .0271298
745.819 .0271089
746.543 .0270890
747.266 .0270702
747.989 .0270525
748.711 .0270364
749.434 .0270216
750.156 .0270083
750.878 .0269963
751.599 .0269859
752.321 .0269771
753.042 .0269699
753.763 .0269639
754.484 .0269593
755.205 .0269556
755.925 .0269521
756.645 .0269483
757.365 .0269441
758.085 .0269385
758.804 .0269313
759.523 .0269224
760.242 .0269118
760.961 .0268993
761.679 .0268850
762.397 .0268687
763.115 .0268507
763.833 .0268314
764.551 .0268108
765.268 .0267895
765.985 .0267677
766.702 .0267457
767.418 .0267238
768.134 .0267017
768.850 .0266801
769.566 .0266586
770.282 .0266374
770.997 .0266164
771.712 .0265958
772.427 .0265755
773.142 .0265559
773.856 .0265373
774.570 .0265192
775.284 .0265016
775.998 .0264843
776.711 .0264668
777.424 .0264490
778.137 .0264311
778.849 .0264130
779.562 .0263948
780.274 .0263770
780.986 .0263595
781.697 .0263427
782.409 .0263266
783.120 .0263116
783.831 .0262974
784.541 .0262842
785.252 .0262721
785.962 .0262603
786.671 .0262494
787.381 .0262391
788.090 .0262290
788.799 .0262195
789.508 .0262100
790.217 .0262007
790.925 .0261913
791.633 .0261816
792.341 .0261718
793.048 .0261615
793.755 .0261508
794.462 .0261396
795.169 .0261276
795.875 .0261154
796.581 .0261027
797.287 .0260901
797.993 .0260775
798.698 .0260653
799.403 .0260534
800.108 .0260419
800.812 .0260307
801.517 .0260202
802.221 .0260100
802.924 .0260007
803.628 .0259922
804.331 .0259849
805.034 .0259788
805.736 .0259734
806.439 .0259679
807.141 .0259628
807.843 .0259574
808.544 .0259514
809.245 .0259445
809.946 .0259370
810.647 .0259287
811.347 .0259199
812.047 .0259107
812.747 .0259013
813.447 .0258918
814.146 .0258820
814.845 .0258716
815.543 .0258608
816.242 .0258498
816.940 .0258386
817.638 .0258278
818.335 .0258182
819.032 .0258086
819.729 .0257994
820.426 .0257901
821.122 .0257806
821.818 .0257700
822.514 .0257581
823.209 .0257452
823.905 .0257316
824.599 .0257176
825.294 .0257030
825.988 .0256884
826.682 .0256743
827.376 .0256602
828.069 .0256454
828.762 .0256301
829.455 .0256143
830.147 .0255978
830.840 .0255811
831.531 .0255647
832.223 .0255489
832.914 .0255340
833.605 .0255200
834.296 .0255066
834.986 .0254936
835.676 .0254813
836.366 .0254687
837.055 .0254563
837.744 .0254442
838.433 .0254318
839.121 .0254199
839.809 .0254085
840.497 .0253978
841.185 .0253876
841.872 .0253781
842.559 .0253691
843.245 .0253603
843.932 .0253515
844.617 .0253425
845.303 .0253335
845.988 .0253247
846.673 .0253155
847.358 .0253062
848.042 .0252968
848.726 .0252872
849.410 .0252771
850.093 .0252664
850.776 .0252556
851.459 .0252444
852.141 .0252327
852.823 .0252207
853.505 .0252084
854.186 .0251963
854.867 .0251839
855.548 .0251717
856.228 .0251602
856.908 .0251498
857.588 .0251404
858.267 .0251319
858.946 .0251243
859.625 .0251168
860.303 .0251093
860.981 .0251013
861.659 .0250923
862.336 .0250818
863.013 .0250699
863.690 .0250572
864.366 .0250435
865.042 .0250295
865.718 .0250153
866.393 .0250012
867.068 .0249876
867.743 .0249739
868.417 .0249595
869.091 .0249449
869.765 .0249306
870.438 .0249154
871.111 .0249002
871.783 .0248852
872.456 .0248703
873.127 .0248562
873.799 .0248426
874.470 .0248294
875.141 .0248164
875.811 .0248037
876.481 .0247903
877.151 .0247760
877.820 .0247613
878.489 .0247458
879.158 .0247297
879.826 .0247135
880.494 .0246968
881.162 .0246798
881.829 .0246629
882.496 .0246458
883.163 .0246287
883.829 .0246119
884.495 .0245954
885.160 .0245799
885.825 .0245652
886.490 .0245520
887.154 .0245396
887.818 .0245287
888.482 .0245188
889.145 .0245090
889.808 .0244998
890.471 .0244908
891.133 .0244821
891.795 .0244739
892.456 .0244663
893.117 .0244599
893.778 .0244544
894.439 .0244497
895.099 .0244452
895.758 .0244408
896.417 .0244357
897.076 .0244291
897.735 .0244214
898.393 .0244128
899.051 .0244033
899.708 .0243935
900.365 .0243834
901.022 .0243730
901.678 .0243622
902.334 .0243503
902.990 .0243377
903.645 .0243240
904.300 .0243093
904.954 .0242934
905.608 .0242773
906.262 .0242619
906.915 .0242475
907.568 .0242345
908.221 .0242233
908.873 .0242134
909.525 .0242043
910.176 .0241953
910.828 .0241861
911.478 .0241770
912.129 .0241673
912.778 .0241575
913.428 .0241480
914.077 .0241388
914.726 .0241302
915.375 .0241220
916.023 .0241150
916.670 .0241082
917.318 .0241013
917.964 .0240943
918.611 .0240870
919.257 .0240800
919.903 .0240731
920.548 .0240665
921.193 .0240611
921.838 .0240567
922.482 .0240527
923.126 .0240499
923.770 .0240478
924.413 .0240462
925.056 .0240450
925.698 .0240438
926.340 .0240429
926.982 .0240421
927.623 .0240413
928.264 .0240400
928.904 .0240378
929.544 .0240345
930.184 .0240293
930.823 .0240227
931.462 .0240144
932.101 .0240046
932.739 .0239938
933.377 .0239825
934.014 .0239704
934.651 .0239579
935.288 .0239453
935.924 .0239322
936.560 .0239186
937.196 .0239045
937.831 .0238893
938.466 .0238733
939.100 .0238566
939.734 .0238392
940.368 .0238216
941.001 .0238042
941.634 .0237868
942.266 .0237700
942.899 .0237538
943.530 .0237377
944.162 .0237216
944.793 .0237059
945.423 .0236898
946.053 .0236732
946.683 .0236566
947.313 .0236400
947.942 .0236237
948.571 .0236082
949.199 .0235934
949.827 .0235795
950.455 .0235667
951.082 .0235545
951.709 .0235425
952.335 .0235310
952.961 .0235195
953.587 .0235078
954.212 .0234964
954.837 .0234855
955.462 .0234747
956.086 .0234648
956.710 .0234557
957.334 .0234471
957.957 .0234389
958.579 .0234305
959.202 .0234216
959.824 .0234123
960.445 .0234026
961.067 .0233930
961.688 .0233839
962.308 .0233760
962.928 .0233687
963.548 .0233624
964.168 .0233567
964.787 .0233510
965.406 .0233447
966.024 .0233381
966.642 .0233305
967.260 .0233223
967.877 .0233137
968.494 .0233053
969.110 .0232974
969.727 .0232904
970.342 .0232843
970.958 .0232792
971.573 .0232747
972.188 .0232708
972.802 .0232669
973.416 .0232633
974.030 .0232596
974.643 .0232559
975.256 .0232523
975.869 .0232490
976.481 .0232462
977.093 .0232444
977.705 .0232439
978.316 .0232450
978.927 .0232473
979.538 .0232512
980.148 .0232560
980.758 .0232612
981.367 .0232662
981.977 .0232705
982.586 .0232733
983.194 .0232745
983.802 .0232741
984.410 .0232722
985.018 .0232693
985.625 .0232662
986.232 .0232634
986.838 .0232610
987.445 .0232590
988.050 .0232570
988.656 .0232542
989.261 .0232506
989.866 .0232447
990.471 .0232369
991.075 .0232282
991.679 .0232184
992.282 .0232085
992.886 .0231999
993.489 .0231929
994.091 .0231877
994.694 .0231844
995.296 .0231822
995.897 .0231806
996.499 .0231787
997.100 .0231761
997.701 .0231731
998.301 .0231701
998.901 .0231678
999.501 .0231662
1000.101 .0231664
1000.700 .0231684
1001.299 .0231711
1001.898 .0231751
1002.496 .0231791
1003.094 .0231827
1003.692 .0231856
1004.289 .0231879
1004.887 .0231900
1005.484 .0231926
1006.080 .0231956
1006.677 .0231995
1007.273 .0232043
1007.868 .0232097
1008.464 .0232147
1009.059 .0232192
1009.654 .0232223
1010.249 .0232237
1010.843 .0232234
1011.437 .0232226
1012.031 .0232207
1012.625 .0232192
1013.218 .0232181
1013.811 .0232173
1014.404 .0232167
1014.997 .0232160
1015.589 .0232142
1016.181 .0232121
1016.773 .0232090
1017.365 .0232055
1017.956 .0232010
1018.547 .0231974
1019.138 .0231943
1019.728 .0231930
1020.319 .0231936
1020.909 .0231957
1021.499 .0231987
1022.088 .0232029
1022.678 .0232068
1023.267 .0232103
1023.856 .0232133
1024.445 .0232161
1025.033 .0232183
1025.621 .0232207
1026.209 .0232228
1026.797 .0232246
1027.385 .0232260
1027.972 .0232271
1028.560 .0232268
1029.147 .0232248
1029.734 .0232210
1030.320 .0232148
1030.907 .0232067
1031.493 .0231967
1032.079 .0231855
1032.665 .0231740
1033.250 .0231629
1033.836 .0231520
1034.421 .0231413
1035.006 .0231309
1035.591 .0231211
1036.176 .0231112
1036.761 .0231017
1037.345 .0230926
1037.929 .0230846
1038.514 .0230768
1039.097 .0230701
1039.681 .0230648
1040.265 .0230609
1040.848 .0230579
1041.432 .0230555
1042.015 .0230530
1042.598 .0230506
1043.181 .0230483
1043.764 .0230468
1044.346 .0230461
1044.929 .0230471
1045.511 .0230488
1046.094 .0230516
1046.676 .0230551
1047.258 .0230587
1047.840 .0230619
1048.422 .0230650
1049.003 .0230677
1049.585 .0230696
1050.166 .0230711
1050.748 .0230739
1051.329 .0230767
1051.910 .0230804
1052.491 .0230842
1053.072 .0230871
1053.653 .0230882
1054.234 .0230882
1054.815 .0230854
1055.396 .0230809
1055.976 .0230744
1056.557 .0230661
1057.138 .0230568
1057.718 .0230468
1058.298 .0230357
1058.879 .0230238
1059.459 .0230117
1060.039 .0229991
1060.620 .0229841
1061.200 .0229699
1061.780 .0229551
1062.360 .0229401
1062.940 .0229253
1063.520 .0229113
1064.101 .0228979
1064.681 .0228856
1065.261 .0228742
1065.841 .0228632
1066.421 .0228535
1067.001 .0228437
1067.581 .0228322
1068.161 .0228207
1068.741 .0228099
1069.321 .0227989
1069.901 .0227879
1070.482 .0227790
1071.062 .0227703
1071.642 .0227624
1072.222 .0227561
1072.803 .0227503
1073.383 .0227451
1073.963 .0227403
1074.544 .0227350
1075.124 .0227289
1075.705 .0227213
1076.286 .0227126
1076.866 .0227033
1077.447 .0226944
1078.028 .0226855
1078.609 .0226763
1079.190 .0226686
1079.771 .0226633
1080.352 .0226588
1080.934 .0226547
1081.515 .0226508
1082.097 .0226474
1082.679 .0226421
1083.260 .0226360
1083.842 .0226302
1084.424 .0226258
1085.007 .0226227
1085.589 .0226203
1086.172 .0226189
1086.754 .0226169
1087.337 .0226146
1087.920 .0226105
1088.503 .0226033
1089.087 .0225935
1089.670 .0225801
1090.254 .0225637
1090.838 .0225472
1091.422 .0225314
1092.006 .0225168
1092.590 .0225052
1093.175 .0224972
1093.760 .0224907
1094.345 .0224866
1094.930 .0224845
1095.516 .0224856
1096.102 .0224886
1096.688 .0224939
1097.274 .0225007
1097.860 .0225105
1098.447 .0225211
1099.034 .0225316
1099.622 .0225403
1100.209 .0225471
1100.797 .0225496
1101.385 .0225477
1101.973 .0225392
1102.562 .0225274
1103.151 .0225112
1103.740 .0224928
1104.330 .0224727
1104.920 .0224531
1105.510 .0224344
1106.101 .0224192
1106.691 .0224093
1107.283 .0224052
1107.874 .0224076
1108.466 .0224189
1109.058 .0224354
1109.651 .0224593
1110.244 .0224857
1110.837 .0225125
1111.431 .0225359
1112.025 .0225558
1112.620 .0225708
1113.215 .0225801
1113.810 .0225852
1114.406 .0225882
1115.002 .0225901
1115.599 .0225913
1116.196 .0225894
1116.793 .0225821
1117.391 .0225676
1117.989 .0225446
1118.588 .0225126
1119.187 .0224728
1119.787 .0224296
1120.387 .0223897
1120.988 .0223589
1121.589 .0223442
1122.190 .0223451
1122.793 .0223593
1123.395 .0223878
1123.998 .0224252
1124.602 .0224668
1125.206 .0225076
1125.811 .0225518
1126.416 .0225971
1127.022 .0226464
1127.628 .0227000
1128.235 .0227572
1128.843 .0228203
1129.451 .0228875
1130.059 .0229514
1130.669 .0230079
1131.278 .0230533
1131.889 .0230845
1132.500 .0231021
1133.112 .0231102
1133.724 .0231103
1134.337 .0231087
1134.950 .0231038
1135.564 .0231006
1136.179 .0230972
1136.795 .0230957
1137.411 .0230975
1138.028 .0231026
1138.645 .0231107
1139.263 .0231228
1139.882 .0231452
1140.502 .0231830
1141.122 .0232373
1141.743 .0233151
1142.365 .0234142
1142.987 .0234657
1143.611 .0236562
1144.235 .0237756
1144.859 .0239591
1145.485 .0241751
