Measurement Sequence started on: 10-20-44-796
Integration time: 35
Scans to Average: 2 
>>>>>Begin Spectral Data<<<<<
432.953 .0424670
433.882 .0411268
434.810 .0397245
435.737 .0400013
436.662 .0377266
437.586 .0383967
438.509 .0379501
439.431 .0376349
440.351 .0374211
441.269 .0372683
442.187 .0372151
443.103 .0371913
444.018 .0372195
444.932 .0372857
445.844 .0373799
446.756 .0374923
447.666 .0376170
448.575 .0377374
449.482 .0378479
450.388 .0379443
451.294 .0380078
452.198 .0380479
453.100 .0380622
454.002 .0380656
454.902 .0380623
455.801 .0380607
456.699 .0380569
457.596 .0380536
458.492 .0380446
459.387 .0380226
460.280 .0379953
461.172 .0379559
462.064 .0379110
462.954 .0378578
463.843 .0378007
464.730 .0377501
465.617 .0377030
466.503 .0376649
467.387 .0376296
468.271 .0375961
469.153 .0375596
470.035 .0375148
470.915 .0374646
471.794 .0374012
472.673 .0373314
473.550 .0372589
474.426 .0371838
475.301 .0371054
476.175 .0370288
477.048 .0369532
477.920 .0368804
478.791 .0368105
479.661 .0367408
480.530 .0366755
481.398 .0366161
482.266 .0365643
483.132 .0365194
483.997 .0364804
484.861 .0364495
485.724 .0364250
486.587 .0364099
487.448 .0363980
488.308 .0363892
489.168 .0363841
490.026 .0363797
490.884 .0363730
491.741 .0363606
492.597 .0363430
493.452 .0363200
494.306 .0362903
495.159 .0362551
496.011 .0362152
496.862 .0361713
497.713 .0361211
498.562 .0360639
499.411 .0359978
500.259 .0359223
501.106 .0358360
501.952 .0357401
502.798 .0356377
503.642 .0355333
504.486 .0354289
505.329 .0353280
506.171 .0352322
507.012 .0351401
507.852 .0350486
508.692 .0349564
509.531 .0348568
510.369 .0347501
511.206 .0346371
512.043 .0345176
512.878 .0343943
513.713 .0342710
514.547 .0341489
515.381 .0340293
516.213 .0339132
517.045 .0337976
517.876 .0336733
518.706 .0335450
519.536 .0334082
520.365 .0332595
521.193 .0331026
522.020 .0329395
522.847 .0327736
523.673 .0326079
524.498 .0324400
525.323 .0322689
526.146 .0320989
526.969 .0319316
527.792 .0317627
528.614 .0315921
529.435 .0314272
530.255 .0312670
531.075 .0311075
531.894 .0309543
532.712 .0308031
533.530 .0306573
534.347 .0305255
535.163 .0304020
535.979 .0302957
536.794 .0302100
537.608 .0301436
538.422 .0300992
539.235 .0300740
540.048 .0300666
540.860 .0300666
541.671 .0300721
542.481 .0300803
543.292 .0300790
544.101 .0300754
544.910 .0300634
545.718 .0300461
546.526 .0300279
547.333 .0300107
548.139 .0299967
548.945 .0299918
549.750 .0299975
550.555 .0300113
551.359 .0300287
552.162 .0300468
552.965 .0300645
553.768 .0300804
554.569 .0300944
555.371 .0301110
556.171 .0301305
556.972 .0301616
557.771 .0302012
558.570 .0302508
559.369 .0303086
560.167 .0303710
560.964 .0304405
561.761 .0305095
562.558 .0305811
563.354 .0306517
564.149 .0307243
564.944 .0308008
565.738 .0308798
566.532 .0309626
567.325 .0310476
568.118 .0311343
568.910 .0312203
569.702 .0313026
570.494 .0313826
571.285 .0314582
572.075 .0315332
572.865 .0316068
573.654 .0316805
574.443 .0317542
575.232 .0318292
576.020 .0319023
576.807 .0319732
577.594 .0320400
578.381 .0321014
579.167 .0321597
579.952 .0322149
580.738 .0322690
581.522 .0323234
582.307 .0323766
583.091 .0324298
583.874 .0324800
584.657 .0325269
585.440 .0325681
586.222 .0326028
587.004 .0326327
587.785 .0326577
588.566 .0326788
589.346 .0326962
590.126 .0327102
590.906 .0327205
591.685 .0327261
592.464 .0327261
593.242 .0327223
594.020 .0327139
594.797 .0327020
595.575 .0326877
596.351 .0326727
597.128 .0326577
597.904 .0326435
598.679 .0326298
599.454 .0326166
600.229 .0326033
601.004 .0325897
601.778 .0325743
602.551 .0325572
603.325 .0325386
604.097 .0325186
604.870 .0324976
605.642 .0324768
606.414 .0324565
607.185 .0324368
607.956 .0324191
608.727 .0324027
609.497 .0323873
610.267 .0323730
611.037 .0323590
611.806 .0323446
612.575 .0323295
613.344 .0323133
614.112 .0322961
614.880 .0322780
615.647 .0322595
616.414 .0322399
617.181 .0322202
617.948 .0322006
618.714 .0321804
619.480 .0321602
620.245 .0321402
621.011 .0321193
621.775 .0320984
622.540 .0320776
623.304 .0320570
624.068 .0320363
624.832 .0320163
625.595 .0319966
626.358 .0319772
627.120 .0319573
627.883 .0319370
628.645 .0319161
629.406 .0318947
630.168 .0318721
630.929 .0318486
631.689 .0318244
632.450 .0317987
633.210 .0317716
633.970 .0317429
634.729 .0317126
635.489 .0316798
636.248 .0316439
637.006 .0316065
637.765 .0315673
638.523 .0315272
639.280 .0314874
640.038 .0314492
640.795 .0314135
641.552 .0313801
642.309 .0313496
643.065 .0313220
643.821 .0312966
644.577 .0312722
645.332 .0312482
646.088 .0312247
646.843 .0312010
647.597 .0311775
648.352 .0311550
649.106 .0311342
649.860 .0311145
650.613 .0310956
651.367 .0310777
652.120 .0310599
652.872 .0310417
653.625 .0310221
654.377 .0310019
655.129 .0309807
655.881 .0309584
656.632 .0309357
657.384 .0309130
658.135 .0308909
658.885 .0308690
659.636 .0308476
660.386 .0308263
661.136 .0308050
661.885 .0307835
662.635 .0307626
663.384 .0307424
664.133 .0307228
664.881 .0307028
665.630 .0306830
666.378 .0306639
667.126 .0306449
667.874 .0306259
668.621 .0306080
669.368 .0305909
670.115 .0305748
670.862 .0305589
671.608 .0305447
672.354 .0305322
673.100 .0305216
673.846 .0305120
674.591 .0305033
675.337 .0304961
676.082 .0304899
676.826 .0304841
677.571 .0304797
678.315 .0304760
679.059 .0304722
679.803 .0304681
680.547 .0304638
681.290 .0304587
682.033 .0304526
682.776 .0304459
683.518 .0304386
684.261 .0304300
685.003 .0304206
685.745 .0304098
686.487 .0303989
687.228 .0303880
687.969 .0303759
688.710 .0303630
689.451 .0303495
690.192 .0303349
690.932 .0303188
691.672 .0303011
692.412 .0302827
693.152 .0302632
693.891 .0302428
694.630 .0302222
695.369 .0302018
696.108 .0301819
696.846 .0301624
697.585 .0301434
698.323 .0301246
699.061 .0301056
699.798 .0300859
700.536 .0300654
701.273 .0300441
702.010 .0300224
702.746 .0300001
703.483 .0299782
704.219 .0299570
704.955 .0299358
705.691 .0299145
706.427 .0298932
707.162 .0298713
707.897 .0298488
708.632 .0298256
709.367 .0298019
710.101 .0297772
710.835 .0297525
711.569 .0297272
712.303 .0297019
713.037 .0296770
713.770 .0296530
714.503 .0296293
715.236 .0296065
715.969 .0295844
716.702 .0295632
717.434 .0295431
718.166 .0295239
718.898 .0295045
719.629 .0294851
720.361 .0294651
721.092 .0294444
721.823 .0294231
722.554 .0294015
723.284 .0293791
724.014 .0293560
724.744 .0293318
725.474 .0293060
726.204 .0292781
726.933 .0292484
727.662 .0292165
728.391 .0291829
729.120 .0291480
729.849 .0291130
730.577 .0290791
731.305 .0290475
732.033 .0290182
732.760 .0289913
733.488 .0289671
734.215 .0289448
734.942 .0289234
735.669 .0289027
736.395 .0288821
737.122 .0288616
737.848 .0288416
738.573 .0288215
739.299 .0288019
740.024 .0287831
740.750 .0287651
741.474 .0287475
742.199 .0287304
742.924 .0287133
743.648 .0286957
744.372 .0286778
745.096 .0286594
745.819 .0286400
746.543 .0286201
747.266 .0285998
747.989 .0285799
748.711 .0285611
749.434 .0285434
750.156 .0285274
750.878 .0285142
751.599 .0285037
752.321 .0284959
753.042 .0284906
753.763 .0284876
754.484 .0284862
755.205 .0284857
755.925 .0284856
756.645 .0284853
757.365 .0284849
758.085 .0284841
758.804 .0284822
759.523 .0284797
760.242 .0284766
760.961 .0284725
761.679 .0284679
762.397 .0284627
763.115 .0284563
763.833 .0284486
764.551 .0284397
765.268 .0284294
765.985 .0284176
766.702 .0284042
767.418 .0283893
768.134 .0283727
768.850 .0283554
769.566 .0283374
770.282 .0283196
770.997 .0283026
771.712 .0282872
772.427 .0282733
773.142 .0282614
773.856 .0282509
774.570 .0282419
775.284 .0282334
775.998 .0282252
776.711 .0282166
777.424 .0282075
778.137 .0281980
778.849 .0281886
779.562 .0281795
780.274 .0281712
780.986 .0281640
781.697 .0281582
782.409 .0281534
783.120 .0281498
783.831 .0281467
784.541 .0281438
785.252 .0281407
785.962 .0281374
786.671 .0281337
787.381 .0281295
788.090 .0281249
788.799 .0281196
789.508 .0281137
790.217 .0281072
790.925 .0281000
791.633 .0280922
792.341 .0280840
793.048 .0280748
793.755 .0280646
794.462 .0280536
795.169 .0280417
795.875 .0280290
796.581 .0280153
797.287 .0280012
797.993 .0279864
798.698 .0279716
799.403 .0279569
800.108 .0279426
800.812 .0279290
801.517 .0279161
802.221 .0279034
802.924 .0278908
803.628 .0278783
804.331 .0278661
805.034 .0278542
805.736 .0278432
806.439 .0278323
807.141 .0278218
807.843 .0278117
808.544 .0278013
809.245 .0277900
809.946 .0277778
810.647 .0277646
811.347 .0277504
812.047 .0277357
812.747 .0277207
813.447 .0277065
814.146 .0276933
814.845 .0276814
815.543 .0276702
816.242 .0276594
816.940 .0276486
817.638 .0276369
818.335 .0276245
819.032 .0276110
819.729 .0275966
820.426 .0275816
821.122 .0275658
821.818 .0275496
822.514 .0275328
823.209 .0275154
823.905 .0274978
824.599 .0274794
825.294 .0274599
825.988 .0274390
826.682 .0274171
827.376 .0273945
828.069 .0273712
828.762 .0273472
829.455 .0273226
830.147 .0272980
830.840 .0272735
831.531 .0272491
832.223 .0272252
832.914 .0272020
833.605 .0271793
834.296 .0271566
834.986 .0271345
835.676 .0271127
836.366 .0270917
837.055 .0270716
837.744 .0270524
838.433 .0270337
839.121 .0270158
839.809 .0269982
840.497 .0269809
841.185 .0269635
841.872 .0269455
842.559 .0269267
843.245 .0269076
843.932 .0268883
844.617 .0268695
845.303 .0268516
845.988 .0268350
846.673 .0268190
847.358 .0268037
848.042 .0267888
848.726 .0267732
849.410 .0267569
850.093 .0267397
850.776 .0267217
851.459 .0267031
852.141 .0266843
852.823 .0266659
853.505 .0266485
854.186 .0266326
854.867 .0266176
855.548 .0266039
856.228 .0265911
856.908 .0265791
857.588 .0265672
858.267 .0265558
858.946 .0265446
859.625 .0265333
860.303 .0265220
860.981 .0265105
861.659 .0264991
862.336 .0264877
863.013 .0264759
863.690 .0264641
864.366 .0264520
865.042 .0264396
865.718 .0264266
866.393 .0264136
867.068 .0264002
867.743 .0263863
868.417 .0263718
869.091 .0263567
869.765 .0263412
870.438 .0263252
871.111 .0263091
871.783 .0262935
872.456 .0262788
873.127 .0262647
873.799 .0262516
874.470 .0262398
875.141 .0262290
875.811 .0262192
876.481 .0262102
877.151 .0262020
877.820 .0261943
878.489 .0261872
879.158 .0261805
879.826 .0261745
880.494 .0261695
881.162 .0261646
881.829 .0261604
882.496 .0261565
883.163 .0261524
883.829 .0261479
884.495 .0261431
885.160 .0261382
885.825 .0261330
886.490 .0261278
887.154 .0261229
887.818 .0261181
888.482 .0261134
889.145 .0261087
889.808 .0261041
890.471 .0260994
891.133 .0260945
891.795 .0260894
892.456 .0260848
893.117 .0260808
893.778 .0260777
894.439 .0260758
895.099 .0260758
895.758 .0260776
896.417 .0260802
897.076 .0260841
897.735 .0260886
898.393 .0260934
899.051 .0260984
899.708 .0261031
900.365 .0261075
901.022 .0261115
901.678 .0261157
902.334 .0261198
902.990 .0261238
903.645 .0261279
904.300 .0261315
904.954 .0261344
905.608 .0261363
906.262 .0261370
906.915 .0261366
907.568 .0261358
908.221 .0261347
908.873 .0261334
909.525 .0261318
910.176 .0261304
910.828 .0261288
911.478 .0261271
912.129 .0261251
912.778 .0261217
913.428 .0261174
914.077 .0261124
914.726 .0261069
915.375 .0261013
916.023 .0260961
916.670 .0260918
917.318 .0260882
917.964 .0260849
918.611 .0260808
919.257 .0260757
919.903 .0260699
920.548 .0260630
921.193 .0260552
921.838 .0260470
922.482 .0260387
923.126 .0260305
923.770 .0260233
924.413 .0260167
925.056 .0260109
925.698 .0260059
926.340 .0260011
926.982 .0259968
927.623 .0259926
928.264 .0259885
928.904 .0259847
929.544 .0259815
930.184 .0259784
930.823 .0259743
931.462 .0259697
932.101 .0259644
932.739 .0259585
933.377 .0259517
934.014 .0259440
934.651 .0259359
935.288 .0259273
935.924 .0259181
936.560 .0259079
937.196 .0258974
937.831 .0258861
938.466 .0258735
939.100 .0258595
939.734 .0258443
940.368 .0258280
941.001 .0258119
941.634 .0257956
942.266 .0257800
942.899 .0257645
943.530 .0257491
944.162 .0257337
944.793 .0257183
945.423 .0257023
946.053 .0256860
946.683 .0256696
947.313 .0256534
947.942 .0256367
948.571 .0256198
949.199 .0256026
949.827 .0255849
950.455 .0255669
951.082 .0255486
951.709 .0255293
952.335 .0255103
952.961 .0254911
953.587 .0254720
954.212 .0254533
954.837 .0254349
955.462 .0254168
956.086 .0253986
956.710 .0253803
957.334 .0253613
957.957 .0253419
958.579 .0253229
959.202 .0253037
959.824 .0252846
960.445 .0252666
961.067 .0252489
961.688 .0252322
962.308 .0252164
962.928 .0252011
963.548 .0251862
964.168 .0251714
964.787 .0251564
965.406 .0251415
966.024 .0251267
966.642 .0251122
967.260 .0250978
967.877 .0250843
968.494 .0250705
969.110 .0250562
969.727 .0250410
970.342 .0250249
970.958 .0250070
971.573 .0249880
972.188 .0249679
972.802 .0249467
973.416 .0249257
974.030 .0249047
974.643 .0248842
975.256 .0248652
975.869 .0248468
976.481 .0248289
977.093 .0248116
977.705 .0247950
978.316 .0247781
978.927 .0247618
979.538 .0247462
980.148 .0247310
980.758 .0247163
981.367 .0247026
981.977 .0246895
982.586 .0246774
983.194 .0246668
983.802 .0246571
984.410 .0246482
985.018 .0246401
985.625 .0246324
986.232 .0246249
986.838 .0246175
987.445 .0246094
988.050 .0246003
988.656 .0245907
989.261 .0245797
989.866 .0245671
990.471 .0245538
991.075 .0245406
991.679 .0245267
992.282 .0245126
992.886 .0244984
993.489 .0244841
994.091 .0244699
994.694 .0244557
995.296 .0244409
995.897 .0244256
996.499 .0244097
997.100 .0243928
997.701 .0243759
998.301 .0243598
998.901 .0243449
999.501 .0243315
1000.101 .0243202
1000.700 .0243108
1001.299 .0243022
1001.898 .0242940
1002.496 .0242860
1003.094 .0242767
1003.692 .0242666
1004.289 .0242550
1004.887 .0242425
1005.484 .0242301
1006.080 .0242186
1006.677 .0242078
1007.273 .0241983
1007.868 .0241899
1008.464 .0241820
1009.059 .0241740
1009.654 .0241658
1010.249 .0241567
1010.843 .0241475
1011.437 .0241383
1012.031 .0241291
1012.625 .0241209
1013.218 .0241142
1013.811 .0241085
1014.404 .0241044
1014.997 .0241011
1015.589 .0240973
1016.181 .0240926
1016.773 .0240870
1017.365 .0240807
1017.956 .0240730
1018.547 .0240651
1019.138 .0240569
1019.728 .0240490
1020.319 .0240420
1020.909 .0240350
1021.499 .0240281
1022.088 .0240220
1022.678 .0240157
1023.267 .0240093
1023.856 .0240022
1024.445 .0239957
1025.033 .0239892
1025.621 .0239832
1026.209 .0239781
1026.797 .0239731
1027.385 .0239688
1027.972 .0239660
1028.560 .0239643
1029.147 .0239637
1029.734 .0239646
1030.320 .0239671
1030.907 .0239704
1031.493 .0239748
1032.079 .0239800
1032.665 .0239852
1033.250 .0239901
1033.836 .0239953
1034.421 .0239992
1035.006 .0240025
1035.591 .0240061
1036.176 .0240090
1036.761 .0240122
1037.345 .0240151
1037.929 .0240172
1038.514 .0240176
1039.097 .0240174
1039.681 .0240159
1040.265 .0240131
1040.848 .0240100
1041.432 .0240073
1042.015 .0240051
1042.598 .0240051
1043.181 .0240073
1043.764 .0240120
1044.346 .0240182
1044.929 .0240264
1045.511 .0240341
1046.094 .0240422
1046.676 .0240502
1047.258 .0240581
1047.840 .0240653
1048.422 .0240724
1049.003 .0240783
1049.585 .0240826
1050.166 .0240858
1050.748 .0240880
1051.329 .0240888
1051.910 .0240883
1052.491 .0240865
1053.072 .0240838
1053.653 .0240799
1054.234 .0240757
1054.815 .0240702
1055.396 .0240647
1055.976 .0240584
1056.557 .0240511
1057.138 .0240425
1057.718 .0240341
1058.298 .0240257
1058.879 .0240164
1059.459 .0240077
1060.039 .0239990
1060.620 .0239894
1061.200 .0239798
1061.780 .0239710
1062.360 .0239631
1062.940 .0239568
1063.520 .0239532
1064.101 .0239514
1064.681 .0239518
1065.261 .0239543
1065.841 .0239579
1066.421 .0239626
1067.001 .0239690
1067.581 .0239759
1068.161 .0239831
1068.741 .0239933
1069.321 .0240039
1069.901 .0240154
1070.482 .0240279
1071.062 .0240407
1071.642 .0240520
1072.222 .0240616
1072.803 .0240697
1073.383 .0240750
1073.963 .0240805
1074.544 .0240870
1075.124 .0240936
1075.705 .0241029
1076.286 .0241124
1076.866 .0241216
1077.447 .0241308
1078.028 .0241393
1078.609 .0241457
1079.190 .0241531
1079.771 .0241629
1080.352 .0241753
1080.934 .0241898
1081.515 .0242074
1082.097 .0242267
1082.679 .0242463
1083.260 .0242641
1083.842 .0242773
1084.424 .0242857
1085.007 .0242911
1085.589 .0242919
1086.172 .0242924
1086.754 .0242941
1087.337 .0242986
1087.920 .0243060
1088.503 .0243167
1089.087 .0243289
1089.670 .0243413
1090.254 .0243537
1090.838 .0243646
1091.422 .0243734
1092.006 .0243798
1092.590 .0243824
1093.175 .0243832
1093.760 .0243829
1094.345 .0243819
1094.930 .0243790
1095.516 .0243764
1096.102 .0243752
1096.688 .0243734
1097.274 .0243733
1097.860 .0243730
1098.447 .0243738
1099.034 .0243751
1099.622 .0243745
1100.209 .0243703
1100.797 .0243645
1101.385 .0243573
1101.973 .0243515
1102.562 .0243484
1103.151 .0243505
1103.740 .0243573
1104.330 .0243706
1104.920 .0243895
1105.510 .0244110
1106.101 .0244330
1106.691 .0244558
1107.283 .0244731
1107.874 .0244880
1108.466 .0244996
1109.058 .0245115
1109.651 .0245249
1110.244 .0245432
1110.837 .0245645
1111.431 .0245908
1112.025 .0246186
1112.620 .0246461
1113.215 .0246703
1113.810 .0246913
1114.406 .0247073
1115.002 .0247173
1115.599 .0247253
1116.196 .0247334
1116.793 .0247397
1117.391 .0247500
1117.989 .0247609
1118.588 .0247738
1119.187 .0247835
1119.787 .0247900
1120.387 .0247920
1120.988 .0247912
1121.589 .0247876
1122.190 .0247802
1122.793 .0247731
1123.395 .0247675
1123.998 .0247629
1124.602 .0247608
1125.206 .0247644
1125.811 .0247719
1126.416 .0247814
1127.022 .0247970
1127.628 .0248150
1128.235 .0248372
1128.843 .0248613
1129.451 .0248867
1130.059 .0249132
1130.669 .0249407
1131.278 .0249700
1131.889 .0249994
1132.500 .0250351
1133.112 .0250757
1133.724 .0251202
1134.337 .0251680
1134.950 .0252161
1135.564 .0252599
1136.179 .0252993
1136.795 .0253359
1137.411 .0253672
1138.028 .0253950
1138.645 .0254270
1139.263 .0254646
1139.882 .0255037
1140.502 .0255465
1141.122 .0255885
1141.743 .0256377
1142.365 .0257053
1142.987 .0256876
1143.611 .0257410
1144.235 .0256608
1144.859 .0259839
1145.485 .0264774
