Measurement Sequence started on: 10-20-44-796
Integration time: 35
Scans to Average: 2 
>>>>>Begin Spectral Data<<<<<
432.953 .0349123
433.882 .0391143
434.810 .0332415
435.737 .0284954
436.662 .0300765
437.586 .0317170
438.509 .0315090
439.431 .0313350
440.351 .0313892
441.269 .0315371
442.187 .0316019
443.103 .0316325
444.018 .0316547
444.932 .0316826
445.844 .0317229
446.756 .0317662
447.666 .0318012
448.575 .0317991
449.482 .0317748
450.388 .0317251
451.294 .0316480
452.198 .0315604
453.100 .0314782
454.002 .0314022
454.902 .0313331
455.801 .0312724
456.699 .0312197
457.596 .0311749
458.492 .0311386
459.387 .0310992
460.280 .0310571
461.172 .0310109
462.064 .0309617
462.954 .0309135
463.843 .0308720
464.730 .0308376
465.617 .0308135
466.503 .0308028
467.387 .0308011
468.271 .0307956
469.153 .0307900
470.035 .0307798
470.915 .0307681
471.794 .0307508
472.673 .0307320
473.550 .0307113
474.426 .0306937
475.301 .0306825
476.175 .0306763
477.048 .0306725
477.920 .0306716
478.791 .0306689
479.661 .0306613
480.530 .0306480
481.398 .0306295
482.266 .0306073
483.132 .0305864
483.997 .0305589
484.861 .0305273
485.724 .0304921
486.587 .0304550
487.448 .0304107
488.308 .0303644
489.168 .0303190
490.026 .0302742
490.884 .0302329
491.741 .0301971
492.597 .0301662
493.452 .0301402
494.306 .0301147
495.159 .0300924
496.011 .0300701
496.862 .0300501
497.713 .0300287
498.562 .0300112
499.411 .0300003
500.259 .0299933
501.106 .0299900
501.952 .0299958
502.798 .0300009
503.642 .0300032
504.486 .0299932
505.329 .0299724
506.171 .0299376
507.012 .0298919
507.852 .0298315
508.692 .0297599
509.531 .0296744
510.369 .0295782
511.206 .0294677
512.043 .0293511
512.878 .0292230
513.713 .0290804
514.547 .0289268
515.381 .0287614
516.213 .0285830
517.045 .0284040
517.876 .0282185
518.706 .0280372
519.536 .0278511
520.365 .0276620
521.193 .0274624
522.020 .0272630
522.847 .0270673
523.673 .0268726
524.498 .0266778
525.323 .0264837
526.146 .0262910
526.969 .0261123
527.792 .0259424
528.614 .0257784
529.435 .0256191
530.255 .0254581
531.075 .0252852
531.894 .0251057
532.712 .0249161
533.530 .0247194
534.347 .0245162
535.163 .0243067
535.979 .0241019
536.794 .0239116
537.608 .0237500
538.422 .0236200
539.235 .0235390
540.048 .0234973
540.860 .0234914
541.671 .0235240
542.481 .0235905
543.292 .0236750
544.101 .0237754
544.910 .0238845
545.718 .0240012
546.526 .0241314
547.333 .0242742
548.139 .0244258
548.945 .0245923
549.750 .0247619
550.555 .0249229
551.359 .0250650
552.162 .0251863
552.965 .0252726
553.768 .0253287
554.569 .0253595
555.371 .0253690
556.171 .0253727
556.972 .0253827
557.771 .0253999
558.570 .0254336
559.369 .0254835
560.167 .0255463
560.964 .0256184
561.761 .0256998
562.558 .0257827
563.354 .0258688
564.149 .0259577
564.944 .0260504
565.738 .0261481
566.532 .0262568
567.325 .0263735
568.118 .0264965
568.910 .0266222
569.702 .0267445
570.494 .0268606
571.285 .0269723
572.075 .0270735
572.865 .0271624
573.654 .0272393
574.443 .0273083
575.232 .0273732
576.020 .0274360
576.807 .0274985
577.594 .0275636
578.381 .0276300
579.167 .0276965
579.952 .0277599
580.738 .0278227
581.522 .0278840
582.307 .0279435
583.091 .0280015
583.874 .0280579
584.657 .0281131
585.440 .0281689
586.222 .0282251
587.004 .0282811
587.785 .0283361
588.566 .0283877
589.346 .0284367
590.126 .0284817
590.906 .0285224
591.685 .0285596
592.464 .0285938
593.242 .0286236
594.020 .0286477
594.797 .0286664
595.575 .0286805
596.351 .0286891
597.128 .0286929
597.904 .0286907
598.679 .0286843
599.454 .0286732
600.229 .0286576
601.004 .0286384
601.778 .0286168
602.551 .0285940
603.325 .0285704
604.097 .0285471
604.870 .0285251
605.642 .0285056
606.414 .0284893
607.185 .0284761
607.956 .0284673
608.727 .0284610
609.497 .0284576
610.267 .0284567
611.037 .0284575
611.806 .0284585
612.575 .0284608
613.344 .0284628
614.112 .0284641
614.880 .0284639
615.647 .0284615
616.414 .0284566
617.181 .0284502
617.948 .0284414
618.714 .0284298
619.480 .0284165
620.245 .0284026
621.011 .0283862
621.775 .0283695
622.540 .0283516
623.304 .0283335
624.068 .0283155
624.832 .0282977
625.595 .0282803
626.358 .0282646
627.120 .0282502
627.883 .0282375
628.645 .0282261
629.406 .0282165
630.168 .0282057
630.929 .0281942
631.689 .0281815
632.450 .0281667
633.210 .0281503
633.970 .0281327
634.729 .0281148
635.489 .0280969
636.248 .0280783
637.006 .0280596
637.765 .0280401
638.523 .0280195
639.280 .0279964
640.038 .0279716
640.795 .0279452
641.552 .0279183
642.309 .0278917
643.065 .0278679
643.821 .0278479
644.577 .0278314
645.332 .0278182
646.088 .0278080
646.843 .0277997
647.597 .0277918
648.352 .0277828
649.106 .0277736
649.860 .0277634
650.613 .0277529
651.367 .0277417
652.120 .0277320
652.872 .0277239
653.625 .0277172
654.377 .0277107
655.129 .0277042
655.881 .0276970
656.632 .0276878
657.384 .0276752
658.135 .0276606
658.885 .0276435
659.636 .0276246
660.386 .0276047
661.136 .0275859
661.885 .0275688
662.635 .0275548
663.384 .0275439
664.133 .0275363
664.881 .0275313
665.630 .0275285
666.378 .0275256
667.126 .0275231
667.874 .0275200
668.621 .0275156
669.368 .0275097
670.115 .0275044
670.862 .0274988
671.608 .0274941
672.354 .0274905
673.100 .0274878
673.846 .0274851
674.591 .0274817
675.337 .0274764
676.082 .0274692
676.826 .0274603
677.571 .0274497
678.315 .0274369
679.059 .0274244
679.803 .0274120
680.547 .0274002
681.290 .0273891
682.033 .0273791
682.776 .0273695
683.518 .0273601
684.261 .0273497
685.003 .0273387
685.745 .0273277
686.487 .0273168
687.228 .0273060
687.969 .0272960
688.710 .0272863
689.451 .0272770
690.192 .0272677
690.932 .0272585
691.672 .0272482
692.412 .0272377
693.152 .0272256
693.891 .0272127
694.630 .0271987
695.369 .0271836
696.108 .0271672
696.846 .0271502
697.585 .0271322
698.323 .0271128
699.061 .0270929
699.798 .0270727
700.536 .0270522
701.273 .0270320
702.010 .0270119
702.746 .0269923
703.483 .0269736
704.219 .0269553
704.955 .0269372
705.691 .0269195
706.427 .0269019
707.162 .0268846
707.897 .0268676
708.632 .0268509
709.367 .0268346
710.101 .0268187
710.835 .0268030
711.569 .0267869
712.303 .0267701
713.037 .0267530
713.770 .0267355
714.503 .0267173
715.236 .0266985
715.969 .0266795
716.702 .0266607
717.434 .0266421
718.166 .0266235
718.898 .0266055
719.629 .0265873
720.361 .0265702
721.092 .0265532
721.823 .0265365
722.554 .0265200
723.284 .0265036
724.014 .0264866
724.744 .0264686
725.474 .0264486
726.204 .0264265
726.933 .0264028
727.662 .0263782
728.391 .0263524
729.120 .0263264
729.849 .0263006
730.577 .0262764
731.305 .0262533
732.033 .0262322
732.760 .0262112
733.488 .0261911
734.215 .0261716
734.942 .0261521
735.669 .0261322
736.395 .0261128
737.122 .0260945
737.848 .0260773
738.573 .0260616
739.299 .0260474
740.024 .0260344
740.750 .0260228
741.474 .0260113
742.199 .0259993
742.924 .0259867
743.648 .0259735
744.372 .0259593
745.096 .0259459
745.819 .0259329
746.543 .0259202
747.266 .0259086
747.989 .0258986
748.711 .0258904
749.434 .0258839
750.156 .0258796
750.878 .0258771
751.599 .0258771
752.321 .0258787
753.042 .0258820
753.763 .0258875
754.484 .0258948
755.205 .0259025
755.925 .0259106
756.645 .0259184
757.365 .0259253
758.085 .0259310
758.804 .0259358
759.523 .0259385
760.242 .0259395
760.961 .0259378
761.679 .0259339
762.397 .0259272
763.115 .0259180
763.833 .0259054
764.551 .0258900
765.268 .0258717
765.985 .0258505
766.702 .0258274
767.418 .0258034
768.134 .0257785
768.850 .0257532
769.566 .0257278
770.282 .0257031
770.997 .0256791
771.712 .0256564
772.427 .0256345
773.142 .0256142
773.856 .0255956
774.570 .0255782
775.284 .0255617
775.998 .0255458
776.711 .0255304
777.424 .0255151
778.137 .0255003
778.849 .0254860
779.562 .0254720
780.274 .0254599
780.986 .0254494
781.697 .0254403
782.409 .0254324
783.120 .0254251
783.831 .0254184
784.541 .0254118
785.252 .0254043
785.962 .0253952
786.671 .0253852
787.381 .0253754
788.090 .0253655
788.799 .0253559
789.508 .0253469
790.217 .0253385
790.925 .0253305
791.633 .0253226
792.341 .0253137
793.048 .0253039
793.755 .0252931
794.462 .0252805
795.169 .0252665
795.875 .0252513
796.581 .0252359
797.287 .0252207
797.993 .0252058
798.698 .0251921
799.403 .0251787
800.108 .0251654
800.812 .0251522
801.517 .0251385
802.221 .0251236
802.924 .0251069
803.628 .0250889
804.331 .0250699
805.034 .0250502
805.736 .0250311
806.439 .0250128
807.141 .0249964
807.843 .0249826
808.544 .0249704
809.245 .0249598
809.946 .0249511
810.647 .0249428
811.347 .0249349
812.047 .0249277
812.747 .0249205
813.447 .0249128
814.146 .0249050
814.845 .0248979
815.543 .0248901
816.242 .0248821
816.940 .0248736
817.638 .0248637
818.335 .0248527
819.032 .0248396
819.729 .0248244
820.426 .0248076
821.122 .0247891
821.818 .0247685
822.514 .0247460
823.209 .0247229
823.905 .0246988
824.599 .0246740
825.294 .0246495
825.988 .0246254
826.682 .0246020
827.376 .0245796
828.069 .0245584
828.762 .0245381
829.455 .0245190
830.147 .0245011
830.840 .0244846
831.531 .0244685
832.223 .0244532
832.914 .0244378
833.605 .0244225
834.296 .0244071
834.986 .0243910
835.676 .0243747
836.366 .0243587
837.055 .0243435
837.744 .0243285
838.433 .0243141
839.121 .0243011
839.809 .0242882
840.497 .0242759
841.185 .0242635
841.872 .0242502
842.559 .0242365
843.245 .0242223
843.932 .0242078
844.617 .0241929
845.303 .0241786
845.988 .0241649
846.673 .0241518
847.358 .0241397
848.042 .0241285
848.726 .0241179
849.410 .0241084
850.093 .0240991
850.776 .0240898
851.459 .0240809
852.141 .0240716
852.823 .0240623
853.505 .0240531
854.186 .0240435
854.867 .0240337
855.548 .0240239
856.228 .0240142
856.908 .0240051
857.588 .0239968
858.267 .0239892
858.946 .0239819
859.625 .0239745
860.303 .0239667
860.981 .0239582
861.659 .0239484
862.336 .0239368
863.013 .0239235
863.690 .0239095
864.366 .0238942
865.042 .0238784
865.718 .0238632
866.393 .0238490
867.068 .0238363
867.743 .0238246
868.417 .0238137
869.091 .0238037
869.765 .0237940
870.438 .0237833
871.111 .0237722
871.783 .0237611
872.456 .0237503
873.127 .0237404
873.799 .0237320
874.470 .0237256
875.141 .0237211
875.811 .0237183
876.481 .0237163
877.151 .0237145
877.820 .0237125
878.489 .0237088
879.158 .0237043
879.826 .0236986
880.494 .0236921
881.162 .0236850
881.829 .0236782
882.496 .0236718
883.163 .0236658
883.829 .0236603
884.495 .0236552
885.160 .0236503
885.825 .0236458
886.490 .0236413
887.154 .0236370
887.818 .0236333
888.482 .0236303
889.145 .0236280
889.808 .0236268
890.471 .0236263
891.133 .0236258
891.795 .0236245
892.456 .0236231
893.117 .0236206
893.778 .0236170
894.439 .0236122
895.099 .0236062
895.758 .0235994
896.417 .0235919
897.076 .0235838
897.735 .0235760
898.393 .0235693
899.051 .0235634
899.708 .0235580
900.365 .0235535
901.022 .0235498
901.678 .0235464
902.334 .0235436
902.990 .0235414
903.645 .0235397
904.300 .0235392
904.954 .0235396
905.608 .0235409
906.262 .0235432
906.915 .0235466
907.568 .0235497
908.221 .0235528
908.873 .0235551
909.525 .0235557
910.176 .0235550
910.828 .0235527
911.478 .0235486
912.129 .0235433
912.778 .0235370
913.428 .0235298
914.077 .0235225
914.726 .0235151
915.375 .0235076
916.023 .0235003
916.670 .0234930
917.318 .0234852
917.964 .0234769
918.611 .0234689
919.257 .0234605
919.903 .0234520
920.548 .0234440
921.193 .0234364
921.838 .0234303
922.482 .0234255
923.126 .0234218
923.770 .0234207
924.413 .0234218
925.056 .0234242
925.698 .0234272
926.340 .0234311
926.982 .0234348
927.623 .0234374
928.264 .0234383
928.904 .0234377
929.544 .0234358
930.184 .0234330
930.823 .0234291
931.462 .0234246
932.101 .0234203
932.739 .0234156
933.377 .0234101
934.014 .0234039
934.651 .0233962
935.288 .0233866
935.924 .0233752
936.560 .0233622
937.196 .0233470
937.831 .0233303
938.466 .0233133
939.100 .0232960
939.734 .0232787
940.368 .0232610
941.001 .0232433
941.634 .0232252
942.266 .0232068
942.899 .0231872
943.530 .0231662
944.162 .0231443
944.793 .0231216
945.423 .0230979
946.053 .0230741
946.683 .0230507
947.313 .0230277
947.942 .0230048
948.571 .0229822
949.199 .0229596
949.827 .0229371
950.455 .0229149
951.082 .0228938
951.709 .0228731
952.335 .0228534
952.961 .0228347
953.587 .0228165
954.212 .0227990
954.837 .0227813
955.462 .0227628
956.086 .0227434
956.710 .0227232
957.334 .0227021
957.957 .0226807
958.579 .0226607
959.202 .0226420
959.824 .0226245
960.445 .0226089
961.067 .0225945
961.688 .0225810
962.308 .0225682
962.928 .0225558
963.548 .0225431
964.168 .0225306
964.787 .0225174
965.406 .0225040
966.024 .0224910
966.642 .0224781
967.260 .0224651
967.877 .0224521
968.494 .0224385
969.110 .0224239
969.727 .0224085
970.342 .0223926
970.958 .0223761
971.573 .0223599
972.188 .0223432
972.802 .0223268
973.416 .0223108
974.030 .0222949
974.643 .0222793
975.256 .0222644
975.869 .0222496
976.481 .0222352
977.093 .0222219
977.705 .0222100
978.316 .0222000
978.927 .0221928
979.538 .0221880
980.148 .0221848
980.758 .0221827
981.367 .0221806
981.977 .0221777
982.586 .0221739
983.194 .0221685
983.802 .0221617
984.410 .0221537
985.018 .0221449
985.625 .0221358
986.232 .0221272
986.838 .0221190
987.445 .0221109
988.050 .0221024
988.656 .0220936
989.261 .0220840
989.866 .0220728
990.471 .0220614
991.075 .0220496
991.679 .0220379
992.282 .0220269
992.886 .0220165
993.489 .0220077
994.091 .0220002
994.694 .0219943
995.296 .0219894
995.897 .0219851
996.499 .0219815
997.100 .0219773
997.701 .0219737
998.301 .0219706
998.901 .0219674
999.501 .0219646
1000.101 .0219623
1000.700 .0219595
1001.299 .0219559
1001.898 .0219517
1002.496 .0219459
1003.094 .0219400
1003.692 .0219336
1004.289 .0219272
1004.887 .0219205
1005.484 .0219146
1006.080 .0219097
1006.677 .0219050
1007.273 .0219013
1007.868 .0218968
1008.464 .0218918
1009.059 .0218875
1009.654 .0218827
1010.249 .0218788
1010.843 .0218772
1011.437 .0218783
1012.031 .0218813
1012.625 .0218868
1013.218 .0218930
1013.811 .0218989
1014.404 .0219041
1014.997 .0219081
1015.589 .0219098
1016.181 .0219096
1016.773 .0219086
1017.365 .0219073
1017.956 .0219073
1018.547 .0219084
1019.138 .0219102
1019.728 .0219135
1020.319 .0219173
1020.909 .0219200
1021.499 .0219213
1022.088 .0219216
1022.678 .0219203
1023.267 .0219182
1023.856 .0219159
1024.445 .0219134
1025.033 .0219117
1025.621 .0219107
1026.209 .0219106
1026.797 .0219108
1027.385 .0219110
1027.972 .0219105
1028.560 .0219093
1029.147 .0219077
1029.734 .0219045
1030.320 .0219004
1030.907 .0218960
1031.493 .0218916
1032.079 .0218881
1032.665 .0218859
1033.250 .0218847
1033.836 .0218844
1034.421 .0218853
1035.006 .0218874
1035.591 .0218901
1036.176 .0218935
1036.761 .0218981
1037.345 .0219027
1037.929 .0219084
1038.514 .0219145
1039.097 .0219208
1039.681 .0219268
1040.265 .0219328
1040.848 .0219370
1041.432 .0219398
1042.015 .0219413
1042.598 .0219421
1043.181 .0219428
1043.764 .0219458
1044.346 .0219500
1044.929 .0219567
1045.511 .0219664
1046.094 .0219778
1046.676 .0219887
1047.258 .0219992
1047.840 .0220075
1048.422 .0220131
1049.003 .0220164
1049.585 .0220193
1050.166 .0220226
1050.748 .0220286
1051.329 .0220376
1051.910 .0220491
1052.491 .0220625
1053.072 .0220756
1053.653 .0220855
1054.234 .0220921
1054.815 .0220938
1055.396 .0220910
1055.976 .0220855
1056.557 .0220788
1057.138 .0220736
1057.718 .0220699
1058.298 .0220687
1058.879 .0220694
1059.459 .0220704
1060.039 .0220720
1060.620 .0220732
1061.200 .0220744
1061.780 .0220759
1062.360 .0220775
1062.940 .0220810
1063.520 .0220862
1064.101 .0220922
1064.681 .0220981
1065.261 .0221021
1065.841 .0221048
1066.421 .0221049
1067.001 .0221027
1067.581 .0220987
1068.161 .0220935
1068.741 .0220883
1069.321 .0220839
1069.901 .0220777
1070.482 .0220707
1071.062 .0220629
1071.642 .0220539
1072.222 .0220442
1072.803 .0220354
1073.383 .0220281
1073.963 .0220241
1074.544 .0220230
1075.124 .0220255
1075.705 .0220274
1076.286 .0220310
1076.866 .0220338
1077.447 .0220357
1078.028 .0220380
1078.609 .0220393
1079.190 .0220420
1079.771 .0220458
1080.352 .0220514
1080.934 .0220565
1081.515 .0220612
1082.097 .0220665
1082.679 .0220679
1083.260 .0220640
1083.842 .0220561
1084.424 .0220459
1085.007 .0220347
1085.589 .0220234
1086.172 .0220145
1086.754 .0220081
1087.337 .0220071
1087.920 .0220104
1088.503 .0220178
1089.087 .0220281
1089.670 .0220406
1090.254 .0220503
1090.838 .0220583
1091.422 .0220632
1092.006 .0220647
1092.590 .0220661
1093.175 .0220688
1093.760 .0220704
1094.345 .0220743
1094.930 .0220799
1095.516 .0220896
1096.102 .0221018
1096.688 .0221172
1097.274 .0221318
1097.860 .0221456
1098.447 .0221575
1099.034 .0221654
1099.622 .0221704
1100.209 .0221739
1100.797 .0221749
1101.385 .0221775
1101.973 .0221797
1102.562 .0221837
1103.151 .0221884
1103.740 .0221982
1104.330 .0222108
1104.920 .0222247
1105.510 .0222386
1106.101 .0222515
1106.691 .0222624
1107.283 .0222687
1107.874 .0222697
1108.466 .0222684
1109.058 .0222649
1109.651 .0222626
1110.244 .0222597
1110.837 .0222589
1111.431 .0222603
1112.025 .0222649
1112.620 .0222715
1113.215 .0222831
1113.810 .0222963
1114.406 .0223106
1115.002 .0223276
1115.599 .0223437
1116.196 .0223577
1116.793 .0223680
1117.391 .0223739
1117.989 .0223697
1118.588 .0223605
1119.187 .0223456
1119.787 .0223252
1120.387 .0223086
1120.988 .0222946
1121.589 .0222816
1122.190 .0222714
1122.793 .0222612
1123.395 .0222504
1123.998 .0222383
1124.602 .0222262
1125.206 .0222069
1125.811 .0221890
1126.416 .0221748
1127.022 .0221632
1127.628 .0221593
1128.235 .0221678
1128.843 .0221866
1129.451 .0222133
1130.059 .0222413
1130.669 .0222696
1131.278 .0222952
1131.889 .0223175
1132.500 .0223314
1133.112 .0223390
1133.724 .0223464
1134.337 .0223550
1134.950 .0223610
1135.564 .0223711
1136.179 .0223868
1136.795 .0224092
1137.411 .0224386
1138.028 .0224756
1138.645 .0225189
1139.263 .0225804
1139.882 .0226550
1140.502 .0227472
1141.122 .0228497
1141.743 .0229853
1142.365 .0231626
1142.987 .0232199
1143.611 .0235056
1144.235 .0234421
1144.859 .0241137
1145.485 .0248671
