Measurement Sequence started on: 10-20-44-796
Integration time: 35
Scans to Average: 2 
>>>>>Begin Spectral Data<<<<<
432.953 .0477845
433.882 .0424946
434.810 .0411420
435.737 .0396868
436.662 .0399798
437.586 .0395437
438.509 .0389814
439.431 .0387082
440.351 .0385655
441.269 .0385264
442.187 .0385252
443.103 .0385853
444.018 .0386409
444.932 .0386772
445.844 .0387113
446.756 .0387177
447.666 .0387162
448.575 .0386887
449.482 .0386509
450.388 .0385962
451.294 .0385394
452.198 .0384893
453.100 .0384480
454.002 .0384106
454.902 .0383644
455.801 .0383128
456.699 .0382589
457.596 .0381914
458.492 .0381232
459.387 .0380499
460.280 .0379761
461.172 .0378994
462.064 .0378255
462.954 .0377563
463.843 .0376911
464.730 .0376247
465.617 .0375562
466.503 .0374855
467.387 .0374062
468.271 .0373272
469.153 .0372535
470.035 .0371828
470.915 .0371189
471.794 .0370575
472.673 .0369988
473.550 .0369413
474.426 .0368855
475.301 .0368315
476.175 .0367789
477.048 .0367326
477.920 .0366883
478.791 .0366455
479.661 .0366106
480.530 .0365773
481.398 .0365441
482.266 .0365090
483.132 .0364749
483.997 .0364403
484.861 .0364108
485.724 .0363893
486.587 .0363802
487.448 .0363793
488.308 .0363839
489.168 .0363901
490.026 .0363938
490.884 .0363939
491.741 .0363850
492.597 .0363675
493.452 .0363439
494.306 .0363098
495.159 .0362692
496.011 .0362251
496.862 .0361840
497.713 .0361347
498.562 .0360759
499.411 .0360127
500.259 .0359399
501.106 .0358552
501.952 .0357613
502.798 .0356647
503.642 .0355640
504.486 .0354627
505.329 .0353559
506.171 .0352506
507.012 .0351502
507.852 .0350534
508.692 .0349611
509.531 .0348779
510.369 .0348032
511.206 .0347240
512.043 .0346452
512.878 .0345686
513.713 .0344782
514.547 .0343749
515.381 .0342569
516.213 .0341315
517.045 .0339977
517.876 .0338607
518.706 .0337216
519.536 .0335931
520.365 .0334702
521.193 .0333412
522.020 .0332050
522.847 .0330618
523.673 .0329116
524.498 .0327381
525.323 .0325588
526.146 .0323757
526.969 .0321860
527.792 .0320057
528.614 .0318325
529.435 .0316806
530.255 .0315415
531.075 .0314105
531.894 .0312911
532.712 .0311749
533.530 .0310667
534.347 .0309536
535.163 .0308435
535.979 .0307484
536.794 .0306629
537.608 .0305831
538.422 .0305228
539.235 .0304821
540.048 .0304569
540.860 .0304445
541.671 .0304407
542.481 .0304425
543.292 .0304473
544.101 .0304601
544.910 .0304712
545.718 .0304865
546.526 .0305099
547.333 .0305350
548.139 .0305688
548.945 .0306155
549.750 .0306728
550.555 .0307463
551.359 .0308329
552.162 .0309228
552.965 .0310122
553.768 .0311008
554.569 .0311822
555.371 .0312532
556.171 .0313148
556.972 .0313723
557.771 .0314189
558.570 .0314666
559.369 .0315158
560.167 .0315655
560.964 .0316163
561.761 .0316670
562.558 .0317171
563.354 .0317583
564.149 .0317891
564.944 .0318089
565.738 .0318232
566.532 .0318349
567.325 .0318369
568.118 .0318381
568.910 .0318427
569.702 .0318523
570.494 .0318629
571.285 .0318782
572.075 .0319005
572.865 .0319306
573.654 .0319654
574.443 .0320018
575.232 .0320442
576.020 .0320928
576.807 .0321457
577.594 .0322020
578.381 .0322620
579.167 .0323258
579.952 .0323918
580.738 .0324633
581.522 .0325345
582.307 .0326042
583.091 .0326709
583.874 .0327318
584.657 .0327842
585.440 .0328281
586.222 .0328639
587.004 .0328945
587.785 .0329247
588.566 .0329522
589.346 .0329765
590.126 .0329981
590.906 .0330147
591.685 .0330254
592.464 .0330278
593.242 .0330240
594.020 .0330134
594.797 .0329999
595.575 .0329846
596.351 .0329695
597.128 .0329572
597.904 .0329463
598.679 .0329358
599.454 .0329231
600.229 .0329090
601.004 .0328912
601.778 .0328701
602.551 .0328453
603.325 .0328187
604.097 .0327911
604.870 .0327637
605.642 .0327379
606.414 .0327140
607.185 .0326912
607.956 .0326702
608.727 .0326489
609.497 .0326278
610.267 .0326052
611.037 .0325827
611.806 .0325586
612.575 .0325344
613.344 .0325083
614.112 .0324817
614.880 .0324551
615.647 .0324298
616.414 .0324045
617.181 .0323802
617.948 .0323562
618.714 .0323330
619.480 .0323102
620.245 .0322888
621.011 .0322673
621.775 .0322472
622.540 .0322272
623.304 .0322077
624.068 .0321882
624.832 .0321696
625.595 .0321503
626.358 .0321307
627.120 .0321092
627.883 .0320858
628.645 .0320607
629.406 .0320347
630.168 .0320077
630.929 .0319808
631.689 .0319533
632.450 .0319246
633.210 .0318948
633.970 .0318650
634.729 .0318338
635.489 .0318021
636.248 .0317699
637.006 .0317378
637.765 .0317066
638.523 .0316771
639.280 .0316501
640.038 .0316263
640.795 .0316050
641.552 .0315851
642.309 .0315664
643.065 .0315487
643.821 .0315312
644.577 .0315135
645.332 .0314962
646.088 .0314797
646.843 .0314633
647.597 .0314477
648.352 .0314328
649.106 .0314189
649.860 .0314048
650.613 .0313900
651.367 .0313748
652.120 .0313577
652.872 .0313403
653.625 .0313227
654.377 .0313057
655.129 .0312910
655.881 .0312777
656.632 .0312660
657.384 .0312556
658.135 .0312457
658.885 .0312357
659.636 .0312251
660.386 .0312136
661.136 .0312012
661.885 .0311882
662.635 .0311751
663.384 .0311619
664.133 .0311498
664.881 .0311387
665.630 .0311282
666.378 .0311188
667.126 .0311096
667.874 .0311004
668.621 .0310915
669.368 .0310816
670.115 .0310709
670.862 .0310592
671.608 .0310462
672.354 .0310313
673.100 .0310163
673.846 .0310015
674.591 .0309871
675.337 .0309747
676.082 .0309639
676.826 .0309542
677.571 .0309459
678.315 .0309374
679.059 .0309276
679.803 .0309163
680.547 .0309023
681.290 .0308850
682.033 .0308650
682.776 .0308432
683.518 .0308187
684.261 .0307930
685.003 .0307669
685.745 .0307394
686.487 .0307112
687.228 .0306822
687.969 .0306521
688.710 .0306215
689.451 .0305895
690.192 .0305567
690.932 .0305234
691.672 .0304904
692.412 .0304572
693.152 .0304248
693.891 .0303937
694.630 .0303647
695.369 .0303373
696.108 .0303127
696.846 .0302903
697.585 .0302698
698.323 .0302505
699.061 .0302318
699.798 .0302126
700.536 .0301919
701.273 .0301692
702.010 .0301448
702.746 .0301184
703.483 .0300909
704.219 .0300615
704.955 .0300313
705.691 .0300005
706.427 .0299691
707.162 .0299374
707.897 .0299059
708.632 .0298752
709.367 .0298444
710.101 .0298141
710.835 .0297852
711.569 .0297569
712.303 .0297295
713.037 .0297036
713.770 .0296789
714.503 .0296555
715.236 .0296339
715.969 .0296135
716.702 .0295949
717.434 .0295786
718.166 .0295632
718.898 .0295481
719.629 .0295340
720.361 .0295197
721.092 .0295043
721.823 .0294888
722.554 .0294730
723.284 .0294560
724.014 .0294392
724.744 .0294217
725.474 .0294036
726.204 .0293862
726.933 .0293690
727.662 .0293511
728.391 .0293337
729.120 .0293164
729.849 .0292985
730.577 .0292811
731.305 .0292642
732.033 .0292476
732.760 .0292313
733.488 .0292154
734.215 .0291989
734.942 .0291821
735.669 .0291647
736.395 .0291464
737.122 .0291283
737.848 .0291101
738.573 .0290920
739.299 .0290750
740.024 .0290592
740.750 .0290451
741.474 .0290324
742.199 .0290214
742.924 .0290113
743.648 .0290026
744.372 .0289932
745.096 .0289839
745.819 .0289747
746.543 .0289662
747.266 .0289586
747.989 .0289526
748.711 .0289484
749.434 .0289459
750.156 .0289453
750.878 .0289457
751.599 .0289464
752.321 .0289476
753.042 .0289479
753.763 .0289480
754.484 .0289475
755.205 .0289465
755.925 .0289456
756.645 .0289448
757.365 .0289438
758.085 .0289423
758.804 .0289397
759.523 .0289357
760.242 .0289303
760.961 .0289232
761.679 .0289143
762.397 .0289037
763.115 .0288916
763.833 .0288774
764.551 .0288613
765.268 .0288438
765.985 .0288249
766.702 .0288048
767.418 .0287840
768.134 .0287629
768.850 .0287428
769.566 .0287239
770.282 .0287069
770.997 .0286920
771.712 .0286791
772.427 .0286673
773.142 .0286559
773.856 .0286446
774.570 .0286335
775.284 .0286222
775.998 .0286112
776.711 .0286008
777.424 .0285912
778.137 .0285820
778.849 .0285730
779.562 .0285638
780.274 .0285536
780.986 .0285421
781.697 .0285292
782.409 .0285143
783.120 .0284980
783.831 .0284802
784.541 .0284618
785.252 .0284430
785.962 .0284238
786.671 .0284041
787.381 .0283841
788.090 .0283644
788.799 .0283438
789.508 .0283228
790.217 .0283016
790.925 .0282798
791.633 .0282567
792.341 .0282327
793.048 .0282081
793.755 .0281825
794.462 .0281567
795.169 .0281303
795.875 .0281041
796.581 .0280787
797.287 .0280539
797.993 .0280304
798.698 .0280084
799.403 .0279878
800.108 .0279678
800.812 .0279482
801.517 .0279290
802.221 .0279085
802.924 .0278879
803.628 .0278673
804.331 .0278468
805.034 .0278270
805.736 .0278080
806.439 .0277902
807.141 .0277741
807.843 .0277589
808.544 .0277438
809.245 .0277287
809.946 .0277141
810.647 .0276982
811.347 .0276820
812.047 .0276657
812.747 .0276501
813.447 .0276345
814.146 .0276194
814.845 .0276049
815.543 .0275902
816.242 .0275753
816.940 .0275589
817.638 .0275412
818.335 .0275219
819.032 .0275008
819.729 .0274782
820.426 .0274545
821.122 .0274293
821.818 .0274027
822.514 .0273752
823.209 .0273472
823.905 .0273186
824.599 .0272902
825.294 .0272618
825.988 .0272349
826.682 .0272090
827.376 .0271851
828.069 .0271623
828.762 .0271410
829.455 .0271200
830.147 .0270992
830.840 .0270782
831.531 .0270569
832.223 .0270358
832.914 .0270162
833.605 .0269978
834.296 .0269812
834.986 .0269660
835.676 .0269527
836.366 .0269402
837.055 .0269284
837.744 .0269161
838.433 .0269035
839.121 .0268911
839.809 .0268791
840.497 .0268681
841.185 .0268591
841.872 .0268518
842.559 .0268467
843.245 .0268425
843.932 .0268389
844.617 .0268350
845.303 .0268301
845.988 .0268244
846.673 .0268174
847.358 .0268090
848.042 .0267991
848.726 .0267888
849.410 .0267788
850.093 .0267681
850.776 .0267577
851.459 .0267472
852.141 .0267365
852.823 .0267260
853.505 .0267154
854.186 .0267045
854.867 .0266945
855.548 .0266849
856.228 .0266759
856.908 .0266679
857.588 .0266610
858.267 .0266547
858.946 .0266495
859.625 .0266454
860.303 .0266415
860.981 .0266374
861.659 .0266340
862.336 .0266294
863.013 .0266246
863.690 .0266187
864.366 .0266120
865.042 .0266047
865.718 .0265973
866.393 .0265901
867.068 .0265833
867.743 .0265779
868.417 .0265727
869.091 .0265674
869.765 .0265624
870.438 .0265564
871.111 .0265495
871.783 .0265420
872.456 .0265342
873.127 .0265262
873.799 .0265185
874.470 .0265115
875.141 .0265054
875.811 .0265002
876.481 .0264957
877.151 .0264916
877.820 .0264872
878.489 .0264824
879.158 .0264764
879.826 .0264704
880.494 .0264648
881.162 .0264596
881.829 .0264558
882.496 .0264533
883.163 .0264525
883.829 .0264528
884.495 .0264541
885.160 .0264566
885.825 .0264598
886.490 .0264635
887.154 .0264670
887.818 .0264705
888.482 .0264738
889.145 .0264769
889.808 .0264799
890.471 .0264824
891.133 .0264846
891.795 .0264853
892.456 .0264856
893.117 .0264853
893.778 .0264845
894.439 .0264827
895.099 .0264798
895.758 .0264762
896.417 .0264717
897.076 .0264664
897.735 .0264606
898.393 .0264543
899.051 .0264479
899.708 .0264400
900.365 .0264316
901.022 .0264226
901.678 .0264139
902.334 .0264049
902.990 .0263963
903.645 .0263880
904.300 .0263804
904.954 .0263729
905.608 .0263652
906.262 .0263579
906.915 .0263500
907.568 .0263408
908.221 .0263311
908.873 .0263206
909.525 .0263111
910.176 .0263021
910.828 .0262947
911.478 .0262880
912.129 .0262822
912.778 .0262760
913.428 .0262689
914.077 .0262605
914.726 .0262503
915.375 .0262376
916.023 .0262238
916.670 .0262096
917.318 .0261953
917.964 .0261824
918.611 .0261712
919.257 .0261605
919.903 .0261506
920.548 .0261394
921.193 .0261273
921.838 .0261147
922.482 .0261017
923.126 .0260888
923.770 .0260767
924.413 .0260665
925.056 .0260576
925.698 .0260505
926.340 .0260447
926.982 .0260389
927.623 .0260327
928.264 .0260254
928.904 .0260159
929.544 .0260046
930.184 .0259920
930.823 .0259776
931.462 .0259626
932.101 .0259457
932.739 .0259266
933.377 .0259053
934.014 .0258819
934.651 .0258567
935.288 .0258299
935.924 .0258027
936.560 .0257756
937.196 .0257487
937.831 .0257233
938.466 .0256987
939.100 .0256749
939.734 .0256516
940.368 .0256277
941.001 .0256030
941.634 .0255778
942.266 .0255520
942.899 .0255263
943.530 .0255013
944.162 .0254772
944.793 .0254537
945.423 .0254307
946.053 .0254075
946.683 .0253838
947.313 .0253594
947.942 .0253339
948.571 .0253065
949.199 .0252786
949.827 .0252506
950.455 .0252222
951.082 .0251949
951.709 .0251689
952.335 .0251447
952.961 .0251223
953.587 .0251013
954.212 .0250812
954.837 .0250620
955.462 .0250427
956.086 .0250226
956.710 .0250020
957.334 .0249810
957.957 .0249587
958.579 .0249360
959.202 .0249134
959.824 .0248907
960.445 .0248675
961.067 .0248447
961.688 .0248215
962.308 .0247976
962.928 .0247732
963.548 .0247474
964.168 .0247213
964.787 .0246955
965.406 .0246703
966.024 .0246461
966.642 .0246231
967.260 .0246019
967.877 .0245815
968.494 .0245619
969.110 .0245425
969.727 .0245216
970.342 .0244995
970.958 .0244761
971.573 .0244519
972.188 .0244272
972.802 .0244030
973.416 .0243797
974.030 .0243577
974.643 .0243368
975.256 .0243172
975.869 .0242982
976.481 .0242795
977.093 .0242620
977.705 .0242451
978.316 .0242286
978.927 .0242132
979.538 .0241994
980.148 .0241872
980.758 .0241769
981.367 .0241691
981.977 .0241631
982.586 .0241602
983.194 .0241599
983.802 .0241613
984.410 .0241646
985.018 .0241695
985.625 .0241745
986.232 .0241794
986.838 .0241848
987.445 .0241886
988.050 .0241913
988.656 .0241931
989.261 .0241932
989.866 .0241910
990.471 .0241877
991.075 .0241825
991.679 .0241757
992.282 .0241676
992.886 .0241578
993.489 .0241471
994.091 .0241367
994.694 .0241259
995.296 .0241151
995.897 .0241042
996.499 .0240925
997.100 .0240795
997.701 .0240668
998.301 .0240533
998.901 .0240403
999.501 .0240285
1000.101 .0240188
1000.700 .0240117
1001.299 .0240076
1001.898 .0240058
1002.496 .0240057
1003.094 .0240069
1003.692 .0240077
1004.289 .0240079
1004.887 .0240081
1005.484 .0240078
1006.080 .0240077
1006.677 .0240090
1007.273 .0240120
1007.868 .0240155
1008.464 .0240210
1009.059 .0240272
1009.654 .0240341
1010.249 .0240414
1010.843 .0240487
1011.437 .0240562
1012.031 .0240640
1012.625 .0240724
1013.218 .0240805
1013.811 .0240888
1014.404 .0240971
1014.997 .0241040
1015.589 .0241107
1016.181 .0241161
1016.773 .0241204
1017.365 .0241236
1017.956 .0241260
1018.547 .0241282
1019.138 .0241305
1019.728 .0241327
1020.319 .0241354
1020.909 .0241388
1021.499 .0241429
1022.088 .0241479
1022.678 .0241540
1023.267 .0241619
1023.856 .0241703
1024.445 .0241786
1025.033 .0241865
1025.621 .0241936
1026.209 .0242010
1026.797 .0242076
1027.385 .0242131
1027.972 .0242187
1028.560 .0242236
1029.147 .0242281
1029.734 .0242324
1030.320 .0242363
1030.907 .0242390
1031.493 .0242399
1032.079 .0242391
1032.665 .0242362
1033.250 .0242319
1033.836 .0242275
1034.421 .0242233
1035.006 .0242206
1035.591 .0242199
1036.176 .0242207
1036.761 .0242242
1037.345 .0242303
1037.929 .0242379
1038.514 .0242460
1039.097 .0242544
1039.681 .0242623
1040.265 .0242690
1040.848 .0242753
1041.432 .0242810
1042.015 .0242852
1042.598 .0242894
1043.181 .0242937
1043.764 .0242983
1044.346 .0243032
1044.929 .0243088
1045.511 .0243149
1046.094 .0243221
1046.676 .0243300
1047.258 .0243383
1047.840 .0243471
1048.422 .0243577
1049.003 .0243692
1049.585 .0243820
1050.166 .0243961
1050.748 .0244118
1051.329 .0244286
1051.910 .0244461
1052.491 .0244642
1053.072 .0244814
1053.653 .0244967
1054.234 .0245110
1054.815 .0245231
1055.396 .0245313
1055.976 .0245361
1056.557 .0245380
1057.138 .0245364
1057.718 .0245327
1058.298 .0245258
1058.879 .0245163
1059.459 .0245039
1060.039 .0244909
1060.620 .0244756
1061.200 .0244595
1061.780 .0244448
1062.360 .0244313
1062.940 .0244211
1063.520 .0244157
1064.101 .0244123
1064.681 .0244124
1065.261 .0244143
1065.841 .0244170
1066.421 .0244177
1067.001 .0244178
1067.581 .0244168
1068.161 .0244157
1068.741 .0244152
1069.321 .0244177
1069.901 .0244240
1070.482 .0244346
1071.062 .0244476
1071.642 .0244621
1072.222 .0244758
1072.803 .0244867
1073.383 .0244927
1073.963 .0244956
1074.544 .0244939
1075.124 .0244896
1075.705 .0244819
1076.286 .0244738
1076.866 .0244688
1077.447 .0244675
1078.028 .0244708
1078.609 .0244793
1079.190 .0244938
1079.771 .0245104
1080.352 .0245283
1080.934 .0245455
1081.515 .0245599
1082.097 .0245716
1082.679 .0245793
1083.260 .0245840
1083.842 .0245886
1084.424 .0245953
1085.007 .0246051
1085.589 .0246187
1086.172 .0246377
1086.754 .0246559
1087.337 .0246730
1087.920 .0246866
1088.503 .0246983
1089.087 .0247054
1089.670 .0247108
1090.254 .0247149
1090.838 .0247198
1091.422 .0247268
1092.006 .0247334
1092.590 .0247391
1093.175 .0247445
1093.760 .0247470
1094.345 .0247447
1094.930 .0247353
1095.516 .0247237
1096.102 .0247070
1096.688 .0246886
1097.274 .0246666
1097.860 .0246402
1098.447 .0246078
1099.034 .0245705
1099.622 .0245251
1100.209 .0244749
1100.797 .0244241
1101.385 .0243749
1101.973 .0243310
1102.562 .0242969
1103.151 .0242716
1103.740 .0242580
1104.330 .0242559
1104.920 .0242653
1105.510 .0242827
1106.101 .0243108
1106.691 .0243433
1107.283 .0243792
1107.874 .0244196
1108.466 .0244593
1109.058 .0244973
1109.651 .0245358
1110.244 .0245699
1110.837 .0246004
1111.431 .0246275
1112.025 .0246519
1112.620 .0246723
1113.215 .0246925
1113.810 .0247079
1114.406 .0247163
1115.002 .0247199
1115.599 .0247136
1116.196 .0246936
1116.793 .0246656
1117.391 .0246304
1117.989 .0245901
1118.588 .0245498
1119.187 .0245159
1119.787 .0244878
1120.387 .0244723
1120.988 .0244693
1121.589 .0244743
1122.190 .0244887
1122.793 .0245084
1123.395 .0245263
1123.998 .0245411
1124.602 .0245515
1125.206 .0245566
1125.811 .0245600
1126.416 .0245662
1127.022 .0245730
1127.628 .0245834
1128.235 .0246001
1128.843 .0246197
1129.451 .0246369
1130.059 .0246542
1130.669 .0246643
1131.278 .0246649
1131.889 .0246597
1132.500 .0246452
1133.112 .0246300
1133.724 .0246156
1134.337 .0246039
1134.950 .0245999
1135.564 .0246029
1136.179 .0246177
1136.795 .0246384
1137.411 .0246730
1138.028 .0247186
1138.645 .0247747
1139.263 .0248402
1139.882 .0249116
1140.502 .0249900
1141.122 .0250707
1141.743 .0251556
1142.365 .0252388
1142.987 .0253375
1143.611 .0254118
1144.235 .0254446
1144.859 .0256825
1145.485 .0255961
