Measurement Sequence started on: 10-20-44-796
Integration time: 35
Scans to Average: 2 
>>>>>Begin Spectral Data<<<<<
432.953 .0457533
433.882 .0460636
434.810 .0469909
435.737 .0459187
436.662 .0440245
437.586 .0436047
438.509 .0429916
439.431 .0424205
440.351 .0419178
441.269 .0415376
442.187 .0412797
443.103 .0410873
444.018 .0409575
444.932 .0408809
445.844 .0408144
446.756 .0407686
447.666 .0407471
448.575 .0407335
449.482 .0407319
450.388 .0407276
451.294 .0407204
452.198 .0407010
453.100 .0406722
454.002 .0406319
454.902 .0405932
455.801 .0405488
456.699 .0405077
457.596 .0404649
458.492 .0404313
459.387 .0403983
460.280 .0403724
461.172 .0403456
462.064 .0403210
462.954 .0402903
463.843 .0402546
464.730 .0402115
465.617 .0401638
466.503 .0401048
467.387 .0400398
468.271 .0399634
469.153 .0398819
470.035 .0397931
470.915 .0397022
471.794 .0396097
472.673 .0395244
473.550 .0394436
474.426 .0393732
475.301 .0393107
476.175 .0392538
477.048 .0391978
477.920 .0391419
478.791 .0390876
479.661 .0390298
480.530 .0389723
481.398 .0389156
482.266 .0388610
483.132 .0388127
483.997 .0387692
484.861 .0387328
485.724 .0387057
486.587 .0386832
487.448 .0386620
488.308 .0386359
489.168 .0386043
490.026 .0385637
490.884 .0385165
491.741 .0384617
492.597 .0384016
493.452 .0383386
494.306 .0382805
495.159 .0382254
496.011 .0381797
496.862 .0381420
497.713 .0381082
498.562 .0380747
499.411 .0380339
500.259 .0379828
501.106 .0379193
501.952 .0378417
502.798 .0377536
503.642 .0376525
504.486 .0375483
505.329 .0374403
506.171 .0373333
507.012 .0372320
507.852 .0371317
508.692 .0370308
509.531 .0369243
510.369 .0368116
511.206 .0366908
512.043 .0365644
512.878 .0364353
513.713 .0363063
514.547 .0361786
515.381 .0360572
516.213 .0359393
517.045 .0358260
517.876 .0357199
518.706 .0356135
519.536 .0355075
520.365 .0354009
521.193 .0352888
522.020 .0351761
522.847 .0350557
523.673 .0349286
524.498 .0347838
525.323 .0346242
526.146 .0344463
526.969 .0342488
527.792 .0340412
528.614 .0338249
529.435 .0336128
530.255 .0334091
531.075 .0332120
531.894 .0330261
532.712 .0328467
533.530 .0326698
534.347 .0324904
535.163 .0323127
535.979 .0321416
536.794 .0319911
537.608 .0318718
538.422 .0317879
539.235 .0317419
540.048 .0317313
540.860 .0317481
541.671 .0317785
542.481 .0318124
543.292 .0318351
544.101 .0318485
544.910 .0318579
545.718 .0318610
546.526 .0318694
547.333 .0318910
548.139 .0319277
548.945 .0319738
549.750 .0320249
550.555 .0320754
551.359 .0321219
552.162 .0321669
552.965 .0322089
553.768 .0322482
554.569 .0322912
555.371 .0323365
556.171 .0323833
556.972 .0324342
557.771 .0324829
558.570 .0325234
559.369 .0325574
560.167 .0325837
560.964 .0326013
561.761 .0326129
562.558 .0326266
563.354 .0326450
564.149 .0326655
564.944 .0326898
565.738 .0327128
566.532 .0327348
567.325 .0327548
568.118 .0327708
568.910 .0327836
569.702 .0327971
570.494 .0328137
571.285 .0328343
572.075 .0328633
572.865 .0329026
573.654 .0329454
574.443 .0329937
575.232 .0330456
576.020 .0330963
576.807 .0331455
577.594 .0331944
578.381 .0332432
579.167 .0332928
579.952 .0333430
580.738 .0333937
581.522 .0334444
582.307 .0334949
583.091 .0335428
583.874 .0335868
584.657 .0336290
585.440 .0336686
586.222 .0337041
587.004 .0337378
587.785 .0337697
588.566 .0338002
589.346 .0338284
590.126 .0338533
590.906 .0338744
591.685 .0338912
592.464 .0339034
593.242 .0339107
594.020 .0339131
594.797 .0339119
595.575 .0339074
596.351 .0339004
597.128 .0338912
597.904 .0338789
598.679 .0338645
599.454 .0338484
600.229 .0338297
601.004 .0338087
601.778 .0337855
602.551 .0337612
603.325 .0337355
604.097 .0337093
604.870 .0336820
605.642 .0336548
606.414 .0336287
607.185 .0336036
607.956 .0335793
608.727 .0335571
609.497 .0335365
610.267 .0335173
611.037 .0334984
611.806 .0334794
612.575 .0334592
613.344 .0334384
614.112 .0334160
614.880 .0333921
615.647 .0333674
616.414 .0333421
617.181 .0333163
617.948 .0332902
618.714 .0332630
619.480 .0332350
620.245 .0332060
621.011 .0331757
621.775 .0331435
622.540 .0331099
623.304 .0330753
624.068 .0330405
624.832 .0330052
625.595 .0329697
626.358 .0329342
627.120 .0328997
627.883 .0328650
628.645 .0328299
629.406 .0327950
630.168 .0327597
630.929 .0327242
631.689 .0326886
632.450 .0326523
633.210 .0326160
633.970 .0325793
634.729 .0325429
635.489 .0325056
636.248 .0324680
637.006 .0324306
637.765 .0323923
638.523 .0323539
639.280 .0323157
640.038 .0322774
640.795 .0322399
641.552 .0322037
642.309 .0321686
643.065 .0321344
643.821 .0321020
644.577 .0320707
645.332 .0320396
646.088 .0320095
646.843 .0319795
647.597 .0319492
648.352 .0319192
649.106 .0318899
649.860 .0318612
650.613 .0318337
651.367 .0318075
652.120 .0317826
652.872 .0317588
653.625 .0317360
654.377 .0317131
655.129 .0316908
655.881 .0316692
656.632 .0316483
657.384 .0316283
658.135 .0316097
658.885 .0315923
659.636 .0315757
660.386 .0315592
661.136 .0315429
661.885 .0315260
662.635 .0315085
663.384 .0314915
664.133 .0314751
664.881 .0314597
665.630 .0314458
666.378 .0314335
667.126 .0314225
667.874 .0314120
668.621 .0314014
669.368 .0313896
670.115 .0313766
670.862 .0313617
671.608 .0313454
672.354 .0313295
673.100 .0313145
673.846 .0313007
674.591 .0312888
675.337 .0312791
676.082 .0312708
676.826 .0312631
677.571 .0312555
678.315 .0312474
679.059 .0312389
679.803 .0312297
680.547 .0312202
681.290 .0312112
682.033 .0312026
682.776 .0311940
683.518 .0311852
684.261 .0311756
685.003 .0311647
685.745 .0311525
686.487 .0311390
687.228 .0311240
687.969 .0311083
688.710 .0310916
689.451 .0310746
690.192 .0310575
690.932 .0310404
691.672 .0310221
692.412 .0310030
693.152 .0309826
693.891 .0309607
694.630 .0309375
695.369 .0309135
696.108 .0308889
696.846 .0308642
697.585 .0308390
698.323 .0308140
699.061 .0307889
699.798 .0307642
700.536 .0307390
701.273 .0307135
702.010 .0306875
702.746 .0306605
703.483 .0306329
704.219 .0306051
704.955 .0305775
705.691 .0305504
706.427 .0305238
707.162 .0304985
707.897 .0304747
708.632 .0304526
709.367 .0304316
710.101 .0304116
710.835 .0303923
711.569 .0303725
712.303 .0303517
713.037 .0303297
713.770 .0303066
714.503 .0302827
715.236 .0302581
715.969 .0302329
716.702 .0302074
717.434 .0301816
718.166 .0301549
718.898 .0301272
719.629 .0300979
720.361 .0300675
721.092 .0300362
721.823 .0300046
722.554 .0299727
723.284 .0299413
724.014 .0299104
724.744 .0298800
725.474 .0298497
726.204 .0298192
726.933 .0297877
727.662 .0297557
728.391 .0297229
729.120 .0296891
729.849 .0296554
730.577 .0296231
731.305 .0295912
732.033 .0295607
732.760 .0295310
733.488 .0295019
734.215 .0294730
734.942 .0294447
735.669 .0294162
736.395 .0293881
737.122 .0293605
737.848 .0293337
738.573 .0293078
739.299 .0292840
740.024 .0292612
740.750 .0292392
741.474 .0292180
742.199 .0291968
742.924 .0291749
743.648 .0291528
744.372 .0291304
745.096 .0291082
745.819 .0290864
746.543 .0290651
747.266 .0290447
747.989 .0290259
748.711 .0290088
749.434 .0289930
750.156 .0289791
750.878 .0289670
751.599 .0289565
752.321 .0289481
753.042 .0289421
753.763 .0289381
754.484 .0289360
755.205 .0289348
755.925 .0289344
756.645 .0289340
757.365 .0289335
758.085 .0289319
758.804 .0289296
759.523 .0289262
760.242 .0289214
760.961 .0289152
761.679 .0289083
762.397 .0289000
763.115 .0288902
763.833 .0288785
764.551 .0288650
765.268 .0288497
765.985 .0288330
766.702 .0288158
767.418 .0287989
768.134 .0287823
768.850 .0287669
769.566 .0287527
770.282 .0287398
770.997 .0287277
771.712 .0287161
772.427 .0287047
773.142 .0286932
773.856 .0286818
774.570 .0286705
775.284 .0286596
775.998 .0286496
776.711 .0286403
777.424 .0286314
778.137 .0286232
778.849 .0286154
779.562 .0286079
780.274 .0286014
780.986 .0285958
781.697 .0285914
782.409 .0285886
783.120 .0285880
783.831 .0285892
784.541 .0285920
785.252 .0285959
785.962 .0286003
786.671 .0286047
787.381 .0286083
788.090 .0286108
788.799 .0286127
789.508 .0286136
790.217 .0286135
790.925 .0286128
791.633 .0286115
792.341 .0286089
793.048 .0286048
793.755 .0285990
794.462 .0285911
795.169 .0285808
795.875 .0285687
796.581 .0285550
797.287 .0285403
797.993 .0285252
798.698 .0285104
799.403 .0284965
800.108 .0284840
800.812 .0284724
801.517 .0284619
802.221 .0284528
802.924 .0284444
803.628 .0284363
804.331 .0284292
805.034 .0284227
805.736 .0284162
806.439 .0284094
807.141 .0284027
807.843 .0283959
808.544 .0283888
809.245 .0283813
809.946 .0283735
810.647 .0283657
811.347 .0283578
812.047 .0283496
812.747 .0283416
813.447 .0283335
814.146 .0283252
814.845 .0283164
815.543 .0283072
816.242 .0282978
816.940 .0282881
817.638 .0282786
818.335 .0282699
819.032 .0282617
819.729 .0282537
820.426 .0282457
821.122 .0282374
821.818 .0282282
822.514 .0282173
823.209 .0282052
823.905 .0281911
824.599 .0281753
825.294 .0281582
825.988 .0281395
826.682 .0281198
827.376 .0280992
828.069 .0280773
828.762 .0280540
829.455 .0280295
830.147 .0280041
830.840 .0279779
831.531 .0279521
832.223 .0279269
832.914 .0279026
833.605 .0278795
834.296 .0278579
834.986 .0278376
835.676 .0278183
836.366 .0278002
837.055 .0277827
837.744 .0277661
838.433 .0277497
839.121 .0277336
839.809 .0277178
840.497 .0277025
841.185 .0276873
841.872 .0276714
842.559 .0276550
843.245 .0276382
843.932 .0276207
844.617 .0276028
845.303 .0275844
845.988 .0275654
846.673 .0275457
847.358 .0275258
848.042 .0275052
848.726 .0274847
849.410 .0274642
850.093 .0274443
850.776 .0274251
851.459 .0274067
852.141 .0273887
852.823 .0273712
853.505 .0273542
854.186 .0273365
854.867 .0273181
855.548 .0272990
856.228 .0272789
856.908 .0272586
857.588 .0272388
858.267 .0272194
858.946 .0272013
859.625 .0271845
860.303 .0271682
860.981 .0271524
861.659 .0271366
862.336 .0271201
863.013 .0271025
863.690 .0270843
864.366 .0270651
865.042 .0270452
865.718 .0270258
866.393 .0270065
867.068 .0269875
867.743 .0269692
868.417 .0269505
869.091 .0269310
869.765 .0269109
870.438 .0268898
871.111 .0268676
871.783 .0268449
872.456 .0268216
873.127 .0267982
873.799 .0267754
874.470 .0267535
875.141 .0267323
875.811 .0267124
876.481 .0266941
877.151 .0266768
877.820 .0266607
878.489 .0266458
879.158 .0266319
879.826 .0266189
880.494 .0266064
881.162 .0265941
881.829 .0265822
882.496 .0265703
883.163 .0265587
883.829 .0265477
884.495 .0265372
885.160 .0265273
885.825 .0265178
886.490 .0265086
887.154 .0264997
887.818 .0264903
888.482 .0264805
889.145 .0264700
889.808 .0264590
890.471 .0264473
891.133 .0264357
891.795 .0264244
892.456 .0264137
893.117 .0264033
893.778 .0263934
894.439 .0263833
895.099 .0263729
895.758 .0263621
896.417 .0263510
897.076 .0263398
897.735 .0263290
898.393 .0263186
899.051 .0263093
899.708 .0263012
900.365 .0262946
901.022 .0262887
901.678 .0262836
902.334 .0262788
902.990 .0262740
903.645 .0262690
904.300 .0262640
904.954 .0262585
905.608 .0262527
906.262 .0262468
906.915 .0262408
907.568 .0262347
908.221 .0262292
908.873 .0262242
909.525 .0262195
910.176 .0262151
910.828 .0262104
911.478 .0262057
912.129 .0262007
912.778 .0261952
913.428 .0261892
914.077 .0261829
914.726 .0261768
915.375 .0261706
916.023 .0261650
916.670 .0261602
917.318 .0261561
917.964 .0261523
918.611 .0261485
919.257 .0261442
919.903 .0261392
920.548 .0261336
921.193 .0261276
921.838 .0261214
922.482 .0261156
923.126 .0261106
923.770 .0261066
924.413 .0261039
925.056 .0261024
925.698 .0261018
926.340 .0261021
926.982 .0261028
927.623 .0261032
928.264 .0261034
928.904 .0261033
929.544 .0261030
930.184 .0261025
930.823 .0261023
931.462 .0261021
932.101 .0261018
932.739 .0261017
933.377 .0261005
934.014 .0260984
934.651 .0260954
935.288 .0260908
935.924 .0260841
936.560 .0260760
937.196 .0260668
937.831 .0260570
938.466 .0260473
939.100 .0260383
939.734 .0260297
940.368 .0260222
941.001 .0260154
941.634 .0260084
942.266 .0260017
942.899 .0259947
943.530 .0259864
944.162 .0259771
944.793 .0259667
945.423 .0259551
946.053 .0259431
946.683 .0259314
947.313 .0259199
947.942 .0259088
948.571 .0258982
949.199 .0258878
949.827 .0258772
950.455 .0258666
951.082 .0258555
951.709 .0258437
952.335 .0258318
952.961 .0258198
953.587 .0258084
954.212 .0257981
954.837 .0257889
955.462 .0257813
956.086 .0257756
956.710 .0257721
957.334 .0257699
957.957 .0257685
958.579 .0257674
959.202 .0257655
959.824 .0257624
960.445 .0257574
961.067 .0257506
961.688 .0257422
962.308 .0257324
962.928 .0257217
963.548 .0257105
964.168 .0256993
964.787 .0256889
965.406 .0256794
966.024 .0256706
966.642 .0256623
967.260 .0256540
967.877 .0256462
968.494 .0256383
969.110 .0256302
969.727 .0256218
970.342 .0256138
970.958 .0256067
971.573 .0256006
972.188 .0255955
972.802 .0255923
973.416 .0255901
974.030 .0255882
974.643 .0255857
975.256 .0255826
975.869 .0255788
976.481 .0255746
977.093 .0255702
977.705 .0255663
978.316 .0255632
978.927 .0255612
979.538 .0255599
980.148 .0255598
980.758 .0255600
981.367 .0255599
981.977 .0255596
982.586 .0255596
983.194 .0255595
983.802 .0255597
984.410 .0255603
985.018 .0255617
985.625 .0255634
986.232 .0255647
986.838 .0255647
987.445 .0255632
988.050 .0255593
988.656 .0255526
989.261 .0255431
989.866 .0255317
990.471 .0255185
991.075 .0255047
991.679 .0254908
992.282 .0254774
992.886 .0254648
993.489 .0254533
994.091 .0254428
994.694 .0254332
995.296 .0254241
995.897 .0254153
996.499 .0254065
997.100 .0253983
997.701 .0253899
998.301 .0253815
998.901 .0253744
999.501 .0253685
1000.101 .0253639
1000.700 .0253609
1001.299 .0253597
1001.898 .0253597
1002.496 .0253602
1003.094 .0253601
1003.692 .0253586
1004.289 .0253557
1004.887 .0253515
1005.484 .0253453
1006.080 .0253385
1006.677 .0253313
1007.273 .0253236
1007.868 .0253163
1008.464 .0253098
1009.059 .0253039
1009.654 .0252987
1010.249 .0252935
1010.843 .0252886
1011.437 .0252832
1012.031 .0252776
1012.625 .0252719
1013.218 .0252663
1013.811 .0252613
1014.404 .0252566
1014.997 .0252523
1015.589 .0252481
1016.181 .0252434
1016.773 .0252379
1017.365 .0252312
1017.956 .0252226
1018.547 .0252119
1019.138 .0251997
1019.728 .0251866
1020.319 .0251735
1020.909 .0251607
1021.499 .0251481
1022.088 .0251361
1022.678 .0251239
1023.267 .0251107
1023.856 .0250963
1024.445 .0250806
1025.033 .0250642
1025.621 .0250473
1026.209 .0250308
1026.797 .0250158
1027.385 .0250030
1027.972 .0249931
1028.560 .0249851
1029.147 .0249780
1029.734 .0249712
1030.320 .0249632
1030.907 .0249535
1031.493 .0249417
1032.079 .0249282
1032.665 .0249138
1033.250 .0248995
1033.836 .0248857
1034.421 .0248728
1035.006 .0248614
1035.591 .0248510
1036.176 .0248409
1036.761 .0248306
1037.345 .0248200
1037.929 .0248091
1038.514 .0247980
1039.097 .0247868
1039.681 .0247763
1040.265 .0247663
1040.848 .0247577
1041.432 .0247501
1042.015 .0247432
1042.598 .0247366
1043.181 .0247314
1043.764 .0247267
1044.346 .0247228
1044.929 .0247186
1045.511 .0247146
1046.094 .0247091
1046.676 .0247029
1047.258 .0246941
1047.840 .0246829
1048.422 .0246706
1049.003 .0246574
1049.585 .0246431
1050.166 .0246297
1050.748 .0246174
1051.329 .0246065
1051.910 .0245965
1052.491 .0245872
1053.072 .0245766
1053.653 .0245650
1054.234 .0245511
1054.815 .0245344
1055.396 .0245159
1055.976 .0244973
1056.557 .0244780
1057.138 .0244596
1057.718 .0244430
1058.298 .0244275
1058.879 .0244136
1059.459 .0244016
1060.039 .0243906
1060.620 .0243786
1061.200 .0243665
1061.780 .0243530
1062.360 .0243375
1062.940 .0243224
1063.520 .0243070
1064.101 .0242925
1064.681 .0242797
1065.261 .0242688
1065.841 .0242598
1066.421 .0242537
1067.001 .0242500
1067.581 .0242477
1068.161 .0242465
1068.741 .0242463
1069.321 .0242449
1069.901 .0242425
1070.482 .0242394
1071.062 .0242351
1071.642 .0242293
1072.222 .0242226
1072.803 .0242132
1073.383 .0242027
1073.963 .0241907
1074.544 .0241788
1075.124 .0241666
1075.705 .0241553
1076.286 .0241444
1076.866 .0241347
1077.447 .0241253
1078.028 .0241158
1078.609 .0241062
1079.190 .0240969
1079.771 .0240875
1080.352 .0240776
1080.934 .0240670
1081.515 .0240588
1082.097 .0240529
1082.679 .0240494
1083.260 .0240476
1083.842 .0240487
1084.424 .0240511
1085.007 .0240543
1085.589 .0240567
1086.172 .0240588
1086.754 .0240599
1087.337 .0240618
1087.920 .0240633
1088.503 .0240648
1089.087 .0240660
1089.670 .0240666
1090.254 .0240650
1090.838 .0240614
1091.422 .0240546
1092.006 .0240455
1092.590 .0240336
1093.175 .0240220
1093.760 .0240095
1094.345 .0239976
1094.930 .0239868
1095.516 .0239777
1096.102 .0239682
1096.688 .0239591
1097.274 .0239476
1097.860 .0239333
1098.447 .0239166
1099.034 .0238986
1099.622 .0238775
1100.209 .0238588
1100.797 .0238425
1101.385 .0238295
1101.973 .0238202
1102.562 .0238159
1103.151 .0238124
1103.740 .0238101
1104.330 .0238064
1104.920 .0237994
1105.510 .0237894
1106.101 .0237784
1106.691 .0237647
1107.283 .0237547
1107.874 .0237502
1108.466 .0237503
1109.058 .0237573
1109.651 .0237754
1110.244 .0237992
1110.837 .0238273
1111.431 .0238576
1112.025 .0238867
1112.620 .0239135
1113.215 .0239385
1113.810 .0239581
1114.406 .0239759
1115.002 .0239963
1115.599 .0240174
1116.196 .0240396
1116.793 .0240658
1117.391 .0240925
1117.989 .0241162
1118.588 .0241363
1119.187 .0241480
1119.787 .0241466
1120.387 .0241360
1120.988 .0241171
1121.589 .0240923
1122.190 .0240691
1122.793 .0240501
1123.395 .0240391
1123.998 .0240421
1124.602 .0240590
1125.206 .0240835
1125.811 .0241186
1126.416 .0241613
1127.022 .0242053
1127.628 .0242493
1128.235 .0242947
1128.843 .0243417
1129.451 .0243952
1130.059 .0244562
1130.669 .0245239
1131.278 .0245995
1131.889 .0246826
1132.500 .0247651
1133.112 .0248465
1133.724 .0249230
1134.337 .0249918
1134.950 .0250512
1135.564 .0251040
1136.179 .0251467
1136.795 .0251832
1137.411 .0252174
1138.028 .0252490
1138.645 .0252796
1139.263 .0253101
1139.882 .0253376
1140.502 .0253667
1141.122 .0253999
1141.743 .0254342
1142.365 .0254786
1142.987 .0254455
1143.611 .0255463
1144.235 .0256779
1144.859 .0256456
1145.485 .0259028
