Measurement Sequence started on: 10-20-44-796
Integration time: 35
Scans to Average: 2 
>>>>>Begin Spectral Data<<<<<
432.953 .0577529
433.882 .0516624
434.810 .0450086
435.737 .0405268
436.662 .0399946
437.586 .0411515
438.509 .0398066
439.431 .0389517
440.351 .0384563
441.269 .0381646
442.187 .0379367
443.103 .0377611
444.018 .0376309
444.932 .0375213
445.844 .0374026
446.756 .0372923
447.666 .0371642
448.575 .0370259
449.482 .0368882
450.388 .0367682
451.294 .0366735
452.198 .0366150
453.100 .0365850
454.002 .0365878
454.902 .0366070
455.801 .0366331
456.699 .0366522
457.596 .0366713
458.492 .0366869
459.387 .0366993
460.280 .0367147
461.172 .0367245
462.064 .0367319
462.954 .0367392
463.843 .0367387
464.730 .0367330
465.617 .0367081
466.503 .0366676
467.387 .0366131
468.271 .0365420
469.153 .0364596
470.035 .0363727
470.915 .0362919
471.794 .0362166
472.673 .0361513
473.550 .0360957
474.426 .0360508
475.301 .0360128
476.175 .0359812
477.048 .0359415
477.920 .0358938
478.791 .0358373
479.661 .0357692
480.530 .0356948
481.398 .0356162
482.266 .0355382
483.132 .0354687
483.997 .0354044
484.861 .0353481
485.724 .0352951
486.587 .0352504
487.448 .0352052
488.308 .0351535
489.168 .0350948
490.026 .0350312
490.884 .0349644
491.741 .0348975
492.597 .0348298
493.452 .0347696
494.306 .0347199
495.159 .0346822
496.011 .0346551
496.862 .0346369
497.713 .0346230
498.562 .0346063
499.411 .0345820
500.259 .0345464
501.106 .0344929
501.952 .0344274
502.798 .0343532
503.642 .0342707
504.486 .0341833
505.329 .0340934
506.171 .0340047
507.012 .0339198
507.852 .0338274
508.692 .0337238
509.531 .0336083
510.369 .0334820
511.206 .0333428
512.043 .0331952
512.878 .0330490
513.713 .0329033
514.547 .0327590
515.381 .0326191
516.213 .0324785
517.045 .0323352
517.876 .0321852
518.706 .0320229
519.536 .0318509
520.365 .0316800
521.193 .0315096
522.020 .0313509
522.847 .0312046
523.673 .0310643
524.498 .0309223
525.323 .0307721
526.146 .0306035
526.969 .0304099
527.792 .0301922
528.614 .0299508
529.435 .0296861
530.255 .0294184
531.075 .0291575
531.894 .0289204
532.712 .0287172
533.530 .0285535
534.347 .0284204
535.163 .0283202
535.979 .0282494
536.794 .0282058
537.608 .0281920
538.422 .0282030
539.235 .0282366
540.048 .0282917
540.860 .0283713
541.671 .0284657
542.481 .0285704
543.292 .0286869
544.101 .0287952
544.910 .0288931
545.718 .0289735
546.526 .0290319
547.333 .0290714
548.139 .0290899
548.945 .0290861
549.750 .0290603
550.555 .0290232
551.359 .0289682
552.162 .0289091
552.965 .0288553
553.768 .0288068
554.569 .0287711
555.371 .0287534
556.171 .0287514
556.972 .0287677
557.771 .0288038
558.570 .0288509
559.369 .0289079
560.167 .0289755
560.964 .0290460
561.761 .0291182
562.558 .0291938
563.354 .0292777
564.149 .0293653
564.944 .0294645
565.738 .0295650
566.532 .0296619
567.325 .0297577
568.118 .0298437
568.910 .0299180
569.702 .0299820
570.494 .0300411
571.285 .0300956
572.075 .0301519
572.865 .0302133
573.654 .0302789
574.443 .0303503
575.232 .0304240
576.020 .0304983
576.807 .0305702
577.594 .0306407
578.381 .0307087
579.167 .0307763
579.952 .0308468
580.738 .0309178
581.522 .0309899
582.307 .0310610
583.091 .0311309
583.874 .0311966
584.657 .0312542
585.440 .0313060
586.222 .0313489
587.004 .0313834
587.785 .0314109
588.566 .0314330
589.346 .0314505
590.126 .0314643
590.906 .0314744
591.685 .0314814
592.464 .0314849
593.242 .0314839
594.020 .0314771
594.797 .0314656
595.575 .0314482
596.351 .0314275
597.128 .0314025
597.904 .0313766
598.679 .0313495
599.454 .0313231
600.229 .0312978
601.004 .0312741
601.778 .0312509
602.551 .0312272
603.325 .0312036
604.097 .0311793
604.870 .0311528
605.642 .0311256
606.414 .0310968
607.185 .0310689
607.956 .0310412
608.727 .0310150
609.497 .0309887
610.267 .0309641
611.037 .0309410
611.806 .0309185
612.575 .0308959
613.344 .0308732
614.112 .0308495
614.880 .0308251
615.647 .0308000
616.414 .0307737
617.181 .0307473
617.948 .0307216
618.714 .0306954
619.480 .0306701
620.245 .0306452
621.011 .0306224
621.775 .0306009
622.540 .0305822
623.304 .0305648
624.068 .0305480
624.832 .0305326
625.595 .0305174
626.358 .0305024
627.120 .0304871
627.883 .0304704
628.645 .0304533
629.406 .0304357
630.168 .0304175
630.929 .0304002
631.689 .0303851
632.450 .0303713
633.210 .0303588
633.970 .0303465
634.729 .0303347
635.489 .0303225
636.248 .0303101
637.006 .0302967
637.765 .0302825
638.523 .0302686
639.280 .0302551
640.038 .0302437
640.795 .0302349
641.552 .0302283
642.309 .0302234
643.065 .0302194
643.821 .0302149
644.577 .0302084
645.332 .0301999
646.088 .0301889
646.843 .0301752
647.597 .0301591
648.352 .0301414
649.106 .0301240
649.860 .0301068
650.613 .0300902
651.367 .0300745
652.120 .0300588
652.872 .0300424
653.625 .0300250
654.377 .0300057
655.129 .0299849
655.881 .0299631
656.632 .0299398
657.384 .0299155
658.135 .0298922
658.885 .0298700
659.636 .0298491
660.386 .0298298
661.136 .0298111
661.885 .0297922
662.635 .0297732
663.384 .0297529
664.133 .0297310
664.881 .0297086
665.630 .0296857
666.378 .0296625
667.126 .0296397
667.874 .0296178
668.621 .0295964
669.368 .0295762
670.115 .0295565
670.862 .0295367
671.608 .0295169
672.354 .0294962
673.100 .0294746
673.846 .0294523
674.591 .0294290
675.337 .0294053
676.082 .0293812
676.826 .0293574
677.571 .0293328
678.315 .0293084
679.059 .0292839
679.803 .0292598
680.547 .0292356
681.290 .0292105
682.033 .0291842
682.776 .0291564
683.518 .0291278
684.261 .0290981
685.003 .0290687
685.745 .0290399
686.487 .0290125
687.228 .0289862
687.969 .0289610
688.710 .0289369
689.451 .0289131
690.192 .0288895
690.932 .0288655
691.672 .0288409
692.412 .0288163
693.152 .0287923
693.891 .0287698
694.630 .0287486
695.369 .0287295
696.108 .0287107
696.846 .0286918
697.585 .0286723
698.323 .0286518
699.061 .0286304
699.798 .0286087
700.536 .0285873
701.273 .0285668
702.010 .0285482
702.746 .0285313
703.483 .0285158
704.219 .0285021
704.955 .0284890
705.691 .0284752
706.427 .0284609
707.162 .0284460
707.897 .0284308
708.632 .0284158
709.367 .0284010
710.101 .0283870
710.835 .0283742
711.569 .0283625
712.303 .0283514
713.037 .0283408
713.770 .0283309
714.503 .0283206
715.236 .0283104
715.969 .0282999
716.702 .0282896
717.434 .0282801
718.166 .0282714
718.898 .0282635
719.629 .0282567
720.361 .0282510
721.092 .0282459
721.823 .0282413
722.554 .0282362
723.284 .0282305
724.014 .0282230
724.744 .0282139
725.474 .0282033
726.204 .0281912
726.933 .0281781
727.662 .0281641
728.391 .0281500
729.120 .0281356
729.849 .0281211
730.577 .0281065
731.305 .0280915
732.033 .0280761
732.760 .0280601
733.488 .0280442
734.215 .0280286
734.942 .0280138
735.669 .0279998
736.395 .0279869
737.122 .0279750
737.848 .0279631
738.573 .0279510
739.299 .0279387
740.024 .0279263
740.750 .0279135
741.474 .0279005
742.199 .0278873
742.924 .0278746
743.648 .0278622
744.372 .0278504
745.096 .0278394
745.819 .0278285
746.543 .0278176
747.266 .0278068
747.989 .0277956
748.711 .0277846
749.434 .0277738
750.156 .0277631
750.878 .0277526
751.599 .0277421
752.321 .0277317
753.042 .0277214
753.763 .0277115
754.484 .0277012
755.205 .0276906
755.925 .0276803
756.645 .0276701
757.365 .0276590
758.085 .0276476
758.804 .0276348
759.523 .0276199
760.242 .0276031
760.961 .0275836
761.679 .0275622
762.397 .0275397
763.115 .0275165
763.833 .0274932
764.551 .0274697
765.268 .0274465
765.985 .0274225
766.702 .0273981
767.418 .0273727
768.134 .0273460
768.850 .0273184
769.566 .0272909
770.282 .0272637
770.997 .0272386
771.712 .0272154
772.427 .0271939
773.142 .0271740
773.856 .0271542
774.570 .0271337
775.284 .0271121
775.998 .0270891
776.711 .0270651
777.424 .0270403
778.137 .0270158
778.849 .0269916
779.562 .0269694
780.274 .0269489
780.986 .0269291
781.697 .0269103
782.409 .0268918
783.120 .0268732
783.831 .0268556
784.541 .0268392
785.252 .0268248
785.962 .0268129
786.671 .0268036
787.381 .0267960
788.090 .0267903
788.799 .0267850
789.508 .0267786
790.217 .0267706
790.925 .0267607
791.633 .0267482
792.341 .0267331
793.048 .0267164
793.755 .0266979
794.462 .0266787
795.169 .0266585
795.875 .0266371
796.581 .0266153
797.287 .0265934
797.993 .0265716
798.698 .0265501
799.403 .0265305
800.108 .0265120
800.812 .0264952
801.517 .0264800
802.221 .0264661
802.924 .0264535
803.628 .0264422
804.331 .0264321
805.034 .0264224
805.736 .0264140
806.439 .0264065
807.141 .0263996
807.843 .0263937
808.544 .0263878
809.245 .0263814
809.946 .0263738
810.647 .0263645
811.347 .0263532
812.047 .0263409
812.747 .0263278
813.447 .0263144
814.146 .0263018
814.845 .0262902
815.543 .0262796
816.242 .0262704
816.940 .0262624
817.638 .0262549
818.335 .0262479
819.032 .0262410
819.729 .0262341
820.426 .0262277
821.122 .0262213
821.818 .0262151
822.514 .0262096
823.209 .0262041
823.905 .0261978
824.599 .0261909
825.294 .0261837
825.988 .0261758
826.682 .0261675
827.376 .0261583
828.069 .0261482
828.762 .0261376
829.455 .0261265
830.147 .0261148
830.840 .0261033
831.531 .0260917
832.223 .0260803
832.914 .0260694
833.605 .0260587
834.296 .0260488
834.986 .0260400
835.676 .0260319
836.366 .0260252
837.055 .0260197
837.744 .0260161
838.433 .0260135
839.121 .0260125
839.809 .0260124
840.497 .0260125
841.185 .0260130
841.872 .0260124
842.559 .0260110
843.245 .0260092
843.932 .0260068
844.617 .0260039
845.303 .0260011
845.988 .0259985
846.673 .0259953
847.358 .0259921
848.042 .0259882
848.726 .0259830
849.410 .0259772
850.093 .0259704
850.776 .0259633
851.459 .0259563
852.141 .0259499
852.823 .0259436
853.505 .0259383
854.186 .0259332
854.867 .0259279
855.548 .0259219
856.228 .0259155
856.908 .0259084
857.588 .0259012
858.267 .0258942
858.946 .0258878
859.625 .0258824
860.303 .0258783
860.981 .0258742
861.659 .0258707
862.336 .0258663
863.013 .0258618
863.690 .0258563
864.366 .0258503
865.042 .0258428
865.718 .0258353
866.393 .0258279
867.068 .0258202
867.743 .0258124
868.417 .0258047
869.091 .0257962
869.765 .0257872
870.438 .0257772
871.111 .0257666
871.783 .0257553
872.456 .0257442
873.127 .0257326
873.799 .0257214
874.470 .0257105
875.141 .0257000
875.811 .0256898
876.481 .0256804
877.151 .0256712
877.820 .0256619
878.489 .0256524
879.158 .0256425
879.826 .0256321
880.494 .0256210
881.162 .0256089
881.829 .0255961
882.496 .0255820
883.163 .0255668
883.829 .0255510
884.495 .0255349
885.160 .0255189
885.825 .0255033
886.490 .0254887
887.154 .0254749
887.818 .0254622
888.482 .0254506
889.145 .0254393
889.808 .0254287
890.471 .0254184
891.133 .0254079
891.795 .0253981
892.456 .0253891
893.117 .0253808
893.778 .0253734
894.439 .0253671
895.099 .0253604
895.758 .0253533
896.417 .0253451
897.076 .0253346
897.735 .0253216
898.393 .0253063
899.051 .0252890
899.708 .0252698
900.365 .0252492
901.022 .0252279
901.678 .0252066
902.334 .0251857
902.990 .0251647
903.645 .0251441
904.300 .0251241
904.954 .0251046
905.608 .0250856
906.262 .0250675
906.915 .0250505
907.568 .0250349
908.221 .0250210
908.873 .0250086
909.525 .0249980
910.176 .0249884
910.828 .0249796
911.478 .0249714
912.129 .0249631
912.778 .0249544
913.428 .0249448
914.077 .0249344
914.726 .0249221
915.375 .0249083
916.023 .0248929
916.670 .0248764
917.318 .0248589
917.964 .0248401
918.611 .0248201
919.257 .0247991
919.903 .0247774
920.548 .0247551
921.193 .0247331
921.838 .0247117
922.482 .0246902
923.126 .0246704
923.770 .0246519
924.413 .0246346
925.056 .0246185
925.698 .0246035
926.340 .0245891
926.982 .0245753
927.623 .0245612
928.264 .0245467
928.904 .0245322
929.544 .0245180
930.184 .0245032
930.823 .0244882
931.462 .0244732
932.101 .0244572
932.739 .0244403
933.377 .0244227
934.014 .0244030
934.651 .0243820
935.288 .0243602
935.924 .0243374
936.560 .0243143
937.196 .0242914
937.831 .0242690
938.466 .0242470
939.100 .0242256
939.734 .0242036
940.368 .0241809
941.001 .0241580
941.634 .0241349
942.266 .0241111
942.899 .0240881
943.530 .0240655
944.162 .0240436
944.793 .0240230
945.423 .0240032
946.053 .0239834
946.683 .0239638
947.313 .0239436
947.942 .0239224
948.571 .0239000
949.199 .0238764
949.827 .0238520
950.455 .0238278
951.082 .0238045
951.709 .0237820
952.335 .0237608
952.961 .0237415
953.587 .0237231
954.212 .0237062
954.837 .0236905
955.462 .0236756
956.086 .0236611
956.710 .0236472
957.334 .0236343
957.957 .0236227
958.579 .0236121
959.202 .0236021
959.824 .0235926
960.445 .0235835
961.067 .0235737
961.688 .0235634
962.308 .0235527
962.928 .0235419
963.548 .0235303
964.168 .0235176
964.787 .0235042
965.406 .0234903
966.024 .0234759
966.642 .0234609
967.260 .0234455
967.877 .0234305
968.494 .0234157
969.110 .0234015
969.727 .0233883
970.342 .0233766
970.958 .0233665
971.573 .0233578
972.188 .0233504
972.802 .0233444
973.416 .0233393
974.030 .0233355
974.643 .0233328
975.256 .0233316
975.869 .0233312
976.481 .0233316
977.093 .0233330
977.705 .0233355
978.316 .0233385
978.927 .0233423
979.538 .0233465
980.148 .0233509
980.758 .0233553
981.367 .0233587
981.977 .0233621
982.586 .0233660
983.194 .0233695
983.802 .0233727
984.410 .0233755
985.018 .0233788
985.625 .0233819
986.232 .0233852
986.838 .0233889
987.445 .0233930
988.050 .0233975
988.656 .0234023
989.261 .0234063
989.866 .0234101
990.471 .0234139
991.075 .0234174
991.679 .0234205
992.282 .0234237
992.886 .0234270
993.489 .0234308
994.091 .0234346
994.694 .0234387
995.296 .0234419
995.897 .0234440
996.499 .0234446
997.100 .0234426
997.701 .0234394
998.301 .0234357
998.901 .0234314
999.501 .0234285
1000.101 .0234273
1000.700 .0234277
1001.299 .0234298
1001.898 .0234333
1002.496 .0234371
1003.094 .0234400
1003.692 .0234421
1004.289 .0234433
1004.887 .0234448
1005.484 .0234478
1006.080 .0234531
1006.677 .0234614
1007.273 .0234743
1007.868 .0234901
1008.464 .0235077
1009.059 .0235266
1009.654 .0235456
1010.249 .0235637
1010.843 .0235806
1011.437 .0235956
1012.031 .0236111
1012.625 .0236266
1013.218 .0236419
1013.811 .0236569
1014.404 .0236717
1014.997 .0236849
1015.589 .0236961
1016.181 .0237041
1016.773 .0237090
1017.365 .0237106
1017.956 .0237099
1018.547 .0237062
1019.138 .0237018
1019.728 .0236969
1020.319 .0236915
1020.909 .0236864
1021.499 .0236831
1022.088 .0236802
1022.678 .0236784
1023.267 .0236784
1023.856 .0236801
1024.445 .0236829
1025.033 .0236870
1025.621 .0236917
1026.209 .0236977
1026.797 .0237045
1027.385 .0237117
1027.972 .0237187
1028.560 .0237267
1029.147 .0237345
1029.734 .0237428
1030.320 .0237521
1030.907 .0237618
1031.493 .0237715
1032.079 .0237814
1032.665 .0237911
1033.250 .0238004
1033.836 .0238090
1034.421 .0238166
1035.006 .0238233
1035.591 .0238293
1036.176 .0238337
1036.761 .0238383
1037.345 .0238438
1037.929 .0238505
1038.514 .0238585
1039.097 .0238674
1039.681 .0238759
1040.265 .0238834
1040.848 .0238894
1041.432 .0238929
1042.015 .0238936
1042.598 .0238924
1043.181 .0238897
1043.764 .0238867
1044.346 .0238851
1044.929 .0238842
1045.511 .0238842
1046.094 .0238846
1046.676 .0238838
1047.258 .0238814
1047.840 .0238756
1048.422 .0238675
1049.003 .0238569
1049.585 .0238448
1050.166 .0238327
1050.748 .0238215
1051.329 .0238128
1051.910 .0238075
1052.491 .0238047
1053.072 .0238043
1053.653 .0238041
1054.234 .0238039
1054.815 .0238019
1055.396 .0237980
1055.976 .0237934
1056.557 .0237875
1057.138 .0237809
1057.718 .0237761
1058.298 .0237725
1058.879 .0237708
1059.459 .0237713
1060.039 .0237730
1060.620 .0237758
1061.200 .0237784
1061.780 .0237800
1062.360 .0237803
1062.940 .0237802
1063.520 .0237808
1064.101 .0237817
1064.681 .0237844
1065.261 .0237891
1065.841 .0237941
1066.421 .0237998
1067.001 .0238027
1067.581 .0238020
1068.161 .0237974
1068.741 .0237880
1069.321 .0237752
1069.901 .0237610
1070.482 .0237454
1071.062 .0237302
1071.642 .0237155
1072.222 .0237007
1072.803 .0236842
1073.383 .0236666
1073.963 .0236468
1074.544 .0236266
1075.124 .0236062
1075.705 .0235869
1076.286 .0235689
1076.866 .0235564
1077.447 .0235481
1078.028 .0235439
1078.609 .0235436
1079.190 .0235432
1079.771 .0235413
1080.352 .0235375
1080.934 .0235302
1081.515 .0235224
1082.097 .0235138
1082.679 .0235063
1083.260 .0235006
1083.842 .0234980
1084.424 .0234979
1085.007 .0235006
1085.589 .0235066
1086.172 .0235145
1086.754 .0235222
1087.337 .0235320
1087.920 .0235433
1088.503 .0235579
1089.087 .0235748
1089.670 .0235909
1090.254 .0236043
1090.838 .0236115
1091.422 .0236105
1092.006 .0236013
1092.590 .0235841
1093.175 .0235603
1093.760 .0235313
1094.345 .0235004
1094.930 .0234682
1095.516 .0234367
1096.102 .0234071
1096.688 .0233789
1097.274 .0233508
1097.860 .0233195
1098.447 .0232853
1099.034 .0232507
1099.622 .0232193
1100.209 .0231907
1100.797 .0231674
1101.385 .0231492
1101.973 .0231360
1102.562 .0231260
1103.151 .0231175
1103.740 .0231082
1104.330 .0230972
1104.920 .0230839
1105.510 .0230693
1106.101 .0230546
1106.691 .0230420
1107.283 .0230311
1107.874 .0230242
1108.466 .0230184
1109.058 .0230129
1109.651 .0230050
1110.244 .0229973
1110.837 .0229900
1111.431 .0229821
1112.025 .0229745
1112.620 .0229692
1113.215 .0229688
1113.810 .0229729
1114.406 .0229806
1115.002 .0229910
1115.599 .0229982
1116.196 .0230011
1116.793 .0229997
1117.391 .0229929
1117.989 .0229828
1118.588 .0229737
1119.187 .0229668
1119.787 .0229643
1120.387 .0229691
1120.988 .0229818
1121.589 .0230016
1122.190 .0230268
1122.793 .0230549
1123.395 .0230796
1123.998 .0231052
1124.602 .0231302
1125.206 .0231527
1125.811 .0231788
1126.416 .0232116
1127.022 .0232474
1127.628 .0232876
1128.235 .0233344
1128.843 .0233857
1129.451 .0234366
1130.059 .0234844
1130.669 .0235245
1131.278 .0235592
1131.889 .0235874
1132.500 .0236116
1133.112 .0236304
1133.724 .0236514
1134.337 .0236698
1134.950 .0236868
1135.564 .0237039
1136.179 .0237259
1136.795 .0237491
1137.411 .0237744
1138.028 .0238018
1138.645 .0238285
1139.263 .0238580
1139.882 .0238856
1140.502 .0239165
1141.122 .0239503
1141.743 .0239938
1142.365 .0240060
1142.987 .0239638
1143.611 .0241762
1144.235 .0241813
1144.859 .0244665
1145.485 .0233686
