Measurement Sequence started on: 10-20-44-796
Integration time: 35
Scans to Average: 2 
>>>>>Begin Spectral Data<<<<<
432.953 .0391863
433.882 .0348297
434.810 .0354431
435.737 .0359737
436.662 .0370798
437.586 .0371766
438.509 .0374215
439.431 .0377831
440.351 .0380812
441.269 .0383307
442.187 .0385132
443.103 .0386478
444.018 .0387484
444.932 .0388091
445.844 .0388315
446.756 .0388422
447.666 .0388328
448.575 .0388115
449.482 .0387884
450.388 .0387642
451.294 .0387266
452.198 .0386839
453.100 .0386330
454.002 .0385604
454.902 .0384805
455.801 .0383984
456.699 .0383112
457.596 .0382264
458.492 .0381537
459.387 .0380822
460.280 .0380174
461.172 .0379577
462.064 .0379001
462.954 .0378430
463.843 .0377798
464.730 .0377136
465.617 .0376495
466.503 .0375931
467.387 .0375456
468.271 .0375009
469.153 .0374670
470.035 .0374362
470.915 .0374073
471.794 .0373776
472.673 .0373452
473.550 .0373093
474.426 .0372713
475.301 .0372286
476.175 .0371907
477.048 .0371516
477.920 .0371131
478.791 .0370766
479.661 .0370369
480.530 .0369913
481.398 .0369375
482.266 .0368736
483.132 .0368046
483.997 .0367297
484.861 .0366553
485.724 .0365842
486.587 .0365249
487.448 .0364771
488.308 .0364393
489.168 .0364097
490.026 .0363872
490.884 .0363622
491.741 .0363321
492.597 .0362944
493.452 .0362500
494.306 .0362004
495.159 .0361480
496.011 .0360970
496.862 .0360508
497.713 .0360066
498.562 .0359635
499.411 .0359155
500.259 .0358589
501.106 .0357884
501.952 .0357001
502.798 .0355957
503.642 .0354786
504.486 .0353512
505.329 .0352192
506.171 .0350912
507.012 .0349712
507.852 .0348589
508.692 .0347566
509.531 .0346622
510.369 .0345699
511.206 .0344796
512.043 .0343878
512.878 .0342937
513.713 .0341968
514.547 .0340995
515.381 .0340012
516.213 .0339075
517.045 .0338195
517.876 .0337357
518.706 .0336551
519.536 .0335776
520.365 .0334969
521.193 .0334105
522.020 .0333102
522.847 .0331935
523.673 .0330549
524.498 .0328945
525.323 .0327097
526.146 .0325102
526.969 .0323057
527.792 .0320996
528.614 .0318969
529.435 .0317053
530.255 .0315222
531.075 .0313472
531.894 .0311798
532.712 .0310181
533.530 .0308580
534.347 .0307009
535.163 .0305437
535.979 .0304023
536.794 .0302788
537.608 .0301750
538.422 .0300937
539.235 .0300407
540.048 .0300078
540.860 .0299910
541.671 .0299904
542.481 .0300012
543.292 .0300157
544.101 .0300340
544.910 .0300494
545.718 .0300624
546.526 .0300719
547.333 .0300817
548.139 .0300912
548.945 .0301030
549.750 .0301096
550.555 .0301186
551.359 .0301349
552.162 .0301588
552.965 .0301877
553.768 .0302206
554.569 .0302624
555.371 .0303060
556.171 .0303477
556.972 .0303926
557.771 .0304395
558.570 .0304899
559.369 .0305432
560.167 .0306013
560.964 .0306658
561.761 .0307397
562.558 .0308212
563.354 .0309127
564.149 .0310086
564.944 .0311071
565.738 .0312047
566.532 .0313018
567.325 .0313942
568.118 .0314753
568.910 .0315489
569.702 .0316161
570.494 .0316775
571.285 .0317363
572.075 .0317942
572.865 .0318528
573.654 .0319117
574.443 .0319685
575.232 .0320214
576.020 .0320700
576.807 .0321135
577.594 .0321516
578.381 .0321860
579.167 .0322177
579.952 .0322509
580.738 .0322848
581.522 .0323225
582.307 .0323613
583.091 .0324026
583.874 .0324441
584.657 .0324845
585.440 .0325230
586.222 .0325585
587.004 .0325917
587.785 .0326230
588.566 .0326501
589.346 .0326735
590.126 .0326928
590.906 .0327074
591.685 .0327174
592.464 .0327229
593.242 .0327236
594.020 .0327226
594.797 .0327204
595.575 .0327169
596.351 .0327132
597.128 .0327093
597.904 .0327037
598.679 .0326949
599.454 .0326827
600.229 .0326656
601.004 .0326448
601.778 .0326206
602.551 .0325940
603.325 .0325658
604.097 .0325380
604.870 .0325100
605.642 .0324816
606.414 .0324524
607.185 .0324215
607.956 .0323882
608.727 .0323532
609.497 .0323162
610.267 .0322786
611.037 .0322412
611.806 .0322057
612.575 .0321725
613.344 .0321421
614.112 .0321142
614.880 .0320878
615.647 .0320621
616.414 .0320370
617.181 .0320110
617.948 .0319854
618.714 .0319604
619.480 .0319367
620.245 .0319138
621.011 .0318915
621.775 .0318698
622.540 .0318481
623.304 .0318257
624.068 .0318030
624.832 .0317783
625.595 .0317525
626.358 .0317257
627.120 .0316985
627.883 .0316712
628.645 .0316454
629.406 .0316208
630.168 .0315975
630.929 .0315760
631.689 .0315558
632.450 .0315362
633.210 .0315173
633.970 .0314981
634.729 .0314776
635.489 .0314556
636.248 .0314326
637.006 .0314082
637.765 .0313840
638.523 .0313597
639.280 .0313362
640.038 .0313138
640.795 .0312941
641.552 .0312764
642.309 .0312605
643.065 .0312470
643.821 .0312342
644.577 .0312210
645.332 .0312072
646.088 .0311927
646.843 .0311782
647.597 .0311638
648.352 .0311501
649.106 .0311373
649.860 .0311263
650.613 .0311168
651.367 .0311088
652.120 .0311020
652.872 .0310960
653.625 .0310891
654.377 .0310812
655.129 .0310718
655.881 .0310603
656.632 .0310476
657.384 .0310340
658.135 .0310198
658.885 .0310054
659.636 .0309908
660.386 .0309769
661.136 .0309639
661.885 .0309517
662.635 .0309394
663.384 .0309273
664.133 .0309151
664.881 .0309024
665.630 .0308888
666.378 .0308752
667.126 .0308617
667.874 .0308474
668.621 .0308332
669.368 .0308181
670.115 .0308021
670.862 .0307855
671.608 .0307686
672.354 .0307514
673.100 .0307342
673.846 .0307170
674.591 .0306994
675.337 .0306819
676.082 .0306645
676.826 .0306465
677.571 .0306278
678.315 .0306084
679.059 .0305868
679.803 .0305627
680.547 .0305376
681.290 .0305104
682.033 .0304814
682.776 .0304509
683.518 .0304192
684.261 .0303864
685.003 .0303527
685.745 .0303185
686.487 .0302842
687.228 .0302504
687.969 .0302165
688.710 .0301818
689.451 .0301475
690.192 .0301133
690.932 .0300789
691.672 .0300447
692.412 .0300114
693.152 .0299786
693.891 .0299472
694.630 .0299174
695.369 .0298896
696.108 .0298629
696.846 .0298374
697.585 .0298125
698.323 .0297876
699.061 .0297625
699.798 .0297373
700.536 .0297118
701.273 .0296868
702.010 .0296621
702.746 .0296375
703.483 .0296131
704.219 .0295891
704.955 .0295643
705.691 .0295387
706.427 .0295124
707.162 .0294856
707.897 .0294584
708.632 .0294322
709.367 .0294069
710.101 .0293830
710.835 .0293606
711.569 .0293395
712.303 .0293188
713.037 .0292985
713.770 .0292779
714.503 .0292569
715.236 .0292358
715.969 .0292148
716.702 .0291949
717.434 .0291771
718.166 .0291609
718.898 .0291458
719.629 .0291317
720.361 .0291185
721.092 .0291047
721.823 .0290900
722.554 .0290741
723.284 .0290573
724.014 .0290391
724.744 .0290198
725.474 .0289997
726.204 .0289792
726.933 .0289586
727.662 .0289382
728.391 .0289182
729.120 .0288985
729.849 .0288793
730.577 .0288615
731.305 .0288448
732.033 .0288298
732.760 .0288148
733.488 .0288007
734.215 .0287872
734.942 .0287738
735.669 .0287596
736.395 .0287453
737.122 .0287318
737.848 .0287186
738.573 .0287062
739.299 .0286949
740.024 .0286847
740.750 .0286758
741.474 .0286673
742.199 .0286588
742.924 .0286500
743.648 .0286411
744.372 .0286314
745.096 .0286224
745.819 .0286142
746.543 .0286071
747.266 .0286017
747.989 .0285986
748.711 .0285974
749.434 .0285972
750.156 .0285984
750.878 .0286005
751.599 .0286031
752.321 .0286060
753.042 .0286088
753.763 .0286120
754.484 .0286153
755.205 .0286184
755.925 .0286208
756.645 .0286226
757.365 .0286234
758.085 .0286227
758.804 .0286203
759.523 .0286163
760.242 .0286103
760.961 .0286022
761.679 .0285925
762.397 .0285809
763.115 .0285672
763.833 .0285518
764.551 .0285346
765.268 .0285166
765.985 .0284978
766.702 .0284789
767.418 .0284603
768.134 .0284429
768.850 .0284263
769.566 .0284104
770.282 .0283954
770.997 .0283815
771.712 .0283678
772.427 .0283548
773.142 .0283424
773.856 .0283300
774.570 .0283173
775.284 .0283046
775.998 .0282913
776.711 .0282776
777.424 .0282630
778.137 .0282474
778.849 .0282308
779.562 .0282132
780.274 .0281949
780.986 .0281761
781.697 .0281574
782.409 .0281394
783.120 .0281216
783.831 .0281054
784.541 .0280908
785.252 .0280777
785.962 .0280667
786.671 .0280575
787.381 .0280496
788.090 .0280427
788.799 .0280358
789.508 .0280283
790.217 .0280197
790.925 .0280101
791.633 .0279988
792.341 .0279856
793.048 .0279709
793.755 .0279543
794.462 .0279359
795.169 .0279169
795.875 .0278960
796.581 .0278735
797.287 .0278497
797.993 .0278241
798.698 .0277972
799.403 .0277696
800.108 .0277420
800.812 .0277149
801.517 .0276886
802.221 .0276641
802.924 .0276409
803.628 .0276203
804.331 .0276023
805.034 .0275859
805.736 .0275710
806.439 .0275573
807.141 .0275438
807.843 .0275308
808.544 .0275173
809.245 .0275034
809.946 .0274887
810.647 .0274737
811.347 .0274581
812.047 .0274418
812.747 .0274256
813.447 .0274090
814.146 .0273915
814.845 .0273742
815.543 .0273561
816.242 .0273375
816.940 .0273187
817.638 .0272994
818.335 .0272795
819.032 .0272589
819.729 .0272379
820.426 .0272162
821.122 .0271942
821.818 .0271718
822.514 .0271485
823.209 .0271253
823.905 .0271022
824.599 .0270788
825.294 .0270554
825.988 .0270320
826.682 .0270083
827.376 .0269842
828.069 .0269600
828.762 .0269359
829.455 .0269120
830.147 .0268884
830.840 .0268653
831.531 .0268431
832.223 .0268225
832.914 .0268034
833.605 .0267862
834.296 .0267711
834.986 .0267572
835.676 .0267442
836.366 .0267319
837.055 .0267202
837.744 .0267086
838.433 .0266963
839.121 .0266837
839.809 .0266707
840.497 .0266572
841.185 .0266437
841.872 .0266302
842.559 .0266168
843.245 .0266035
843.932 .0265897
844.617 .0265751
845.303 .0265601
845.988 .0265447
846.673 .0265294
847.358 .0265143
848.042 .0265001
848.726 .0264866
849.410 .0264745
850.093 .0264638
850.776 .0264538
851.459 .0264444
852.141 .0264349
852.823 .0264250
853.505 .0264147
854.186 .0264039
854.867 .0263930
855.548 .0263824
856.228 .0263727
856.908 .0263630
857.588 .0263542
858.267 .0263458
858.946 .0263375
859.625 .0263294
860.303 .0263211
860.981 .0263125
861.659 .0263039
862.336 .0262953
863.013 .0262867
863.690 .0262786
864.366 .0262708
865.042 .0262634
865.718 .0262562
866.393 .0262495
867.068 .0262427
867.743 .0262358
868.417 .0262292
869.091 .0262219
869.765 .0262146
870.438 .0262067
871.111 .0261981
871.783 .0261896
872.456 .0261807
873.127 .0261713
873.799 .0261623
874.470 .0261534
875.141 .0261445
875.811 .0261359
876.481 .0261276
877.151 .0261192
877.820 .0261107
878.489 .0261021
879.158 .0260933
879.826 .0260846
880.494 .0260765
881.162 .0260681
881.829 .0260607
882.496 .0260540
883.163 .0260477
883.829 .0260423
884.495 .0260372
885.160 .0260327
885.825 .0260289
886.490 .0260259
887.154 .0260242
887.818 .0260241
888.482 .0260259
889.145 .0260292
889.808 .0260340
890.471 .0260399
891.133 .0260462
891.795 .0260527
892.456 .0260591
893.117 .0260652
893.778 .0260710
894.439 .0260770
895.099 .0260824
895.758 .0260884
896.417 .0260944
897.076 .0260997
897.735 .0261041
898.393 .0261073
899.051 .0261087
899.708 .0261084
900.365 .0261070
901.022 .0261046
901.678 .0261015
902.334 .0260989
902.990 .0260959
903.645 .0260933
904.300 .0260906
904.954 .0260876
905.608 .0260840
906.262 .0260801
906.915 .0260759
907.568 .0260712
908.221 .0260667
908.873 .0260630
909.525 .0260591
910.176 .0260557
910.828 .0260522
911.478 .0260487
912.129 .0260448
912.778 .0260410
913.428 .0260368
914.077 .0260331
914.726 .0260301
915.375 .0260276
916.023 .0260254
916.670 .0260237
917.318 .0260218
917.964 .0260193
918.611 .0260158
919.257 .0260112
919.903 .0260054
920.548 .0259995
921.193 .0259932
921.838 .0259874
922.482 .0259819
923.126 .0259771
923.770 .0259721
924.413 .0259670
925.056 .0259606
925.698 .0259528
926.340 .0259435
926.982 .0259330
927.623 .0259214
928.264 .0259096
928.904 .0258978
929.544 .0258871
930.184 .0258772
930.823 .0258684
931.462 .0258598
932.101 .0258513
932.739 .0258426
933.377 .0258330
934.014 .0258222
934.651 .0258114
935.288 .0257998
935.924 .0257885
936.560 .0257772
937.196 .0257664
937.831 .0257559
938.466 .0257452
939.100 .0257342
939.734 .0257221
940.368 .0257091
941.001 .0256952
941.634 .0256801
942.266 .0256648
942.899 .0256490
943.530 .0256325
944.162 .0256153
944.793 .0255977
945.423 .0255793
946.053 .0255601
946.683 .0255402
947.313 .0255199
947.942 .0254992
948.571 .0254779
949.199 .0254567
949.827 .0254352
950.455 .0254142
951.082 .0253932
951.709 .0253721
952.335 .0253513
952.961 .0253304
953.587 .0253104
954.212 .0252908
954.837 .0252721
955.462 .0252546
956.086 .0252377
956.710 .0252218
957.334 .0252065
957.957 .0251917
958.579 .0251771
959.202 .0251626
959.824 .0251477
960.445 .0251319
961.067 .0251156
961.688 .0250987
962.308 .0250814
962.928 .0250640
963.548 .0250461
964.168 .0250281
964.787 .0250098
965.406 .0249915
966.024 .0249731
966.642 .0249547
967.260 .0249358
967.877 .0249167
968.494 .0248972
969.110 .0248777
969.727 .0248582
970.342 .0248395
970.958 .0248220
971.573 .0248061
972.188 .0247912
972.802 .0247772
973.416 .0247639
974.030 .0247514
974.643 .0247385
975.256 .0247258
975.869 .0247130
976.481 .0247001
977.093 .0246877
977.705 .0246765
978.316 .0246668
978.927 .0246587
979.538 .0246516
980.148 .0246448
980.758 .0246376
981.367 .0246295
981.977 .0246199
982.586 .0246094
983.194 .0245982
983.802 .0245863
984.410 .0245742
985.018 .0245622
985.625 .0245505
986.232 .0245392
986.838 .0245280
987.445 .0245160
988.050 .0245028
988.656 .0244879
989.261 .0244714
989.866 .0244531
990.471 .0244335
991.075 .0244128
991.679 .0243911
992.282 .0243693
992.886 .0243476
993.489 .0243269
994.091 .0243079
994.694 .0242900
995.296 .0242734
995.897 .0242574
996.499 .0242416
997.100 .0242251
997.701 .0242084
998.301 .0241918
998.901 .0241751
999.501 .0241592
1000.101 .0241449
1000.700 .0241325
1001.299 .0241227
1001.898 .0241150
1002.496 .0241086
1003.094 .0241030
1003.692 .0240974
1004.289 .0240912
1004.887 .0240844
1005.484 .0240774
1006.080 .0240699
1006.677 .0240631
1007.273 .0240572
1007.868 .0240518
1008.464 .0240471
1009.059 .0240431
1009.654 .0240395
1010.249 .0240359
1010.843 .0240326
1011.437 .0240296
1012.031 .0240266
1012.625 .0240246
1013.218 .0240225
1013.811 .0240202
1014.404 .0240173
1014.997 .0240137
1015.589 .0240089
1016.181 .0240031
1016.773 .0239965
1017.365 .0239890
1017.956 .0239813
1018.547 .0239741
1019.138 .0239666
1019.728 .0239589
1020.319 .0239519
1020.909 .0239446
1021.499 .0239369
1022.088 .0239298
1022.678 .0239223
1023.267 .0239150
1023.856 .0239087
1024.445 .0239027
1025.033 .0238970
1025.621 .0238923
1026.209 .0238882
1026.797 .0238842
1027.385 .0238806
1027.972 .0238775
1028.560 .0238735
1029.147 .0238694
1029.734 .0238645
1030.320 .0238578
1030.907 .0238498
1031.493 .0238401
1032.079 .0238287
1032.665 .0238161
1033.250 .0238026
1033.836 .0237884
1034.421 .0237743
1035.006 .0237613
1035.591 .0237489
1036.176 .0237379
1036.761 .0237278
1037.345 .0237189
1037.929 .0237100
1038.514 .0237013
1039.097 .0236935
1039.681 .0236862
1040.265 .0236794
1040.848 .0236735
1041.432 .0236690
1042.015 .0236653
1042.598 .0236627
1043.181 .0236620
1043.764 .0236617
1044.346 .0236632
1044.929 .0236647
1045.511 .0236660
1046.094 .0236668
1046.676 .0236672
1047.258 .0236663
1047.840 .0236651
1048.422 .0236639
1049.003 .0236621
1049.585 .0236600
1050.166 .0236594
1050.748 .0236595
1051.329 .0236607
1051.910 .0236630
1052.491 .0236662
1053.072 .0236689
1053.653 .0236715
1054.234 .0236725
1054.815 .0236725
1055.396 .0236713
1055.976 .0236692
1056.557 .0236651
1057.138 .0236610
1057.718 .0236565
1058.298 .0236525
1058.879 .0236495
1059.459 .0236476
1060.039 .0236449
1060.620 .0236410
1061.200 .0236351
1061.780 .0236276
1062.360 .0236177
1062.940 .0236077
1063.520 .0235981
1064.101 .0235908
1064.681 .0235858
1065.261 .0235836
1065.841 .0235833
1066.421 .0235849
1067.001 .0235852
1067.581 .0235833
1068.161 .0235781
1068.741 .0235704
1069.321 .0235605
1069.901 .0235502
1070.482 .0235410
1071.062 .0235343
1071.642 .0235299
1072.222 .0235280
1072.803 .0235269
1073.383 .0235262
1073.963 .0235243
1074.544 .0235218
1075.124 .0235178
1075.705 .0235129
1076.286 .0235098
1076.866 .0235094
1077.447 .0235113
1078.028 .0235158
1078.609 .0235220
1079.190 .0235300
1079.771 .0235384
1080.352 .0235473
1080.934 .0235546
1081.515 .0235616
1082.097 .0235686
1082.679 .0235747
1083.260 .0235803
1083.842 .0235861
1084.424 .0235918
1085.007 .0235968
1085.589 .0236012
1086.172 .0236034
1086.754 .0236033
1087.337 .0236036
1087.920 .0236032
1088.503 .0236002
1089.087 .0235963
1089.670 .0235935
1090.254 .0235906
1090.838 .0235893
1091.422 .0235892
1092.006 .0235905
1092.590 .0235928
1093.175 .0235957
1093.760 .0235969
1094.345 .0235977
1094.930 .0235993
1095.516 .0236004
1096.102 .0236028
1096.688 .0236076
1097.274 .0236119
1097.860 .0236179
1098.447 .0236256
1099.034 .0236334
1099.622 .0236405
1100.209 .0236477
1100.797 .0236545
1101.385 .0236615
1101.973 .0236687
1102.562 .0236769
1103.151 .0236842
1103.740 .0236937
1104.330 .0237011
1104.920 .0237066
1105.510 .0237121
1106.101 .0237169
1106.691 .0237229
1107.283 .0237327
1107.874 .0237434
1108.466 .0237568
1109.058 .0237742
1109.651 .0237933
1110.244 .0238103
1110.837 .0238259
1111.431 .0238378
1112.025 .0238462
1112.620 .0238506
1113.215 .0238546
1113.810 .0238573
1114.406 .0238665
1115.002 .0238778
1115.599 .0238911
1116.196 .0239074
1116.793 .0239243
1117.391 .0239396
1117.989 .0239569
1118.588 .0239754
1119.187 .0239939
1119.787 .0240124
1120.387 .0240347
1120.988 .0240552
1121.589 .0240777
1122.190 .0240976
1122.793 .0241156
1123.395 .0241285
1123.998 .0241388
1124.602 .0241425
1125.206 .0241453
1125.811 .0241515
1126.416 .0241598
1127.022 .0241682
1127.628 .0241824
1128.235 .0241974
1128.843 .0242158
1129.451 .0242356
1130.059 .0242598
1130.669 .0242845
1131.278 .0243178
1131.889 .0243548
1132.500 .0243973
1133.112 .0244465
1133.724 .0245011
1134.337 .0245548
1134.950 .0246065
1135.564 .0246543
1136.179 .0246929
1136.795 .0247239
1137.411 .0247540
1138.028 .0247783
1138.645 .0248052
1139.263 .0248327
1139.882 .0248553
1140.502 .0248768
1141.122 .0249037
1141.743 .0249358
1142.365 .0249733
1142.987 .0248337
1143.611 .0248963
1144.235 .0251644
1144.859 .0252950
1145.485 .0253726
