Measurement Sequence started on: 10-20-44-796
Integration time: 35
Scans to Average: 2 
>>>>>Begin Spectral Data<<<<<
432.953 .0403698
433.882 .0401225
434.810 .0353421
435.737 .0358247
436.662 .0359881
437.586 .0362027
438.509 .0358696
439.431 .0356039
440.351 .0354678
441.269 .0352857
442.187 .0350992
443.103 .0349200
444.018 .0347644
444.932 .0346167
445.844 .0344799
446.756 .0343447
447.666 .0342173
448.575 .0340573
449.482 .0338788
450.388 .0336893
451.294 .0335033
452.198 .0333175
453.100 .0331599
454.002 .0330305
454.902 .0329396
455.801 .0328764
456.699 .0328376
457.596 .0328245
458.492 .0328187
459.387 .0328047
460.280 .0327782
461.172 .0327431
462.064 .0326946
462.954 .0326347
463.843 .0325757
464.730 .0325183
465.617 .0324632
466.503 .0324108
467.387 .0323608
468.271 .0323127
469.153 .0322630
470.035 .0322088
470.915 .0321491
471.794 .0320869
472.673 .0320186
473.550 .0319533
474.426 .0318966
475.301 .0318492
476.175 .0318106
477.048 .0317835
477.920 .0317691
478.791 .0317642
479.661 .0317669
480.530 .0317731
481.398 .0317785
482.266 .0317789
483.132 .0317741
483.997 .0317628
484.861 .0317511
485.724 .0317403
486.587 .0317340
487.448 .0317297
488.308 .0317263
489.168 .0317242
490.026 .0317226
490.884 .0317207
491.741 .0317155
492.597 .0317033
493.452 .0316863
494.306 .0316619
495.159 .0316321
496.011 .0315964
496.862 .0315567
497.713 .0315077
498.562 .0314498
499.411 .0313825
500.259 .0313075
501.106 .0312268
501.952 .0311409
502.798 .0310554
503.642 .0309678
504.486 .0308784
505.329 .0307838
506.171 .0306828
507.012 .0305768
507.852 .0304627
508.692 .0303459
509.531 .0302271
510.369 .0301130
511.206 .0300072
512.043 .0299121
512.878 .0298215
513.713 .0297267
514.547 .0296222
515.381 .0295005
516.213 .0293554
517.045 .0291836
517.876 .0289792
518.706 .0287536
519.536 .0285052
520.365 .0282423
521.193 .0279701
522.020 .0276957
522.847 .0274225
523.673 .0271513
524.498 .0268828
525.323 .0266211
526.146 .0263671
526.969 .0261329
527.792 .0259056
528.614 .0257003
529.435 .0255198
530.255 .0253748
531.075 .0252636
531.894 .0251979
532.712 .0251747
533.530 .0251831
534.347 .0252267
535.163 .0252806
535.979 .0253476
536.794 .0254158
537.608 .0254716
538.422 .0255099
539.235 .0255329
540.048 .0255516
540.860 .0255597
541.671 .0255760
542.481 .0256037
543.292 .0256250
544.101 .0256492
544.910 .0256569
545.718 .0256542
546.526 .0256337
547.333 .0256106
548.139 .0255794
548.945 .0255619
549.750 .0255560
550.555 .0255672
551.359 .0255995
552.162 .0256511
552.965 .0257123
553.768 .0257741
554.569 .0258349
555.371 .0258932
556.171 .0259450
556.972 .0260033
557.771 .0260621
558.570 .0261322
559.369 .0262049
560.167 .0262832
560.964 .0263612
561.761 .0264427
562.558 .0265267
563.354 .0266100
564.149 .0266895
564.944 .0267637
565.738 .0268320
566.532 .0268928
567.325 .0269468
568.118 .0269983
568.910 .0270516
569.702 .0271104
570.494 .0271761
571.285 .0272521
572.075 .0273408
572.865 .0274378
573.654 .0275383
574.443 .0276363
575.232 .0277280
576.020 .0278091
576.807 .0278811
577.594 .0279467
578.381 .0280131
579.167 .0280823
579.952 .0281575
580.738 .0282418
581.522 .0283326
582.307 .0284253
583.091 .0285153
583.874 .0285994
584.657 .0286755
585.440 .0287407
586.222 .0287978
587.004 .0288475
587.785 .0288936
588.566 .0289370
589.346 .0289758
590.126 .0290084
590.906 .0290352
591.685 .0290561
592.464 .0290702
593.242 .0290782
594.020 .0290800
594.797 .0290781
595.575 .0290737
596.351 .0290690
597.128 .0290648
597.904 .0290602
598.679 .0290574
599.454 .0290532
600.229 .0290482
601.004 .0290425
601.778 .0290365
602.551 .0290308
603.325 .0290278
604.097 .0290276
604.870 .0290288
605.642 .0290318
606.414 .0290367
607.185 .0290408
607.956 .0290449
608.727 .0290474
609.497 .0290469
610.267 .0290436
611.037 .0290381
611.806 .0290284
612.575 .0290168
613.344 .0290040
614.112 .0289894
614.880 .0289735
615.647 .0289577
616.414 .0289403
617.181 .0289226
617.948 .0289051
618.714 .0288874
619.480 .0288693
620.245 .0288518
621.011 .0288334
621.775 .0288148
622.540 .0287973
623.304 .0287797
624.068 .0287625
624.832 .0287464
625.595 .0287308
626.358 .0287151
627.120 .0287000
627.883 .0286855
628.645 .0286708
629.406 .0286577
630.168 .0286451
630.929 .0286330
631.689 .0286223
632.450 .0286123
633.210 .0286032
633.970 .0285942
634.729 .0285845
635.489 .0285726
636.248 .0285584
637.006 .0285417
637.765 .0285224
638.523 .0285014
639.280 .0284801
640.038 .0284592
640.795 .0284394
641.552 .0284210
642.309 .0284034
643.065 .0283862
643.821 .0283684
644.577 .0283481
645.332 .0283254
646.088 .0283000
646.843 .0282735
647.597 .0282474
648.352 .0282229
649.106 .0282021
649.860 .0281851
650.613 .0281717
651.367 .0281615
652.120 .0281523
652.872 .0281429
653.625 .0281316
654.377 .0281182
655.129 .0281027
655.881 .0280857
656.632 .0280689
657.384 .0280533
658.135 .0280400
658.885 .0280293
659.636 .0280196
660.386 .0280112
661.136 .0280030
661.885 .0279929
662.635 .0279812
663.384 .0279685
664.133 .0279552
664.881 .0279425
665.630 .0279310
666.378 .0279214
667.126 .0279131
667.874 .0279053
668.621 .0278964
669.368 .0278853
670.115 .0278721
670.862 .0278557
671.608 .0278375
672.354 .0278193
673.100 .0278022
673.846 .0277874
674.591 .0277759
675.337 .0277678
676.082 .0277617
676.826 .0277570
677.571 .0277524
678.315 .0277470
679.059 .0277412
679.803 .0277348
680.547 .0277286
681.290 .0277234
682.033 .0277194
682.776 .0277159
683.518 .0277128
684.261 .0277093
685.003 .0277039
685.745 .0276961
686.487 .0276861
687.228 .0276738
687.969 .0276598
688.710 .0276452
689.451 .0276304
690.192 .0276160
690.932 .0276017
691.672 .0275865
692.412 .0275706
693.152 .0275536
693.891 .0275358
694.630 .0275176
695.369 .0275000
696.108 .0274839
696.846 .0274696
697.585 .0274570
698.323 .0274456
699.061 .0274349
699.798 .0274245
700.536 .0274140
701.273 .0274031
702.010 .0273920
702.746 .0273809
703.483 .0273703
704.219 .0273610
704.955 .0273515
705.691 .0273425
706.427 .0273332
707.162 .0273227
707.897 .0273103
708.632 .0272960
709.367 .0272795
710.101 .0272609
710.835 .0272406
711.569 .0272185
712.303 .0271943
713.037 .0271688
713.770 .0271422
714.503 .0271138
715.236 .0270848
715.969 .0270559
716.702 .0270269
717.434 .0269996
718.166 .0269734
718.898 .0269485
719.629 .0269252
720.361 .0269037
721.092 .0268836
721.823 .0268639
722.554 .0268459
723.284 .0268289
724.014 .0268130
724.744 .0267986
725.474 .0267847
726.204 .0267712
726.933 .0267577
727.662 .0267429
728.391 .0267265
729.120 .0267085
729.849 .0266896
730.577 .0266698
731.305 .0266497
732.033 .0266299
732.760 .0266104
733.488 .0265912
734.215 .0265723
734.942 .0265527
735.669 .0265327
736.395 .0265120
737.122 .0264907
737.848 .0264694
738.573 .0264485
739.299 .0264285
740.024 .0264099
740.750 .0263925
741.474 .0263761
742.199 .0263599
742.924 .0263438
743.648 .0263275
744.372 .0263106
745.096 .0262938
745.819 .0262772
746.543 .0262615
747.266 .0262468
747.989 .0262334
748.711 .0262211
749.434 .0262098
750.156 .0261996
750.878 .0261901
751.599 .0261814
752.321 .0261733
753.042 .0261663
753.763 .0261611
754.484 .0261579
755.205 .0261564
755.925 .0261558
756.645 .0261560
757.365 .0261560
758.085 .0261550
758.804 .0261529
759.523 .0261495
760.242 .0261452
760.961 .0261401
761.679 .0261345
762.397 .0261285
763.115 .0261225
763.833 .0261169
764.551 .0261113
765.268 .0261047
765.985 .0260961
766.702 .0260854
767.418 .0260731
768.134 .0260593
768.850 .0260449
769.566 .0260304
770.282 .0260169
770.997 .0260046
771.712 .0259930
772.427 .0259823
773.142 .0259725
773.856 .0259630
774.570 .0259530
775.284 .0259419
775.998 .0259306
776.711 .0259192
777.424 .0259089
778.137 .0258998
778.849 .0258916
779.562 .0258843
780.274 .0258775
780.986 .0258711
781.697 .0258651
782.409 .0258588
783.120 .0258523
783.831 .0258455
784.541 .0258383
785.252 .0258308
785.962 .0258223
786.671 .0258133
787.381 .0258040
788.090 .0257936
788.799 .0257821
789.508 .0257695
790.217 .0257567
790.925 .0257438
791.633 .0257309
792.341 .0257187
793.048 .0257071
793.755 .0256957
794.462 .0256844
795.169 .0256725
795.875 .0256609
796.581 .0256486
797.287 .0256356
797.993 .0256223
798.698 .0256094
799.403 .0255970
800.108 .0255851
800.812 .0255739
801.517 .0255637
802.221 .0255534
802.924 .0255429
803.628 .0255318
804.331 .0255204
805.034 .0255083
805.736 .0254956
806.439 .0254825
807.141 .0254701
807.843 .0254582
808.544 .0254470
809.245 .0254368
809.946 .0254277
810.647 .0254196
811.347 .0254120
812.047 .0254045
812.747 .0253975
813.447 .0253898
814.146 .0253810
814.845 .0253717
815.543 .0253618
816.242 .0253516
816.940 .0253407
817.638 .0253296
818.335 .0253180
819.032 .0253059
819.729 .0252934
820.426 .0252803
821.122 .0252665
821.818 .0252520
822.514 .0252357
823.209 .0252181
823.905 .0251991
824.599 .0251783
825.294 .0251561
825.988 .0251335
826.682 .0251104
827.376 .0250875
828.069 .0250647
828.762 .0250433
829.455 .0250226
830.147 .0250030
830.840 .0249842
831.531 .0249662
832.223 .0249485
832.914 .0249313
833.605 .0249140
834.296 .0248973
834.986 .0248811
835.676 .0248652
836.366 .0248493
837.055 .0248336
837.744 .0248170
838.433 .0247995
839.121 .0247812
839.809 .0247627
840.497 .0247436
841.185 .0247248
841.872 .0247062
842.559 .0246887
843.245 .0246729
843.932 .0246591
844.617 .0246467
845.303 .0246360
845.988 .0246269
846.673 .0246184
847.358 .0246111
848.042 .0246047
848.726 .0245997
849.410 .0245965
850.093 .0245944
850.776 .0245931
851.459 .0245925
852.141 .0245921
852.823 .0245913
853.505 .0245901
854.186 .0245878
854.867 .0245837
855.548 .0245780
856.228 .0245707
856.908 .0245620
857.588 .0245520
858.267 .0245413
858.946 .0245298
859.625 .0245181
860.303 .0245063
860.981 .0244944
861.659 .0244834
862.336 .0244725
863.013 .0244612
863.690 .0244488
864.366 .0244356
865.042 .0244209
865.718 .0244051
866.393 .0243883
867.068 .0243713
867.743 .0243545
868.417 .0243383
869.091 .0243229
869.765 .0243092
870.438 .0242972
871.111 .0242863
871.783 .0242765
872.456 .0242677
873.127 .0242595
873.799 .0242527
874.470 .0242463
875.141 .0242407
875.811 .0242356
876.481 .0242306
877.151 .0242259
877.820 .0242210
878.489 .0242164
879.158 .0242120
879.826 .0242080
880.494 .0242049
881.162 .0242018
881.829 .0241988
882.496 .0241961
883.163 .0241927
883.829 .0241884
884.495 .0241828
885.160 .0241761
885.825 .0241694
886.490 .0241632
887.154 .0241583
887.818 .0241554
888.482 .0241546
889.145 .0241557
889.808 .0241575
890.471 .0241600
891.133 .0241620
891.795 .0241628
892.456 .0241625
893.117 .0241612
893.778 .0241586
894.439 .0241558
895.099 .0241528
895.758 .0241505
896.417 .0241486
897.076 .0241473
897.735 .0241460
898.393 .0241444
899.051 .0241428
899.708 .0241401
900.365 .0241363
901.022 .0241323
901.678 .0241277
902.334 .0241228
902.990 .0241184
903.645 .0241146
904.300 .0241108
904.954 .0241074
905.608 .0241035
906.262 .0240983
906.915 .0240922
907.568 .0240849
908.221 .0240764
908.873 .0240674
909.525 .0240590
910.176 .0240512
910.828 .0240448
911.478 .0240401
912.129 .0240362
912.778 .0240334
913.428 .0240316
914.077 .0240293
914.726 .0240274
915.375 .0240262
916.023 .0240256
916.670 .0240264
917.318 .0240288
917.964 .0240323
918.611 .0240368
919.257 .0240419
919.903 .0240466
920.548 .0240497
921.193 .0240519
921.838 .0240529
922.482 .0240531
923.126 .0240531
923.770 .0240526
924.413 .0240512
925.056 .0240497
925.698 .0240471
926.340 .0240424
926.982 .0240359
927.623 .0240277
928.264 .0240181
928.904 .0240072
929.544 .0239957
930.184 .0239844
930.823 .0239731
931.462 .0239627
932.101 .0239515
932.739 .0239401
933.377 .0239282
934.014 .0239152
934.651 .0239019
935.288 .0238880
935.924 .0238742
936.560 .0238603
937.196 .0238476
937.831 .0238365
938.466 .0238261
939.100 .0238171
939.734 .0238087
940.368 .0238000
941.001 .0237902
941.634 .0237794
942.266 .0237661
942.899 .0237510
943.530 .0237342
944.162 .0237154
944.793 .0236960
945.423 .0236768
946.053 .0236581
946.683 .0236395
947.313 .0236217
947.942 .0236033
948.571 .0235830
949.199 .0235615
949.827 .0235374
950.455 .0235115
951.082 .0234857
951.709 .0234601
952.335 .0234356
952.961 .0234141
953.587 .0233956
954.212 .0233794
954.837 .0233653
955.462 .0233521
956.086 .0233386
956.710 .0233246
957.334 .0233099
957.957 .0232935
958.579 .0232773
959.202 .0232612
959.824 .0232449
960.445 .0232291
961.067 .0232140
961.688 .0231991
962.308 .0231845
962.928 .0231702
963.548 .0231549
964.168 .0231386
964.787 .0231222
965.406 .0231051
966.024 .0230881
966.642 .0230710
967.260 .0230541
967.877 .0230380
968.494 .0230232
969.110 .0230087
969.727 .0229956
970.342 .0229836
970.958 .0229723
971.573 .0229612
972.188 .0229505
972.802 .0229398
973.416 .0229288
974.030 .0229174
974.643 .0229058
975.256 .0228937
975.869 .0228824
976.481 .0228712
977.093 .0228608
977.705 .0228519
978.316 .0228440
978.927 .0228370
979.538 .0228307
980.148 .0228242
980.758 .0228179
981.367 .0228113
981.977 .0228052
982.586 .0227985
983.194 .0227923
983.802 .0227872
984.410 .0227829
985.018 .0227791
985.625 .0227759
986.232 .0227726
986.838 .0227684
987.445 .0227626
988.050 .0227546
988.656 .0227439
989.261 .0227304
989.866 .0227146
990.471 .0226970
991.075 .0226785
991.679 .0226601
992.282 .0226421
992.886 .0226252
993.489 .0226096
994.091 .0225940
994.694 .0225787
995.296 .0225639
995.897 .0225490
996.499 .0225335
997.100 .0225184
997.701 .0225041
998.301 .0224923
998.901 .0224834
999.501 .0224782
1000.101 .0224763
1000.700 .0224778
1001.299 .0224812
1001.898 .0224852
1002.496 .0224885
1003.094 .0224898
1003.692 .0224887
1004.289 .0224859
1004.887 .0224813
1005.484 .0224765
1006.080 .0224722
1006.677 .0224702
1007.273 .0224695
1007.868 .0224701
1008.464 .0224699
1009.059 .0224689
1009.654 .0224661
1010.249 .0224611
1010.843 .0224545
1011.437 .0224469
1012.031 .0224397
1012.625 .0224342
1013.218 .0224312
1013.811 .0224307
1014.404 .0224321
1014.997 .0224353
1015.589 .0224380
1016.181 .0224395
1016.773 .0224392
1017.365 .0224371
1017.956 .0224333
1018.547 .0224283
1019.138 .0224225
1019.728 .0224174
1020.319 .0224135
1020.909 .0224103
1021.499 .0224077
1022.088 .0224058
1022.678 .0224033
1023.267 .0223994
1023.856 .0223944
1024.445 .0223892
1025.033 .0223839
1025.621 .0223789
1026.209 .0223748
1026.797 .0223714
1027.385 .0223693
1027.972 .0223690
1028.560 .0223699
1029.147 .0223725
1029.734 .0223766
1030.320 .0223814
1030.907 .0223863
1031.493 .0223920
1032.079 .0223976
1032.665 .0224024
1033.250 .0224074
1033.836 .0224118
1034.421 .0224155
1035.006 .0224188
1035.591 .0224224
1036.176 .0224257
1036.761 .0224285
1037.345 .0224304
1037.929 .0224297
1038.514 .0224273
1039.097 .0224227
1039.681 .0224156
1040.265 .0224076
1040.848 .0224006
1041.432 .0223953
1042.015 .0223907
1042.598 .0223889
1043.181 .0223899
1043.764 .0223922
1044.346 .0223960
1044.929 .0224001
1045.511 .0224041
1046.094 .0224082
1046.676 .0224127
1047.258 .0224173
1047.840 .0224234
1048.422 .0224315
1049.003 .0224400
1049.585 .0224487
1050.166 .0224576
1050.748 .0224658
1051.329 .0224731
1051.910 .0224803
1052.491 .0224872
1053.072 .0224945
1053.653 .0225035
1054.234 .0225136
1054.815 .0225248
1055.396 .0225371
1055.976 .0225492
1056.557 .0225604
1057.138 .0225701
1057.718 .0225780
1058.298 .0225833
1058.879 .0225886
1059.459 .0225934
1060.039 .0225989
1060.620 .0226033
1061.200 .0226073
1061.780 .0226105
1062.360 .0226140
1062.940 .0226162
1063.520 .0226167
1064.101 .0226157
1064.681 .0226147
1065.261 .0226105
1065.841 .0226055
1066.421 .0225992
1067.001 .0225936
1067.581 .0225882
1068.161 .0225831
1068.741 .0225766
1069.321 .0225702
1069.901 .0225633
1070.482 .0225554
1071.062 .0225438
1071.642 .0225311
1072.222 .0225158
1072.803 .0225002
1073.383 .0224846
1073.963 .0224701
1074.544 .0224570
1075.124 .0224486
1075.705 .0224413
1076.286 .0224357
1076.866 .0224329
1077.447 .0224330
1078.028 .0224358
1078.609 .0224423
1079.190 .0224528
1079.771 .0224661
1080.352 .0224807
1080.934 .0224976
1081.515 .0225154
1082.097 .0225337
1082.679 .0225498
1083.260 .0225647
1083.842 .0225802
1084.424 .0225955
1085.007 .0226096
1085.589 .0226234
1086.172 .0226372
1086.754 .0226484
1087.337 .0226564
1087.920 .0226580
1088.503 .0226574
1089.087 .0226522
1089.670 .0226451
1090.254 .0226384
1090.838 .0226329
1091.422 .0226310
1092.006 .0226312
1092.590 .0226331
1093.175 .0226376
1093.760 .0226388
1094.345 .0226373
1094.930 .0226312
1095.516 .0226236
1096.102 .0226120
1096.688 .0226005
1097.274 .0225905
1097.860 .0225830
1098.447 .0225767
1099.034 .0225713
1099.622 .0225619
1100.209 .0225508
1100.797 .0225377
1101.385 .0225195
1101.973 .0224983
1102.562 .0224776
1103.151 .0224581
1103.740 .0224423
1104.330 .0224314
1104.920 .0224278
1105.510 .0224279
1106.101 .0224351
1106.691 .0224430
1107.283 .0224504
1107.874 .0224583
1108.466 .0224643
1109.058 .0224698
1109.651 .0224781
1110.244 .0224912
1110.837 .0225091
1111.431 .0225332
1112.025 .0225631
1112.620 .0225926
1113.215 .0226168
1113.810 .0226367
1114.406 .0226497
1115.002 .0226539
1115.599 .0226523
1116.196 .0226478
1116.793 .0226428
1117.391 .0226395
1117.989 .0226382
1118.588 .0226403
1119.187 .0226402
1119.787 .0226369
1120.387 .0226246
1120.988 .0226040
1121.589 .0225778
1122.190 .0225483
1122.793 .0225178
1123.395 .0224932
1123.998 .0224756
1124.602 .0224633
1125.206 .0224583
1125.811 .0224623
1126.416 .0224709
1127.022 .0224842
1127.628 .0225020
1128.235 .0225252
1128.843 .0225530
1129.451 .0225946
1130.059 .0226454
1130.669 .0227020
1131.278 .0227640
1131.889 .0228210
1132.500 .0228683
1133.112 .0229036
1133.724 .0229240
1134.337 .0229298
1134.950 .0229262
1135.564 .0229193
1136.179 .0229105
1136.795 .0229071
1137.411 .0229131
1138.028 .0229274
1138.645 .0229462
1139.263 .0229669
1139.882 .0229917
1140.502 .0230253
1141.122 .0230766
1141.743 .0231503
1142.365 .0232385
1142.987 .0231704
1143.611 .0234464
1144.235 .0237393
1144.859 .0240290
1145.485 .0238579
