Measurement Sequence started on: 10-20-44-796
Integration time: 35
Scans to Average: 2 
>>>>>Begin Spectral Data<<<<<
432.953 .0341610
433.882 .0371109
434.810 .0366913
435.737 .0345885
436.662 .0337319
437.586 .0357921
438.509 .0360289
439.431 .0362634
440.351 .0365762
441.269 .0369555
442.187 .0373155
443.103 .0375550
444.018 .0378276
444.932 .0380267
445.844 .0381500
446.756 .0382393
447.666 .0383086
448.575 .0383645
449.482 .0384183
450.388 .0384648
451.294 .0385107
452.198 .0385444
453.100 .0385474
454.002 .0385234
454.902 .0384817
455.801 .0384248
456.699 .0383460
457.596 .0382750
458.492 .0382158
459.387 .0381695
460.280 .0381449
461.172 .0381246
462.064 .0381162
462.954 .0381081
463.843 .0380849
464.730 .0380529
465.617 .0380165
466.503 .0379760
467.387 .0379418
468.271 .0379228
469.153 .0379172
470.035 .0379235
470.915 .0379390
471.794 .0379519
472.673 .0379604
473.550 .0379659
474.426 .0379649
475.301 .0379553
476.175 .0379447
477.048 .0379259
477.920 .0379042
478.791 .0378836
479.661 .0378612
480.530 .0378368
481.398 .0378025
482.266 .0377604
483.132 .0377101
483.997 .0376509
484.861 .0375867
485.724 .0375185
486.587 .0374515
487.448 .0373830
488.308 .0373094
489.168 .0372329
490.026 .0371544
490.884 .0370787
491.741 .0370043
492.597 .0369363
493.452 .0368758
494.306 .0368236
495.159 .0367760
496.011 .0367407
496.862 .0367058
497.713 .0366661
498.562 .0366124
499.411 .0365429
500.259 .0364554
501.106 .0363524
501.952 .0362363
502.798 .0361176
503.642 .0359969
504.486 .0358818
505.329 .0357675
506.171 .0356613
507.012 .0355564
507.852 .0354532
508.692 .0353473
509.531 .0352369
510.369 .0351192
511.206 .0349992
512.043 .0348794
512.878 .0347693
513.713 .0346634
514.547 .0345675
515.381 .0344808
516.213 .0344024
517.045 .0343246
517.876 .0342456
518.706 .0341586
519.536 .0340663
520.365 .0339629
521.193 .0338451
522.020 .0337116
522.847 .0335632
523.673 .0334017
524.498 .0332268
525.323 .0330491
526.146 .0328756
526.969 .0327069
527.792 .0325620
528.614 .0324329
529.435 .0323271
530.255 .0322399
531.075 .0321600
531.894 .0320810
532.712 .0319869
533.530 .0318709
534.347 .0317301
535.163 .0315734
535.979 .0314195
536.794 .0312664
537.608 .0311325
538.422 .0310183
539.235 .0309166
540.048 .0308286
540.860 .0307469
541.671 .0306517
542.481 .0305580
543.292 .0304557
544.101 .0303558
544.910 .0302689
545.718 .0302106
546.526 .0301876
547.333 .0301984
548.139 .0302457
548.945 .0303091
549.750 .0303761
550.555 .0304452
551.359 .0305006
552.162 .0305525
552.965 .0306003
553.768 .0306440
554.569 .0306995
555.371 .0307703
556.171 .0308566
556.972 .0309522
557.771 .0310531
558.570 .0311520
559.369 .0312477
560.167 .0313309
560.964 .0314071
561.761 .0314787
562.558 .0315545
563.354 .0316277
564.149 .0317005
564.944 .0317755
565.738 .0318412
566.532 .0318964
567.325 .0319418
568.118 .0319711
568.910 .0319916
569.702 .0320071
570.494 .0320289
571.285 .0320566
572.075 .0320927
572.865 .0321337
573.654 .0321747
574.443 .0322138
575.232 .0322466
576.020 .0322695
576.807 .0322875
577.594 .0323023
578.381 .0323157
579.167 .0323318
579.952 .0323540
580.738 .0323821
581.522 .0324142
582.307 .0324479
583.091 .0324784
583.874 .0325003
584.657 .0325157
585.440 .0325242
586.222 .0325257
587.004 .0325252
587.785 .0325246
588.566 .0325237
589.346 .0325261
590.126 .0325312
590.906 .0325374
591.685 .0325463
592.464 .0325556
593.242 .0325628
594.020 .0325674
594.797 .0325700
595.575 .0325695
596.351 .0325668
597.128 .0325637
597.904 .0325592
598.679 .0325540
599.454 .0325484
600.229 .0325425
601.004 .0325367
601.778 .0325323
602.551 .0325266
603.325 .0325208
604.097 .0325133
604.870 .0325047
605.642 .0324952
606.414 .0324838
607.185 .0324711
607.956 .0324571
608.727 .0324412
609.497 .0324238
610.267 .0324055
611.037 .0323865
611.806 .0323666
612.575 .0323466
613.344 .0323257
614.112 .0323039
614.880 .0322810
615.647 .0322585
616.414 .0322343
617.181 .0322099
617.948 .0321852
618.714 .0321598
619.480 .0321357
620.245 .0321115
621.011 .0320876
621.775 .0320643
622.540 .0320415
623.304 .0320193
624.068 .0319965
624.832 .0319732
625.595 .0319493
626.358 .0319246
627.120 .0318984
627.883 .0318705
628.645 .0318418
629.406 .0318129
630.168 .0317836
630.929 .0317547
631.689 .0317254
632.450 .0316951
633.210 .0316643
633.970 .0316320
634.729 .0315979
635.489 .0315615
636.248 .0315218
637.006 .0314804
637.765 .0314383
638.523 .0313946
639.280 .0313503
640.038 .0313081
640.795 .0312683
641.552 .0312306
642.309 .0311958
643.065 .0311640
643.821 .0311336
644.577 .0311037
645.332 .0310734
646.088 .0310422
646.843 .0310107
647.597 .0309786
648.352 .0309468
649.106 .0309182
649.860 .0308928
650.613 .0308696
651.367 .0308491
652.120 .0308306
652.872 .0308122
653.625 .0307925
654.377 .0307712
655.129 .0307486
655.881 .0307245
656.632 .0307006
657.384 .0306767
658.135 .0306547
658.885 .0306346
659.636 .0306155
660.386 .0305976
661.136 .0305799
661.885 .0305614
662.635 .0305427
663.384 .0305242
664.133 .0305078
664.881 .0304924
665.630 .0304797
666.378 .0304685
667.126 .0304587
667.874 .0304484
668.621 .0304368
669.368 .0304222
670.115 .0304057
670.862 .0303877
671.608 .0303697
672.354 .0303522
673.100 .0303374
673.846 .0303250
674.591 .0303146
675.337 .0303053
676.082 .0302968
676.826 .0302873
677.571 .0302784
678.315 .0302688
679.059 .0302598
679.803 .0302526
680.547 .0302475
681.290 .0302449
682.033 .0302448
682.776 .0302469
683.518 .0302489
684.261 .0302503
685.003 .0302507
685.745 .0302484
686.487 .0302439
687.228 .0302371
687.969 .0302279
688.710 .0302180
689.451 .0302077
690.192 .0301961
690.932 .0301834
691.672 .0301703
692.412 .0301555
693.152 .0301392
693.891 .0301211
694.630 .0301017
695.369 .0300814
696.108 .0300615
696.846 .0300410
697.585 .0300213
698.323 .0300032
699.061 .0299868
699.798 .0299708
700.536 .0299555
701.273 .0299394
702.010 .0299221
702.746 .0299031
703.483 .0298830
704.219 .0298608
704.955 .0298381
705.691 .0298150
706.427 .0297920
707.162 .0297689
707.897 .0297470
708.632 .0297250
709.367 .0297034
710.101 .0296817
710.835 .0296592
711.569 .0296356
712.303 .0296121
713.037 .0295882
713.770 .0295637
714.503 .0295389
715.236 .0295143
715.969 .0294882
716.702 .0294619
717.434 .0294343
718.166 .0294058
718.898 .0293768
719.629 .0293472
720.361 .0293168
721.092 .0292857
721.823 .0292542
722.554 .0292221
723.284 .0291893
724.014 .0291568
724.744 .0291238
725.474 .0290904
726.204 .0290574
726.933 .0290251
727.662 .0289934
728.391 .0289625
729.120 .0289321
729.849 .0289021
730.577 .0288720
731.305 .0288414
732.033 .0288104
732.760 .0287783
733.488 .0287461
734.215 .0287137
734.942 .0286816
735.669 .0286500
736.395 .0286193
737.122 .0285896
737.848 .0285619
738.573 .0285353
739.299 .0285102
740.024 .0284863
740.750 .0284645
741.474 .0284432
742.199 .0284230
742.924 .0284040
743.648 .0283863
744.372 .0283693
745.096 .0283537
745.819 .0283387
746.543 .0283248
747.266 .0283115
747.989 .0282988
748.711 .0282859
749.434 .0282735
750.156 .0282617
750.878 .0282509
751.599 .0282416
752.321 .0282346
753.042 .0282297
753.763 .0282279
754.484 .0282282
755.205 .0282300
755.925 .0282330
756.645 .0282364
757.365 .0282391
758.085 .0282409
758.804 .0282416
759.523 .0282415
760.242 .0282410
760.961 .0282401
761.679 .0282387
762.397 .0282367
763.115 .0282334
763.833 .0282287
764.551 .0282217
765.268 .0282123
765.985 .0282006
766.702 .0281874
767.418 .0281731
768.134 .0281580
768.850 .0281432
769.566 .0281293
770.282 .0281180
770.997 .0281087
771.712 .0281016
772.427 .0280970
773.142 .0280946
773.856 .0280943
774.570 .0280948
775.284 .0280957
775.998 .0280963
776.711 .0280965
777.424 .0280954
778.137 .0280932
778.849 .0280901
779.562 .0280868
780.274 .0280839
780.986 .0280816
781.697 .0280795
782.409 .0280776
783.120 .0280762
783.831 .0280742
784.541 .0280713
785.252 .0280679
785.962 .0280635
786.671 .0280590
787.381 .0280548
788.090 .0280511
788.799 .0280482
789.508 .0280466
790.217 .0280456
790.925 .0280443
791.633 .0280427
792.341 .0280400
793.048 .0280358
793.755 .0280307
794.462 .0280241
795.169 .0280163
795.875 .0280083
796.581 .0280001
797.287 .0279916
797.993 .0279834
798.698 .0279756
799.403 .0279683
800.108 .0279609
800.812 .0279537
801.517 .0279465
802.221 .0279394
802.924 .0279322
803.628 .0279248
804.331 .0279177
805.034 .0279113
805.736 .0279049
806.439 .0278985
807.141 .0278916
807.843 .0278847
808.544 .0278767
809.245 .0278674
809.946 .0278568
810.647 .0278445
811.347 .0278308
812.047 .0278156
812.747 .0277992
813.447 .0277811
814.146 .0277624
814.845 .0277431
815.543 .0277234
816.242 .0277035
816.940 .0276839
817.638 .0276647
818.335 .0276462
819.032 .0276278
819.729 .0276089
820.426 .0275895
821.122 .0275696
821.818 .0275473
822.514 .0275241
823.209 .0274992
823.905 .0274742
824.599 .0274488
825.294 .0274240
825.988 .0273993
826.682 .0273753
827.376 .0273516
828.069 .0273277
828.762 .0273028
829.455 .0272774
830.147 .0272505
830.840 .0272228
831.531 .0271944
832.223 .0271662
832.914 .0271384
833.605 .0271117
834.296 .0270857
834.986 .0270605
835.676 .0270351
836.366 .0270103
837.055 .0269853
837.744 .0269603
838.433 .0269352
839.121 .0269104
839.809 .0268863
840.497 .0268632
841.185 .0268409
841.872 .0268197
842.559 .0267992
843.245 .0267800
843.932 .0267608
844.617 .0267418
845.303 .0267233
845.988 .0267051
846.673 .0266868
847.358 .0266689
848.042 .0266511
848.726 .0266335
849.410 .0266157
850.093 .0265985
850.776 .0265808
851.459 .0265631
852.141 .0265454
852.823 .0265279
853.505 .0265111
854.186 .0264951
854.867 .0264798
855.548 .0264653
856.228 .0264517
856.908 .0264386
857.588 .0264249
858.267 .0264114
858.946 .0263973
859.625 .0263826
860.303 .0263676
860.981 .0263532
861.659 .0263390
862.336 .0263257
863.013 .0263132
863.690 .0263016
864.366 .0262890
865.042 .0262757
865.718 .0262614
866.393 .0262460
867.068 .0262295
867.743 .0262122
868.417 .0261942
869.091 .0261771
869.765 .0261602
870.438 .0261438
871.111 .0261275
871.783 .0261121
872.456 .0260960
873.127 .0260790
873.799 .0260616
874.470 .0260442
875.141 .0260269
875.811 .0260109
876.481 .0259966
877.151 .0259847
877.820 .0259752
878.489 .0259679
879.158 .0259623
879.826 .0259584
880.494 .0259558
881.162 .0259540
881.829 .0259537
882.496 .0259549
883.163 .0259571
883.829 .0259604
884.495 .0259648
885.160 .0259701
885.825 .0259749
886.490 .0259788
887.154 .0259816
887.818 .0259827
888.482 .0259818
889.145 .0259791
889.808 .0259753
890.471 .0259710
891.133 .0259665
891.795 .0259619
892.456 .0259578
893.117 .0259545
893.778 .0259518
894.439 .0259495
895.099 .0259479
895.758 .0259477
896.417 .0259482
897.076 .0259502
897.735 .0259539
898.393 .0259595
899.051 .0259670
899.708 .0259759
900.365 .0259858
901.022 .0259965
901.678 .0260069
902.334 .0260168
902.990 .0260255
903.645 .0260338
904.300 .0260412
904.954 .0260477
905.608 .0260533
906.262 .0260584
906.915 .0260624
907.568 .0260656
908.221 .0260674
908.873 .0260676
909.525 .0260664
910.176 .0260645
910.828 .0260620
911.478 .0260598
912.129 .0260582
912.778 .0260580
913.428 .0260582
914.077 .0260598
914.726 .0260610
915.375 .0260618
916.023 .0260619
916.670 .0260612
917.318 .0260589
917.964 .0260559
918.611 .0260522
919.257 .0260484
919.903 .0260448
920.548 .0260420
921.193 .0260391
921.838 .0260371
922.482 .0260354
923.126 .0260336
923.770 .0260311
924.413 .0260284
925.056 .0260246
925.698 .0260203
926.340 .0260162
926.982 .0260127
927.623 .0260101
928.264 .0260101
928.904 .0260117
929.544 .0260149
930.184 .0260195
930.823 .0260245
931.462 .0260285
932.101 .0260314
932.739 .0260319
933.377 .0260290
934.014 .0260233
934.651 .0260158
935.288 .0260065
935.924 .0259971
936.560 .0259879
937.196 .0259787
937.831 .0259705
938.466 .0259630
939.100 .0259544
939.734 .0259452
940.368 .0259343
941.001 .0259215
941.634 .0259065
942.266 .0258897
942.899 .0258715
943.530 .0258526
944.162 .0258341
944.793 .0258154
945.423 .0257972
946.053 .0257799
946.683 .0257627
947.313 .0257459
947.942 .0257288
948.571 .0257106
949.199 .0256905
949.827 .0256687
950.455 .0256448
951.082 .0256198
951.709 .0255943
952.335 .0255691
952.961 .0255449
953.587 .0255218
954.212 .0255000
954.837 .0254798
955.462 .0254609
956.086 .0254431
956.710 .0254255
957.334 .0254080
957.957 .0253892
958.579 .0253700
959.202 .0253501
959.824 .0253298
960.445 .0253099
961.067 .0252909
961.688 .0252723
962.308 .0252547
962.928 .0252381
963.548 .0252222
964.168 .0252059
964.787 .0251892
965.406 .0251709
966.024 .0251519
966.642 .0251315
967.260 .0251097
967.877 .0250868
968.494 .0250643
969.110 .0250421
969.727 .0250201
970.342 .0249990
970.958 .0249792
971.573 .0249600
972.188 .0249410
972.802 .0249217
973.416 .0249026
974.030 .0248825
974.643 .0248623
975.256 .0248421
975.869 .0248224
976.481 .0248033
977.093 .0247857
977.705 .0247703
978.316 .0247567
978.927 .0247448
979.538 .0247337
980.148 .0247226
980.758 .0247119
981.367 .0247001
981.977 .0246867
982.586 .0246729
983.194 .0246587
983.802 .0246444
984.410 .0246301
985.018 .0246170
985.625 .0246049
986.232 .0245937
986.838 .0245832
987.445 .0245718
988.050 .0245588
988.656 .0245445
989.261 .0245275
989.866 .0245076
990.471 .0244861
991.075 .0244633
991.679 .0244398
992.282 .0244178
992.886 .0243971
993.489 .0243785
994.091 .0243616
994.694 .0243463
995.296 .0243310
995.897 .0243148
996.499 .0242972
997.100 .0242776
997.701 .0242563
998.301 .0242340
998.901 .0242108
999.501 .0241887
1000.101 .0241687
1000.700 .0241505
1001.299 .0241338
1001.898 .0241176
1002.496 .0241024
1003.094 .0240873
1003.692 .0240715
1004.289 .0240556
1004.887 .0240400
1005.484 .0240250
1006.080 .0240113
1006.677 .0239994
1007.273 .0239898
1007.868 .0239826
1008.464 .0239781
1009.059 .0239745
1009.654 .0239725
1010.249 .0239714
1010.843 .0239703
1011.437 .0239692
1012.031 .0239689
1012.625 .0239685
1013.218 .0239675
1013.811 .0239666
1014.404 .0239655
1014.997 .0239649
1015.589 .0239637
1016.181 .0239623
1016.773 .0239610
1017.365 .0239599
1017.956 .0239587
1018.547 .0239577
1019.138 .0239592
1019.728 .0239619
1020.319 .0239655
1020.909 .0239707
1021.499 .0239754
1022.088 .0239802
1022.678 .0239819
1023.267 .0239811
1023.856 .0239767
1024.445 .0239681
1025.033 .0239552
1025.621 .0239391
1026.209 .0239224
1026.797 .0239050
1027.385 .0238877
1027.972 .0238719
1028.560 .0238569
1029.147 .0238427
1029.734 .0238289
1030.320 .0238155
1030.907 .0238028
1031.493 .0237908
1032.079 .0237795
1032.665 .0237703
1033.250 .0237639
1033.836 .0237597
1034.421 .0237593
1035.006 .0237629
1035.591 .0237698
1036.176 .0237779
1036.761 .0237871
1037.345 .0237971
1037.929 .0238072
1038.514 .0238167
1039.097 .0238258
1039.681 .0238355
1040.265 .0238456
1040.848 .0238555
1041.432 .0238659
1042.015 .0238760
1042.598 .0238865
1043.181 .0238969
1043.764 .0239063
1044.346 .0239142
1044.929 .0239205
1045.511 .0239260
1046.094 .0239304
1046.676 .0239341
1047.258 .0239369
1047.840 .0239379
1048.422 .0239371
1049.003 .0239334
1049.585 .0239257
1050.166 .0239161
1050.748 .0239049
1051.329 .0238925
1051.910 .0238795
1052.491 .0238668
1053.072 .0238539
1053.653 .0238422
1054.234 .0238325
1054.815 .0238227
1055.396 .0238140
1055.976 .0238069
1056.557 .0237999
1057.138 .0237940
1057.718 .0237900
1058.298 .0237878
1058.879 .0237872
1059.459 .0237881
1060.039 .0237861
1060.620 .0237808
1061.200 .0237736
1061.780 .0237621
1062.360 .0237471
1062.940 .0237318
1063.520 .0237168
1064.101 .0237045
1064.681 .0236964
1065.261 .0236927
1065.841 .0236932
1066.421 .0236987
1067.001 .0237061
1067.581 .0237133
1068.161 .0237213
1068.741 .0237305
1069.321 .0237393
1069.901 .0237509
1070.482 .0237652
1071.062 .0237812
1071.642 .0237991
1072.222 .0238185
1072.803 .0238368
1073.383 .0238549
1073.963 .0238711
1074.544 .0238855
1075.124 .0238956
1075.705 .0239053
1076.286 .0239122
1076.866 .0239178
1077.447 .0239255
1078.028 .0239350
1078.609 .0239461
1079.190 .0239614
1079.771 .0239789
1080.352 .0239992
1080.934 .0240212
1081.515 .0240471
1082.097 .0240733
1082.679 .0241019
1083.260 .0241306
1083.842 .0241596
1084.424 .0241866
1085.007 .0242132
1085.589 .0242339
1086.172 .0242509
1086.754 .0242621
1087.337 .0242670
1087.920 .0242677
1088.503 .0242662
1089.087 .0242621
1089.670 .0242564
1090.254 .0242475
1090.838 .0242385
1091.422 .0242257
1092.006 .0242106
1092.590 .0241922
1093.175 .0241731
1093.760 .0241533
1094.345 .0241335
1094.930 .0241146
1095.516 .0240997
1096.102 .0240893
1096.688 .0240840
1097.274 .0240802
1097.860 .0240766
1098.447 .0240715
1099.034 .0240624
1099.622 .0240515
1100.209 .0240398
1100.797 .0240297
1101.385 .0240208
1101.973 .0240151
1102.562 .0240130
1103.151 .0240143
1103.740 .0240161
1104.330 .0240209
1104.920 .0240270
1105.510 .0240309
1106.101 .0240330
1106.691 .0240349
1107.283 .0240370
1107.874 .0240406
1108.466 .0240431
1109.058 .0240472
1109.651 .0240507
1110.244 .0240597
1110.837 .0240665
1111.431 .0240795
1112.025 .0240980
1112.620 .0241201
1113.215 .0241425
1113.810 .0241659
1114.406 .0241889
1115.002 .0242103
1115.599 .0242288
1116.196 .0242460
1116.793 .0242577
1117.391 .0242690
1117.989 .0242727
1118.588 .0242763
1119.187 .0242774
1119.787 .0242799
1120.387 .0242789
1120.988 .0242819
1121.589 .0242867
1122.190 .0242940
1122.793 .0243033
1123.395 .0243201
1123.998 .0243451
1124.602 .0243757
1125.206 .0244101
1125.811 .0244499
1126.416 .0244887
1127.022 .0245302
1127.628 .0245683
1128.235 .0246087
1128.843 .0246492
1129.451 .0246921
1130.059 .0247319
1130.669 .0247736
1131.278 .0248172
1131.889 .0248575
1132.500 .0248945
1133.112 .0249295
1133.724 .0249595
1134.337 .0249832
1134.950 .0250023
1135.564 .0250209
1136.179 .0250432
1136.795 .0250726
1137.411 .0251103
1138.028 .0251617
1138.645 .0252257
1139.263 .0253082
1139.882 .0253990
1140.502 .0255052
1141.122 .0256239
1141.743 .0257718
1142.365 .0259603
1142.987 .0258702
1143.611 .0262090
1144.235 .0263535
1144.859 .0270673
1145.485 .0277764
