Measurement Sequence started on: 10-20-44-796
Integration time: 35
Scans to Average: 2 
>>>>>Begin Spectral Data<<<<<
432.953 .0306924
433.882 .0303694
434.810 .0270512
435.737 .0275087
436.662 .0298570
437.586 .0300555
438.509 .0303723
439.431 .0307106
440.351 .0310834
441.269 .0313706
442.187 .0315581
443.103 .0317137
444.018 .0318530
444.932 .0319913
445.844 .0320983
446.756 .0321891
447.666 .0322796
448.575 .0323325
449.482 .0323609
450.388 .0323628
451.294 .0323416
452.198 .0323011
453.100 .0322533
454.002 .0322049
454.902 .0321556
455.801 .0321137
456.699 .0320830
457.596 .0320541
458.492 .0320292
459.387 .0320016
460.280 .0319768
461.172 .0319422
462.064 .0319025
462.954 .0318576
463.843 .0318194
464.730 .0317793
465.617 .0317426
466.503 .0317093
467.387 .0316799
468.271 .0316535
469.153 .0316280
470.035 .0316049
470.915 .0315890
471.794 .0315761
472.673 .0315701
473.550 .0315670
474.426 .0315682
475.301 .0315667
476.175 .0315657
477.048 .0315600
477.920 .0315469
478.791 .0315265
479.661 .0315036
480.530 .0314768
481.398 .0314522
482.266 .0314269
483.132 .0314043
483.997 .0313817
484.861 .0313552
485.724 .0313227
486.587 .0312854
487.448 .0312384
488.308 .0311846
489.168 .0311249
490.026 .0310632
490.884 .0309992
491.741 .0309382
492.597 .0308829
493.452 .0308364
494.306 .0307979
495.159 .0307652
496.011 .0307363
496.862 .0307137
497.713 .0306908
498.562 .0306692
499.411 .0306506
500.259 .0306320
501.106 .0306116
501.952 .0305925
502.798 .0305719
503.642 .0305499
504.486 .0305258
505.329 .0304986
506.171 .0304692
507.012 .0304369
507.852 .0303966
508.692 .0303488
509.531 .0302956
510.369 .0302319
511.206 .0301565
512.043 .0300716
512.878 .0299756
513.713 .0298682
514.547 .0297542
515.381 .0296355
516.213 .0295133
517.045 .0293917
517.876 .0292675
518.706 .0291399
519.536 .0290141
520.365 .0288836
521.193 .0287492
522.020 .0286115
522.847 .0284711
523.673 .0283215
524.498 .0281635
525.323 .0279955
526.146 .0278166
526.969 .0276339
527.792 .0274476
528.614 .0272555
529.435 .0270654
530.255 .0268836
531.075 .0267098
531.894 .0265468
532.712 .0264010
533.530 .0262680
534.347 .0261468
535.163 .0260300
535.979 .0259282
536.794 .0258382
537.608 .0257617
538.422 .0257029
539.235 .0256565
540.048 .0256232
540.860 .0256025
541.671 .0255908
542.481 .0255904
543.292 .0255981
544.101 .0256101
544.910 .0256176
545.718 .0256317
546.526 .0256472
547.333 .0256603
548.139 .0256747
548.945 .0256907
549.750 .0256994
550.555 .0257078
551.359 .0257178
552.162 .0257312
552.965 .0257585
553.768 .0257949
554.569 .0258388
555.371 .0258920
556.171 .0259509
556.972 .0260152
557.771 .0260823
558.570 .0261540
559.369 .0262243
560.167 .0262990
560.964 .0263791
561.761 .0264616
562.558 .0265517
563.354 .0266500
564.149 .0267533
564.944 .0268573
565.738 .0269594
566.532 .0270580
567.325 .0271526
568.118 .0272430
568.910 .0273254
569.702 .0274031
570.494 .0274783
571.285 .0275541
572.075 .0276312
572.865 .0277106
573.654 .0277891
574.443 .0278662
575.232 .0279406
576.020 .0280110
576.807 .0280772
577.594 .0281406
578.381 .0282040
579.167 .0282685
579.952 .0283323
580.738 .0283988
581.522 .0284666
582.307 .0285361
583.091 .0286033
583.874 .0286668
584.657 .0287257
585.440 .0287812
586.222 .0288313
587.004 .0288757
587.785 .0289132
588.566 .0289460
589.346 .0289728
590.126 .0289939
590.906 .0290106
591.685 .0290255
592.464 .0290387
593.242 .0290511
594.020 .0290613
594.797 .0290710
595.575 .0290781
596.351 .0290833
597.128 .0290855
597.904 .0290846
598.679 .0290807
599.454 .0290750
600.229 .0290678
601.004 .0290609
601.778 .0290549
602.551 .0290502
603.325 .0290467
604.097 .0290431
604.870 .0290377
605.642 .0290307
606.414 .0290219
607.185 .0290110
607.956 .0289982
608.727 .0289849
609.497 .0289718
610.267 .0289596
611.037 .0289482
611.806 .0289375
612.575 .0289272
613.344 .0289174
614.112 .0289075
614.880 .0288963
615.647 .0288848
616.414 .0288730
617.181 .0288618
617.948 .0288509
618.714 .0288406
619.480 .0288310
620.245 .0288218
621.011 .0288123
621.775 .0288019
622.540 .0287902
623.304 .0287780
624.068 .0287652
624.832 .0287518
625.595 .0287387
626.358 .0287259
627.120 .0287134
627.883 .0287008
628.645 .0286873
629.406 .0286721
630.168 .0286547
630.929 .0286362
631.689 .0286166
632.450 .0285959
633.210 .0285754
633.970 .0285551
634.729 .0285356
635.489 .0285161
636.248 .0284959
637.006 .0284749
637.765 .0284522
638.523 .0284272
639.280 .0284003
640.038 .0283723
640.795 .0283449
641.552 .0283189
642.309 .0282953
643.065 .0282743
643.821 .0282559
644.577 .0282389
645.332 .0282232
646.088 .0282081
646.843 .0281926
647.597 .0281755
648.352 .0281581
649.106 .0281410
649.860 .0281244
650.613 .0281096
651.367 .0280974
652.120 .0280873
652.872 .0280795
653.625 .0280718
654.377 .0280646
655.129 .0280571
655.881 .0280488
656.632 .0280389
657.384 .0280271
658.135 .0280140
658.885 .0279994
659.636 .0279843
660.386 .0279694
661.136 .0279553
661.885 .0279418
662.635 .0279293
663.384 .0279175
664.133 .0279062
664.881 .0278947
665.630 .0278827
666.378 .0278707
667.126 .0278581
667.874 .0278441
668.621 .0278294
669.368 .0278142
670.115 .0277992
670.862 .0277839
671.608 .0277697
672.354 .0277566
673.100 .0277456
673.846 .0277362
674.591 .0277280
675.337 .0277208
676.082 .0277140
676.826 .0277064
677.571 .0276981
678.315 .0276887
679.059 .0276777
679.803 .0276657
680.547 .0276539
681.290 .0276417
682.033 .0276297
682.776 .0276181
683.518 .0276063
684.261 .0275941
685.003 .0275810
685.745 .0275663
686.487 .0275499
687.228 .0275325
687.969 .0275136
688.710 .0274936
689.451 .0274742
690.192 .0274549
690.932 .0274363
691.672 .0274193
692.412 .0274033
693.152 .0273880
693.891 .0273736
694.630 .0273598
695.369 .0273463
696.108 .0273334
696.846 .0273206
697.585 .0273080
698.323 .0272959
699.061 .0272834
699.798 .0272700
700.536 .0272561
701.273 .0272418
702.010 .0272266
702.746 .0272110
703.483 .0271962
704.219 .0271813
704.955 .0271670
705.691 .0271530
706.427 .0271392
707.162 .0271252
707.897 .0271110
708.632 .0270961
709.367 .0270813
710.101 .0270666
710.835 .0270518
711.569 .0270375
712.303 .0270241
713.037 .0270119
713.770 .0270000
714.503 .0269887
715.236 .0269774
715.969 .0269653
716.702 .0269526
717.434 .0269384
718.166 .0269230
718.898 .0269067
719.629 .0268895
720.361 .0268720
721.092 .0268543
721.823 .0268362
722.554 .0268173
723.284 .0267979
724.014 .0267772
724.744 .0267549
725.474 .0267312
726.204 .0267066
726.933 .0266815
727.662 .0266561
728.391 .0266313
729.120 .0266068
729.849 .0265840
730.577 .0265625
731.305 .0265418
732.033 .0265220
732.760 .0265024
733.488 .0264834
734.215 .0264650
734.942 .0264474
735.669 .0264304
736.395 .0264148
737.122 .0264001
737.848 .0263856
738.573 .0263712
739.299 .0263567
740.024 .0263421
740.750 .0263268
741.474 .0263108
742.199 .0262942
742.924 .0262769
743.648 .0262598
744.372 .0262429
745.096 .0262269
745.819 .0262110
746.543 .0261952
747.266 .0261797
747.989 .0261646
748.711 .0261499
749.434 .0261358
750.156 .0261227
750.878 .0261107
751.599 .0260999
752.321 .0260896
753.042 .0260806
753.763 .0260729
754.484 .0260663
755.205 .0260600
755.925 .0260539
756.645 .0260477
757.365 .0260406
758.085 .0260329
758.804 .0260239
759.523 .0260139
760.242 .0260029
760.961 .0259908
761.679 .0259783
762.397 .0259652
763.115 .0259514
763.833 .0259363
764.551 .0259202
765.268 .0259018
765.985 .0258812
766.702 .0258583
767.418 .0258336
768.134 .0258080
768.850 .0257819
769.566 .0257562
770.282 .0257312
770.997 .0257078
771.712 .0256857
772.427 .0256646
773.142 .0256446
773.856 .0256249
774.570 .0256059
775.284 .0255875
775.998 .0255695
776.711 .0255526
777.424 .0255376
778.137 .0255245
778.849 .0255135
779.562 .0255048
780.274 .0254972
780.986 .0254905
781.697 .0254838
782.409 .0254766
783.120 .0254688
783.831 .0254603
784.541 .0254518
785.252 .0254432
785.962 .0254350
786.671 .0254272
787.381 .0254192
788.090 .0254112
788.799 .0254026
789.508 .0253928
790.217 .0253814
790.925 .0253684
791.633 .0253544
792.341 .0253394
793.048 .0253239
793.755 .0253086
794.462 .0252937
795.169 .0252792
795.875 .0252652
796.581 .0252515
797.287 .0252384
797.993 .0252254
798.698 .0252128
799.403 .0252006
800.108 .0251889
800.812 .0251779
801.517 .0251676
802.221 .0251585
802.924 .0251502
803.628 .0251424
804.331 .0251353
805.034 .0251288
805.736 .0251225
806.439 .0251164
807.141 .0251099
807.843 .0251034
808.544 .0250959
809.245 .0250873
809.946 .0250775
810.647 .0250671
811.347 .0250565
812.047 .0250460
812.747 .0250364
813.447 .0250280
814.146 .0250206
814.845 .0250146
815.543 .0250091
816.242 .0250044
816.940 .0249996
817.638 .0249947
818.335 .0249894
819.032 .0249840
819.729 .0249786
820.426 .0249732
821.122 .0249677
821.818 .0249622
822.514 .0249563
823.209 .0249498
823.905 .0249427
824.599 .0249342
825.294 .0249247
825.988 .0249140
826.682 .0249020
827.376 .0248889
828.069 .0248747
828.762 .0248598
829.455 .0248440
830.147 .0248273
830.840 .0248103
831.531 .0247927
832.223 .0247756
832.914 .0247589
833.605 .0247431
834.296 .0247286
834.986 .0247156
835.676 .0247042
836.366 .0246942
837.055 .0246851
837.744 .0246768
838.433 .0246686
839.121 .0246611
839.809 .0246538
840.497 .0246467
841.185 .0246406
841.872 .0246353
842.559 .0246308
843.245 .0246271
843.932 .0246239
844.617 .0246209
845.303 .0246176
845.988 .0246135
846.673 .0246085
847.358 .0246029
848.042 .0245971
848.726 .0245911
849.410 .0245854
850.093 .0245804
850.776 .0245757
851.459 .0245715
852.141 .0245677
852.823 .0245640
853.505 .0245607
854.186 .0245572
854.867 .0245534
855.548 .0245492
856.228 .0245450
856.908 .0245406
857.588 .0245360
858.267 .0245309
858.946 .0245246
859.625 .0245173
860.303 .0245090
860.981 .0244994
861.659 .0244891
862.336 .0244784
863.013 .0244672
863.690 .0244563
864.366 .0244455
865.042 .0244353
865.718 .0244256
866.393 .0244164
867.068 .0244073
867.743 .0243978
868.417 .0243881
869.091 .0243782
869.765 .0243684
870.438 .0243587
871.111 .0243487
871.783 .0243391
872.456 .0243294
873.127 .0243196
873.799 .0243098
874.470 .0243002
875.141 .0242902
875.811 .0242799
876.481 .0242689
877.151 .0242579
877.820 .0242472
878.489 .0242366
879.158 .0242263
879.826 .0242165
880.494 .0242072
881.162 .0241980
881.829 .0241890
882.496 .0241801
883.163 .0241711
883.829 .0241620
884.495 .0241525
885.160 .0241430
885.825 .0241339
886.490 .0241256
887.154 .0241183
887.818 .0241117
888.482 .0241057
889.145 .0241001
889.808 .0240949
890.471 .0240893
891.133 .0240836
891.795 .0240769
892.456 .0240699
893.117 .0240625
893.778 .0240551
894.439 .0240476
895.099 .0240405
895.758 .0240334
896.417 .0240261
897.076 .0240178
897.735 .0240086
898.393 .0239979
899.051 .0239866
899.708 .0239740
900.365 .0239608
901.022 .0239475
901.678 .0239348
902.334 .0239226
902.990 .0239114
903.645 .0239011
904.300 .0238915
904.954 .0238825
905.608 .0238741
906.262 .0238663
906.915 .0238595
907.568 .0238530
908.221 .0238466
908.873 .0238400
909.525 .0238331
910.176 .0238250
910.828 .0238160
911.478 .0238053
912.129 .0237929
912.778 .0237792
913.428 .0237643
914.077 .0237485
914.726 .0237325
915.375 .0237164
916.023 .0237001
916.670 .0236836
917.318 .0236670
917.964 .0236503
918.611 .0236341
919.257 .0236185
919.903 .0236037
920.548 .0235898
921.193 .0235772
921.838 .0235661
922.482 .0235565
923.126 .0235487
923.770 .0235418
924.413 .0235362
925.056 .0235308
925.698 .0235255
926.340 .0235201
926.982 .0235141
927.623 .0235070
928.264 .0234988
928.904 .0234889
929.544 .0234773
930.184 .0234645
930.823 .0234505
931.462 .0234357
932.101 .0234201
932.739 .0234039
933.377 .0233867
934.014 .0233686
934.651 .0233502
935.288 .0233307
935.924 .0233112
936.560 .0232912
937.196 .0232710
937.831 .0232512
938.466 .0232317
939.100 .0232126
939.734 .0231942
940.368 .0231764
941.001 .0231590
941.634 .0231416
942.266 .0231243
942.899 .0231069
943.530 .0230893
944.162 .0230721
944.793 .0230549
945.423 .0230374
946.053 .0230203
946.683 .0230030
947.313 .0229857
947.942 .0229678
948.571 .0229492
949.199 .0229302
949.827 .0229104
950.455 .0228898
951.082 .0228691
951.709 .0228487
952.335 .0228285
952.961 .0228084
953.587 .0227885
954.212 .0227686
954.837 .0227485
955.462 .0227283
956.086 .0227081
956.710 .0226881
957.334 .0226688
957.957 .0226500
958.579 .0226325
959.202 .0226162
959.824 .0226007
960.445 .0225863
961.067 .0225723
961.688 .0225587
962.308 .0225445
962.928 .0225307
963.548 .0225172
964.168 .0225041
964.787 .0224915
965.406 .0224798
966.024 .0224692
966.642 .0224598
967.260 .0224514
967.877 .0224437
968.494 .0224366
969.110 .0224301
969.727 .0224235
970.342 .0224169
970.958 .0224098
971.573 .0224033
972.188 .0223968
972.802 .0223910
973.416 .0223856
974.030 .0223803
974.643 .0223754
975.256 .0223707
975.869 .0223655
976.481 .0223603
977.093 .0223550
977.705 .0223496
978.316 .0223445
978.927 .0223401
979.538 .0223360
980.148 .0223325
980.758 .0223295
981.367 .0223262
981.977 .0223225
982.586 .0223182
983.194 .0223134
983.802 .0223083
984.410 .0223037
985.018 .0222993
985.625 .0222955
986.232 .0222926
986.838 .0222902
987.445 .0222876
988.050 .0222846
988.656 .0222808
989.261 .0222764
989.866 .0222709
990.471 .0222651
991.075 .0222595
991.679 .0222549
992.282 .0222511
992.886 .0222487
993.489 .0222472
994.091 .0222467
994.694 .0222464
995.296 .0222459
995.897 .0222453
996.499 .0222445
997.100 .0222434
997.701 .0222427
998.301 .0222433
998.901 .0222455
999.501 .0222489
1000.101 .0222534
1000.700 .0222584
1001.299 .0222626
1001.898 .0222658
1002.496 .0222671
1003.094 .0222668
1003.692 .0222655
1004.289 .0222637
1004.887 .0222622
1005.484 .0222623
1006.080 .0222642
1006.677 .0222679
1007.273 .0222723
1007.868 .0222775
1008.464 .0222821
1009.059 .0222854
1009.654 .0222871
1010.249 .0222882
1010.843 .0222891
1011.437 .0222910
1012.031 .0222939
1012.625 .0222984
1013.218 .0223042
1013.811 .0223112
1014.404 .0223184
1014.997 .0223258
1015.589 .0223325
1016.181 .0223379
1016.773 .0223421
1017.365 .0223462
1017.956 .0223498
1018.547 .0223538
1019.138 .0223579
1019.728 .0223631
1020.319 .0223685
1020.909 .0223741
1021.499 .0223792
1022.088 .0223849
1022.678 .0223905
1023.267 .0223962
1023.856 .0224011
1024.445 .0224059
1025.033 .0224100
1025.621 .0224141
1026.209 .0224176
1026.797 .0224204
1027.385 .0224225
1027.972 .0224243
1028.560 .0224256
1029.147 .0224268
1029.734 .0224274
1030.320 .0224286
1030.907 .0224304
1031.493 .0224326
1032.079 .0224355
1032.665 .0224390
1033.250 .0224432
1033.836 .0224481
1034.421 .0224528
1035.006 .0224572
1035.591 .0224605
1036.176 .0224633
1036.761 .0224654
1037.345 .0224665
1037.929 .0224672
1038.514 .0224663
1039.097 .0224650
1039.681 .0224640
1040.265 .0224621
1040.848 .0224605
1041.432 .0224597
1042.015 .0224597
1042.598 .0224609
1043.181 .0224637
1043.764 .0224688
1044.346 .0224759
1044.929 .0224852
1045.511 .0224963
1046.094 .0225089
1046.676 .0225233
1047.258 .0225380
1047.840 .0225526
1048.422 .0225677
1049.003 .0225819
1049.585 .0225939
1050.166 .0226046
1050.748 .0226136
1051.329 .0226200
1051.910 .0226245
1052.491 .0226269
1053.072 .0226284
1053.653 .0226293
1054.234 .0226299
1054.815 .0226299
1055.396 .0226295
1055.976 .0226290
1056.557 .0226269
1057.138 .0226251
1057.718 .0226235
1058.298 .0226218
1058.879 .0226205
1059.459 .0226206
1060.039 .0226216
1060.620 .0226231
1061.200 .0226258
1061.780 .0226278
1062.360 .0226286
1062.940 .0226282
1063.520 .0226260
1064.101 .0226227
1064.681 .0226195
1065.261 .0226174
1065.841 .0226149
1066.421 .0226141
1067.001 .0226143
1067.581 .0226132
1068.161 .0226115
1068.741 .0226088
1069.321 .0226041
1069.901 .0225973
1070.482 .0225894
1071.062 .0225804
1071.642 .0225717
1072.222 .0225637
1072.803 .0225552
1073.383 .0225467
1073.963 .0225387
1074.544 .0225309
1075.124 .0225231
1075.705 .0225164
1076.286 .0225112
1076.866 .0225081
1077.447 .0225086
1078.028 .0225125
1078.609 .0225195
1079.190 .0225281
1079.771 .0225369
1080.352 .0225459
1080.934 .0225532
1081.515 .0225598
1082.097 .0225666
1082.679 .0225741
1083.260 .0225819
1083.842 .0225900
1084.424 .0225979
1085.007 .0226047
1085.589 .0226100
1086.172 .0226119
1086.754 .0226087
1087.337 .0226018
1087.920 .0225911
1088.503 .0225776
1089.087 .0225631
1089.670 .0225499
1090.254 .0225369
1090.838 .0225256
1091.422 .0225156
1092.006 .0225063
1092.590 .0224988
1093.175 .0224930
1093.760 .0224878
1094.345 .0224832
1094.930 .0224788
1095.516 .0224731
1096.102 .0224674
1096.688 .0224628
1097.274 .0224582
1097.860 .0224538
1098.447 .0224495
1099.034 .0224467
1099.622 .0224459
1100.209 .0224479
1100.797 .0224512
1101.385 .0224562
1101.973 .0224621
1102.562 .0224646
1103.151 .0224653
1103.740 .0224631
1104.330 .0224571
1104.920 .0224483
1105.510 .0224376
1106.101 .0224270
1106.691 .0224157
1107.283 .0224064
1107.874 .0223990
1108.466 .0223929
1109.058 .0223878
1109.651 .0223814
1110.244 .0223755
1110.837 .0223707
1111.431 .0223650
1112.025 .0223603
1112.620 .0223577
1113.215 .0223575
1113.810 .0223599
1114.406 .0223661
1115.002 .0223747
1115.599 .0223860
1116.196 .0223986
1116.793 .0224134
1117.391 .0224288
1117.989 .0224443
1118.588 .0224610
1119.187 .0224789
1119.787 .0224985
1120.387 .0225164
1120.988 .0225331
1121.589 .0225513
1122.190 .0225646
1122.793 .0225745
1123.395 .0225788
1123.998 .0225808
1124.602 .0225801
1125.206 .0225761
1125.811 .0225741
1126.416 .0225737
1127.022 .0225755
1127.628 .0225764
1128.235 .0225748
1128.843 .0225738
1129.451 .0225695
1130.059 .0225634
1130.669 .0225558
1131.278 .0225533
1131.889 .0225554
1132.500 .0225637
1133.112 .0225828
1133.724 .0226128
1134.337 .0226473
1134.950 .0226834
1135.564 .0227204
1136.179 .0227514
1136.795 .0227760
1137.411 .0227976
1138.028 .0228158
1138.645 .0228391
1139.263 .0228686
1139.882 .0229009
1140.502 .0229414
1141.122 .0229800
1141.743 .0230267
1142.365 .0230750
1142.987 .0230942
1143.611 .0231872
1144.235 .0229416
1144.859 .0233185
1145.485 .0234794
