Measurement Sequence started on: 10-20-44-796
Integration time: 35
Scans to Average: 2 
>>>>>Begin Spectral Data<<<<<
432.953 .0363319
433.882 .0347637
434.810 .0304605
435.737 .0301765
436.662 .0303134
437.586 .0316856
438.509 .0316511
439.431 .0317822
440.351 .0320588
441.269 .0323391
442.187 .0326083
443.103 .0328689
444.018 .0331276
444.932 .0333918
445.844 .0336422
446.756 .0338811
447.666 .0340732
448.575 .0342022
449.482 .0342725
450.388 .0342955
451.294 .0342750
452.198 .0342348
453.100 .0341841
454.002 .0341361
454.902 .0340804
455.801 .0340279
456.699 .0339666
457.596 .0338957
458.492 .0338087
459.387 .0337038
460.280 .0335843
461.172 .0334587
462.064 .0333346
462.954 .0332152
463.843 .0331102
464.730 .0330242
465.617 .0329512
466.503 .0328912
467.387 .0328398
468.271 .0327910
469.153 .0327439
470.035 .0327001
470.915 .0326578
471.794 .0326178
472.673 .0325808
473.550 .0325490
474.426 .0325256
475.301 .0325144
476.175 .0325115
477.048 .0325148
477.920 .0325262
478.791 .0325399
479.661 .0325483
480.530 .0325512
481.398 .0325474
482.266 .0325389
483.132 .0325247
483.997 .0325057
484.861 .0324859
485.724 .0324666
486.587 .0324502
487.448 .0324350
488.308 .0324175
489.168 .0323980
490.026 .0323705
490.884 .0323348
491.741 .0322922
492.597 .0322437
493.452 .0321918
494.306 .0321407
495.159 .0320921
496.011 .0320444
496.862 .0319985
497.713 .0319543
498.562 .0319075
499.411 .0318568
500.259 .0318024
501.106 .0317368
501.952 .0316669
502.798 .0315954
503.642 .0315228
504.486 .0314519
505.329 .0313841
506.171 .0313160
507.012 .0312459
507.852 .0311690
508.692 .0310844
509.531 .0309898
510.369 .0308922
511.206 .0307865
512.043 .0306793
512.878 .0305721
513.713 .0304691
514.547 .0303673
515.381 .0302735
516.213 .0301794
517.045 .0300800
517.876 .0299637
518.706 .0298369
519.536 .0296921
520.365 .0295315
521.193 .0293563
522.020 .0291779
522.847 .0289950
523.673 .0288143
524.498 .0286281
525.323 .0284438
526.146 .0282580
526.969 .0280718
527.792 .0278714
528.614 .0276605
529.435 .0274509
530.255 .0272435
531.075 .0270471
531.894 .0268808
532.712 .0267317
533.530 .0266127
534.347 .0265179
535.163 .0264444
535.979 .0263859
536.794 .0263402
537.608 .0263068
538.422 .0262801
539.235 .0262647
540.048 .0262547
540.860 .0262513
541.671 .0262670
542.481 .0262895
543.292 .0263107
544.101 .0263310
544.910 .0263541
545.718 .0263707
546.526 .0263867
547.333 .0264019
548.139 .0264237
548.945 .0264554
549.750 .0264949
550.555 .0265457
551.359 .0266039
552.162 .0266729
552.965 .0267469
553.768 .0268200
554.569 .0268987
555.371 .0269749
556.171 .0270520
556.972 .0271313
557.771 .0272104
558.570 .0272857
559.369 .0273595
560.167 .0274324
560.964 .0275007
561.761 .0275636
562.558 .0276233
563.354 .0276835
564.149 .0277416
564.944 .0278004
565.738 .0278593
566.532 .0279200
567.325 .0279864
568.118 .0280518
568.910 .0281214
569.702 .0281984
570.494 .0282808
571.285 .0283668
572.075 .0284548
572.865 .0285429
573.654 .0286274
574.443 .0287090
575.232 .0287851
576.020 .0288522
576.807 .0289139
577.594 .0289695
578.381 .0290206
579.167 .0290683
579.952 .0291157
580.738 .0291607
581.522 .0292067
582.307 .0292527
583.091 .0292967
583.874 .0293407
584.657 .0293838
585.440 .0294254
586.222 .0294645
587.004 .0295005
587.785 .0295338
588.566 .0295632
589.346 .0295910
590.126 .0296154
590.906 .0296370
591.685 .0296572
592.464 .0296753
593.242 .0296910
594.020 .0297040
594.797 .0297148
595.575 .0297227
596.351 .0297276
597.128 .0297297
597.904 .0297282
598.679 .0297246
599.454 .0297186
600.229 .0297114
601.004 .0297025
601.778 .0296927
602.551 .0296822
603.325 .0296712
604.097 .0296612
604.870 .0296504
605.642 .0296400
606.414 .0296294
607.185 .0296193
607.956 .0296103
608.727 .0296019
609.497 .0295939
610.267 .0295861
611.037 .0295787
611.806 .0295712
612.575 .0295633
613.344 .0295544
614.112 .0295447
614.880 .0295352
615.647 .0295254
616.414 .0295166
617.181 .0295080
617.948 .0295008
618.714 .0294935
619.480 .0294866
620.245 .0294779
621.011 .0294669
621.775 .0294544
622.540 .0294401
623.304 .0294250
624.068 .0294098
624.832 .0293949
625.595 .0293816
626.358 .0293698
627.120 .0293588
627.883 .0293468
628.645 .0293344
629.406 .0293199
630.168 .0293028
630.929 .0292836
631.689 .0292634
632.450 .0292422
633.210 .0292219
633.970 .0292021
634.729 .0291825
635.489 .0291633
636.248 .0291434
637.006 .0291223
637.765 .0291001
638.523 .0290763
639.280 .0290515
640.038 .0290264
640.795 .0290028
641.552 .0289797
642.309 .0289581
643.065 .0289382
643.821 .0289193
644.577 .0289004
645.332 .0288813
646.088 .0288614
646.843 .0288409
647.597 .0288199
648.352 .0287992
649.106 .0287793
649.860 .0287601
650.613 .0287417
651.367 .0287240
652.120 .0287065
652.872 .0286894
653.625 .0286715
654.377 .0286542
655.129 .0286367
655.881 .0286194
656.632 .0286023
657.384 .0285861
658.135 .0285707
658.885 .0285561
659.636 .0285419
660.386 .0285285
661.136 .0285156
661.885 .0285033
662.635 .0284920
663.384 .0284826
664.133 .0284738
664.881 .0284657
665.630 .0284576
666.378 .0284499
667.126 .0284407
667.874 .0284307
668.621 .0284193
669.368 .0284067
670.115 .0283931
670.862 .0283787
671.608 .0283642
672.354 .0283503
673.100 .0283365
673.846 .0283228
674.591 .0283087
675.337 .0282947
676.082 .0282794
676.826 .0282639
677.571 .0282483
678.315 .0282328
679.059 .0282175
679.803 .0282032
680.547 .0281900
681.290 .0281781
682.033 .0281673
682.776 .0281567
683.518 .0281464
684.261 .0281355
685.003 .0281238
685.745 .0281105
686.487 .0280964
687.228 .0280815
687.969 .0280659
688.710 .0280500
689.451 .0280337
690.192 .0280173
690.932 .0280010
691.672 .0279841
692.412 .0279668
693.152 .0279490
693.891 .0279307
694.630 .0279112
695.369 .0278919
696.108 .0278725
696.846 .0278534
697.585 .0278350
698.323 .0278177
699.061 .0278011
699.798 .0277857
700.536 .0277707
701.273 .0277562
702.010 .0277424
702.746 .0277290
703.483 .0277153
704.219 .0277019
704.955 .0276890
705.691 .0276759
706.427 .0276628
707.162 .0276507
707.897 .0276390
708.632 .0276282
709.367 .0276177
710.101 .0276074
710.835 .0275972
711.569 .0275867
712.303 .0275748
713.037 .0275616
713.770 .0275470
714.503 .0275306
715.236 .0275129
715.969 .0274947
716.702 .0274766
717.434 .0274586
718.166 .0274408
718.898 .0274235
719.629 .0274061
720.361 .0273888
721.092 .0273709
721.823 .0273524
722.554 .0273333
723.284 .0273132
724.014 .0272922
724.744 .0272706
725.474 .0272483
726.204 .0272256
726.933 .0272027
727.662 .0271798
728.391 .0271570
729.120 .0271345
729.849 .0271122
730.577 .0270905
731.305 .0270690
732.033 .0270477
732.760 .0270266
733.488 .0270063
734.215 .0269866
734.942 .0269674
735.669 .0269492
736.395 .0269321
737.122 .0269161
737.848 .0269010
738.573 .0268866
739.299 .0268725
740.024 .0268583
740.750 .0268435
741.474 .0268281
742.199 .0268123
742.924 .0267959
743.648 .0267793
744.372 .0267628
745.096 .0267466
745.819 .0267305
746.543 .0267146
747.266 .0266992
747.989 .0266841
748.711 .0266694
749.434 .0266554
750.156 .0266422
750.878 .0266306
751.599 .0266211
752.321 .0266135
753.042 .0266081
753.763 .0266046
754.484 .0266023
755.205 .0266010
755.925 .0266003
756.645 .0265993
757.365 .0265975
758.085 .0265946
758.804 .0265900
759.523 .0265831
760.242 .0265746
760.961 .0265639
761.679 .0265511
762.397 .0265366
763.115 .0265203
763.833 .0265023
764.551 .0264829
765.268 .0264625
765.985 .0264413
766.702 .0264191
767.418 .0263959
768.134 .0263719
768.850 .0263480
769.566 .0263240
770.282 .0263001
770.997 .0262773
771.712 .0262560
772.427 .0262360
773.142 .0262176
773.856 .0262009
774.570 .0261857
775.284 .0261715
775.998 .0261579
776.711 .0261443
777.424 .0261308
778.137 .0261172
778.849 .0261038
779.562 .0260910
780.274 .0260791
780.986 .0260677
781.697 .0260568
782.409 .0260469
783.120 .0260373
783.831 .0260278
784.541 .0260188
785.252 .0260102
785.962 .0260021
786.671 .0259944
787.381 .0259879
788.090 .0259823
788.799 .0259780
789.508 .0259740
790.217 .0259700
790.925 .0259655
791.633 .0259600
792.341 .0259529
793.048 .0259444
793.755 .0259348
794.462 .0259240
795.169 .0259121
795.875 .0258995
796.581 .0258861
797.287 .0258721
797.993 .0258568
798.698 .0258410
799.403 .0258242
800.108 .0258068
800.812 .0257886
801.517 .0257702
802.221 .0257522
802.924 .0257350
803.628 .0257191
804.331 .0257044
805.034 .0256907
805.736 .0256780
806.439 .0256660
807.141 .0256549
807.843 .0256447
808.544 .0256353
809.245 .0256269
809.946 .0256197
810.647 .0256130
811.347 .0256069
812.047 .0256015
812.747 .0255966
813.447 .0255918
814.146 .0255867
814.845 .0255815
815.543 .0255760
816.242 .0255706
816.940 .0255654
817.638 .0255600
818.335 .0255547
819.032 .0255491
819.729 .0255428
820.426 .0255356
821.122 .0255273
821.818 .0255177
822.514 .0255074
823.209 .0254962
823.905 .0254840
824.599 .0254709
825.294 .0254573
825.988 .0254435
826.682 .0254292
827.376 .0254148
828.069 .0254005
828.762 .0253857
829.455 .0253709
830.147 .0253561
830.840 .0253417
831.531 .0253278
832.223 .0253144
832.914 .0253013
833.605 .0252885
834.296 .0252759
834.986 .0252633
835.676 .0252507
836.366 .0252384
837.055 .0252259
837.744 .0252133
838.433 .0252004
839.121 .0251874
839.809 .0251742
840.497 .0251615
841.185 .0251493
841.872 .0251375
842.559 .0251263
843.245 .0251161
843.932 .0251065
844.617 .0250977
845.303 .0250892
845.988 .0250809
846.673 .0250724
847.358 .0250639
848.042 .0250551
848.726 .0250461
849.410 .0250371
850.093 .0250282
850.776 .0250193
851.459 .0250103
852.141 .0250005
852.823 .0249905
853.505 .0249799
854.186 .0249684
854.867 .0249563
855.548 .0249437
856.228 .0249311
856.908 .0249188
857.588 .0249069
858.267 .0248956
858.946 .0248848
859.625 .0248745
860.303 .0248646
860.981 .0248547
861.659 .0248449
862.336 .0248347
863.013 .0248243
863.690 .0248138
864.366 .0248028
865.042 .0247915
865.718 .0247802
866.393 .0247687
867.068 .0247570
867.743 .0247453
868.417 .0247336
869.091 .0247215
869.765 .0247092
870.438 .0246965
871.111 .0246835
871.783 .0246704
872.456 .0246571
873.127 .0246437
873.799 .0246303
874.470 .0246168
875.141 .0246036
875.811 .0245906
876.481 .0245779
877.151 .0245654
877.820 .0245533
878.489 .0245415
879.158 .0245296
879.826 .0245179
880.494 .0245063
881.162 .0244952
881.829 .0244840
882.496 .0244723
883.163 .0244605
883.829 .0244484
884.495 .0244364
885.160 .0244246
885.825 .0244134
886.490 .0244032
887.154 .0243939
887.818 .0243850
888.482 .0243769
889.145 .0243687
889.808 .0243603
890.471 .0243511
891.133 .0243407
891.795 .0243299
892.456 .0243184
893.117 .0243074
893.778 .0242973
894.439 .0242884
895.099 .0242808
895.758 .0242741
896.417 .0242684
897.076 .0242627
897.735 .0242563
898.393 .0242492
899.051 .0242412
899.708 .0242323
900.365 .0242229
901.022 .0242139
901.678 .0242059
902.334 .0241992
902.990 .0241935
903.645 .0241886
904.300 .0241838
904.954 .0241788
905.608 .0241727
906.262 .0241649
906.915 .0241562
907.568 .0241461
908.221 .0241352
908.873 .0241245
909.525 .0241142
910.176 .0241048
910.828 .0240962
911.478 .0240883
912.129 .0240801
912.778 .0240718
913.428 .0240635
914.077 .0240546
914.726 .0240453
915.375 .0240363
916.023 .0240279
916.670 .0240205
917.318 .0240145
917.964 .0240097
918.611 .0240056
919.257 .0240023
919.903 .0239986
920.548 .0239944
921.193 .0239902
921.838 .0239861
922.482 .0239819
923.126 .0239781
923.770 .0239749
924.413 .0239719
925.056 .0239694
925.698 .0239675
926.340 .0239653
926.982 .0239629
927.623 .0239601
928.264 .0239569
928.904 .0239528
929.544 .0239483
930.184 .0239432
930.823 .0239378
931.462 .0239320
932.101 .0239255
932.739 .0239179
933.377 .0239096
934.014 .0239002
934.651 .0238895
935.288 .0238775
935.924 .0238648
936.560 .0238516
937.196 .0238379
937.831 .0238242
938.466 .0238105
939.100 .0237969
939.734 .0237833
940.368 .0237689
941.001 .0237541
941.634 .0237386
942.266 .0237228
942.899 .0237066
943.530 .0236903
944.162 .0236745
944.793 .0236591
945.423 .0236440
946.053 .0236293
946.683 .0236150
947.313 .0236008
947.942 .0235865
948.571 .0235720
949.199 .0235573
949.827 .0235420
950.455 .0235265
951.082 .0235113
951.709 .0234964
952.335 .0234826
952.961 .0234692
953.587 .0234566
954.212 .0234449
954.837 .0234335
955.462 .0234227
956.086 .0234121
956.710 .0234021
957.334 .0233921
957.957 .0233819
958.579 .0233718
959.202 .0233612
959.824 .0233502
960.445 .0233387
961.067 .0233264
961.688 .0233139
962.308 .0233012
962.928 .0232888
963.548 .0232769
964.168 .0232661
964.787 .0232560
965.406 .0232471
966.024 .0232386
966.642 .0232304
967.260 .0232224
967.877 .0232148
968.494 .0232070
969.110 .0231995
969.727 .0231925
970.342 .0231860
970.958 .0231806
971.573 .0231766
972.188 .0231737
972.802 .0231728
973.416 .0231731
974.030 .0231738
974.643 .0231747
975.256 .0231757
975.869 .0231754
976.481 .0231742
977.093 .0231724
977.705 .0231697
978.316 .0231669
978.927 .0231646
979.538 .0231630
980.148 .0231618
980.758 .0231617
981.367 .0231621
981.977 .0231628
982.586 .0231634
983.194 .0231628
983.802 .0231611
984.410 .0231586
985.018 .0231550
985.625 .0231506
986.232 .0231462
986.838 .0231428
987.445 .0231402
988.050 .0231386
988.656 .0231383
989.261 .0231387
989.866 .0231387
990.471 .0231381
991.075 .0231362
991.679 .0231321
992.282 .0231265
992.886 .0231193
993.489 .0231116
994.091 .0231035
994.694 .0230960
995.296 .0230888
995.897 .0230822
996.499 .0230761
997.100 .0230690
997.701 .0230615
998.301 .0230531
998.901 .0230435
999.501 .0230334
1000.101 .0230236
1000.700 .0230148
1001.299 .0230073
1001.898 .0230026
1002.496 .0230005
1003.094 .0230007
1003.692 .0230030
1004.289 .0230061
1004.887 .0230101
1005.484 .0230143
1006.080 .0230175
1006.677 .0230201
1007.273 .0230224
1007.868 .0230242
1008.464 .0230252
1009.059 .0230257
1009.654 .0230254
1010.249 .0230245
1010.843 .0230231
1011.437 .0230211
1012.031 .0230180
1012.625 .0230146
1013.218 .0230105
1013.811 .0230058
1014.404 .0230012
1014.997 .0229958
1015.589 .0229903
1016.181 .0229850
1016.773 .0229791
1017.365 .0229733
1017.956 .0229682
1018.547 .0229647
1019.138 .0229626
1019.728 .0229622
1020.319 .0229634
1020.909 .0229653
1021.499 .0229673
1022.088 .0229688
1022.678 .0229684
1023.267 .0229669
1023.856 .0229632
1024.445 .0229580
1025.033 .0229522
1025.621 .0229469
1026.209 .0229423
1026.797 .0229392
1027.385 .0229374
1027.972 .0229360
1028.560 .0229342
1029.147 .0229323
1029.734 .0229292
1030.320 .0229247
1030.907 .0229195
1031.493 .0229146
1032.079 .0229098
1032.665 .0229070
1033.250 .0229058
1033.836 .0229067
1034.421 .0229097
1035.006 .0229132
1035.591 .0229162
1036.176 .0229183
1036.761 .0229198
1037.345 .0229205
1037.929 .0229209
1038.514 .0229221
1039.097 .0229235
1039.681 .0229260
1040.265 .0229293
1040.848 .0229326
1041.432 .0229352
1042.015 .0229369
1042.598 .0229363
1043.181 .0229335
1043.764 .0229294
1044.346 .0229239
1044.929 .0229183
1045.511 .0229126
1046.094 .0229075
1046.676 .0229025
1047.258 .0228966
1047.840 .0228900
1048.422 .0228823
1049.003 .0228743
1049.585 .0228652
1050.166 .0228550
1050.748 .0228458
1051.329 .0228368
1051.910 .0228290
1052.491 .0228218
1053.072 .0228161
1053.653 .0228110
1054.234 .0228064
1054.815 .0228022
1055.396 .0227982
1055.976 .0227952
1056.557 .0227926
1057.138 .0227902
1057.718 .0227883
1058.298 .0227862
1058.879 .0227834
1059.459 .0227791
1060.039 .0227750
1060.620 .0227696
1061.200 .0227635
1061.780 .0227587
1062.360 .0227543
1062.940 .0227512
1063.520 .0227487
1064.101 .0227462
1064.681 .0227438
1065.261 .0227413
1065.841 .0227371
1066.421 .0227318
1067.001 .0227252
1067.581 .0227176
1068.161 .0227082
1068.741 .0226983
1069.321 .0226882
1069.901 .0226783
1070.482 .0226683
1071.062 .0226589
1071.642 .0226495
1072.222 .0226419
1072.803 .0226340
1073.383 .0226268
1073.963 .0226186
1074.544 .0226089
1075.124 .0225972
1075.705 .0225838
1076.286 .0225683
1076.866 .0225529
1077.447 .0225375
1078.028 .0225221
1078.609 .0225070
1079.190 .0224940
1079.771 .0224806
1080.352 .0224683
1080.934 .0224553
1081.515 .0224414
1082.097 .0224272
1082.679 .0224140
1083.260 .0224004
1083.842 .0223906
1084.424 .0223844
1085.007 .0223813
1085.589 .0223805
1086.172 .0223838
1086.754 .0223884
1087.337 .0223939
1087.920 .0224000
1088.503 .0224045
1089.087 .0224061
1089.670 .0224063
1090.254 .0224030
1090.838 .0223983
1091.422 .0223922
1092.006 .0223834
1092.590 .0223725
1093.175 .0223603
1093.760 .0223465
1094.345 .0223310
1094.930 .0223153
1095.516 .0223011
1096.102 .0222863
1096.688 .0222730
1097.274 .0222612
1097.860 .0222522
1098.447 .0222479
1099.034 .0222473
1099.622 .0222511
1100.209 .0222588
1100.797 .0222706
1101.385 .0222849
1101.973 .0223012
1102.562 .0223193
1103.151 .0223375
1103.740 .0223571
1104.330 .0223774
1104.920 .0223991
1105.510 .0224226
1106.101 .0224489
1106.691 .0224768
1107.283 .0225060
1107.874 .0225340
1108.466 .0225593
1109.058 .0225846
1109.651 .0226079
1110.244 .0226278
1110.837 .0226447
1111.431 .0226593
1112.025 .0226696
1112.620 .0226752
1113.215 .0226804
1113.810 .0226810
1114.406 .0226805
1115.002 .0226772
1115.599 .0226681
1116.196 .0226552
1116.793 .0226371
1117.391 .0226130
1117.989 .0225836
1118.588 .0225534
1119.187 .0225200
1119.787 .0224834
1120.387 .0224514
1120.988 .0224232
1121.589 .0223989
1122.190 .0223802
1122.793 .0223657
1123.395 .0223534
1123.998 .0223426
1124.602 .0223335
1125.206 .0223250
1125.811 .0223240
1126.416 .0223286
1127.022 .0223379
1127.628 .0223539
1128.235 .0223759
1128.843 .0223998
1129.451 .0224256
1130.059 .0224525
1130.669 .0224785
1131.278 .0225038
1131.889 .0225298
1132.500 .0225552
1133.112 .0225855
1133.724 .0226163
1134.337 .0226494
1134.950 .0226801
1135.564 .0227114
1136.179 .0227387
1136.795 .0227653
1137.411 .0227978
1138.028 .0228353
1138.645 .0228843
1139.263 .0229435
1139.882 .0230033
1140.502 .0230768
1141.122 .0231662
1141.743 .0232747
1142.365 .0234043
1142.987 .0232048
1143.611 .0235461
1144.235 .0239590
1144.859 .0241979
1145.485 .0244634
