Measurement Sequence started on: 10-20-44-796
Integration time: 35
Scans to Average: 2 
>>>>>Begin Spectral Data<<<<<
432.953 .0375051
433.882 .0424878
434.810 .0446355
435.737 .0457294
436.662 .0441490
437.586 .0436457
438.509 .0437311
439.431 .0435887
440.351 .0433744
441.269 .0431456
442.187 .0429512
443.103 .0427629
444.018 .0425382
444.932 .0423118
445.844 .0420739
446.756 .0418246
447.666 .0415755
448.575 .0413268
449.482 .0410856
450.388 .0408623
451.294 .0406578
452.198 .0404851
453.100 .0403377
454.002 .0402149
454.902 .0401053
455.801 .0400088
456.699 .0399310
457.596 .0398624
458.492 .0397932
459.387 .0397293
460.280 .0396755
461.172 .0396319
462.064 .0396023
462.954 .0395762
463.843 .0395571
464.730 .0395409
465.617 .0395182
466.503 .0394837
467.387 .0394394
468.271 .0393833
469.153 .0393207
470.035 .0392545
470.915 .0391873
471.794 .0391191
472.673 .0390564
473.550 .0390014
474.426 .0389515
475.301 .0389037
476.175 .0388573
477.048 .0388088
477.920 .0387663
478.791 .0387254
479.661 .0386852
480.530 .0386517
481.398 .0386220
482.266 .0385953
483.132 .0385709
483.997 .0385491
484.861 .0385287
485.724 .0385131
486.587 .0384977
487.448 .0384796
488.308 .0384576
489.168 .0384331
490.026 .0384011
490.884 .0383611
491.741 .0383112
492.597 .0382506
493.452 .0381810
494.306 .0381062
495.159 .0380255
496.011 .0379463
496.862 .0378692
497.713 .0377934
498.562 .0377150
499.411 .0376376
500.259 .0375549
501.106 .0374710
501.952 .0373856
502.798 .0373011
503.642 .0372187
504.486 .0371390
505.329 .0370645
506.171 .0369937
507.012 .0369219
507.852 .0368464
508.692 .0367624
509.531 .0366684
510.369 .0365614
511.206 .0364443
512.043 .0363190
512.878 .0361861
513.713 .0360477
514.547 .0359046
515.381 .0357573
516.213 .0356036
517.045 .0354379
517.876 .0352601
518.706 .0350787
519.536 .0348942
520.365 .0347110
521.193 .0345399
522.020 .0343854
522.847 .0342428
523.673 .0341128
524.498 .0339896
525.323 .0338656
526.146 .0337430
526.969 .0336234
527.792 .0334990
528.614 .0333797
529.435 .0332663
530.255 .0331629
531.075 .0330718
531.894 .0329951
532.712 .0329207
533.530 .0328487
534.347 .0327814
535.163 .0327038
535.979 .0326179
536.794 .0325410
537.608 .0324664
538.422 .0324027
539.235 .0323506
540.048 .0323122
540.860 .0322827
541.671 .0322672
542.481 .0322521
543.292 .0322270
544.101 .0321934
544.910 .0321504
545.718 .0320905
546.526 .0320300
547.333 .0319712
548.139 .0319188
548.945 .0318747
549.750 .0318427
550.555 .0318144
551.359 .0317903
552.162 .0317679
552.965 .0317423
553.768 .0317109
554.569 .0316830
555.371 .0316506
556.171 .0316220
556.972 .0316019
557.771 .0315959
558.570 .0316015
559.369 .0316229
560.167 .0316578
560.964 .0317012
561.761 .0317510
562.558 .0318042
563.354 .0318592
564.149 .0319197
564.944 .0319840
565.738 .0320507
566.532 .0321213
567.325 .0321954
568.118 .0322655
568.910 .0323307
569.702 .0323908
570.494 .0324456
571.285 .0324937
572.075 .0325379
572.865 .0325825
573.654 .0326302
574.443 .0326831
575.232 .0327400
576.020 .0328020
576.807 .0328689
577.594 .0329376
578.381 .0330083
579.167 .0330797
579.952 .0331532
580.738 .0332265
581.522 .0332995
582.307 .0333701
583.091 .0334402
583.874 .0335072
584.657 .0335706
585.440 .0336307
586.222 .0336834
587.004 .0337254
587.785 .0337587
588.566 .0337826
589.346 .0337980
590.126 .0338055
590.906 .0338074
591.685 .0338061
592.464 .0338026
593.242 .0337972
594.020 .0337887
594.797 .0337783
595.575 .0337665
596.351 .0337511
597.128 .0337340
597.904 .0337152
598.679 .0336968
599.454 .0336792
600.229 .0336622
601.004 .0336463
601.778 .0336296
602.551 .0336122
603.325 .0335936
604.097 .0335727
604.870 .0335488
605.642 .0335218
606.414 .0334925
607.185 .0334611
607.956 .0334286
608.727 .0333961
609.497 .0333632
610.267 .0333304
611.037 .0332973
611.806 .0332627
612.575 .0332268
613.344 .0331907
614.112 .0331533
614.880 .0331155
615.647 .0330775
616.414 .0330396
617.181 .0330019
617.948 .0329652
618.714 .0329294
619.480 .0328943
620.245 .0328606
621.011 .0328269
621.775 .0327929
622.540 .0327602
623.304 .0327286
624.068 .0326982
624.832 .0326691
625.595 .0326420
626.358 .0326161
627.120 .0325911
627.883 .0325666
628.645 .0325425
629.406 .0325181
630.168 .0324930
630.929 .0324664
631.689 .0324383
632.450 .0324097
633.210 .0323805
633.970 .0323512
634.729 .0323222
635.489 .0322933
636.248 .0322636
637.006 .0322336
637.765 .0322033
638.523 .0321725
639.280 .0321416
640.038 .0321115
640.795 .0320827
641.552 .0320560
642.309 .0320323
643.065 .0320116
643.821 .0319941
644.577 .0319801
645.332 .0319672
646.088 .0319555
646.843 .0319446
647.597 .0319337
648.352 .0319230
649.106 .0319127
649.860 .0319017
650.613 .0318904
651.367 .0318790
652.120 .0318674
652.872 .0318555
653.625 .0318435
654.377 .0318306
655.129 .0318168
655.881 .0318025
656.632 .0317876
657.384 .0317719
658.135 .0317571
658.885 .0317430
659.636 .0317303
660.386 .0317192
661.136 .0317094
661.885 .0317007
662.635 .0316936
663.384 .0316869
664.133 .0316791
664.881 .0316698
665.630 .0316593
666.378 .0316470
667.126 .0316333
667.874 .0316182
668.621 .0316021
669.368 .0315859
670.115 .0315696
670.862 .0315523
671.608 .0315353
672.354 .0315186
673.100 .0315019
673.846 .0314846
674.591 .0314666
675.337 .0314483
676.082 .0314295
676.826 .0314109
677.571 .0313926
678.315 .0313740
679.059 .0313556
679.803 .0313366
680.547 .0313174
681.290 .0312972
682.033 .0312756
682.776 .0312528
683.518 .0312287
684.261 .0312031
685.003 .0311757
685.745 .0311465
686.487 .0311162
687.228 .0310851
687.969 .0310531
688.710 .0310206
689.451 .0309873
690.192 .0309535
690.932 .0309190
691.672 .0308838
692.412 .0308479
693.152 .0308115
693.891 .0307754
694.630 .0307393
695.369 .0307035
696.108 .0306686
696.846 .0306345
697.585 .0306010
698.323 .0305676
699.061 .0305341
699.798 .0305000
700.536 .0304653
701.273 .0304303
702.010 .0303956
702.746 .0303615
703.483 .0303288
704.219 .0302978
704.955 .0302693
705.691 .0302430
706.427 .0302182
707.162 .0301949
707.897 .0301727
708.632 .0301510
709.367 .0301287
710.101 .0301056
710.835 .0300828
711.569 .0300597
712.303 .0300366
713.037 .0300141
713.770 .0299928
714.503 .0299722
715.236 .0299528
715.969 .0299338
716.702 .0299157
717.434 .0298986
718.166 .0298815
718.898 .0298642
719.629 .0298469
720.361 .0298300
721.092 .0298127
721.823 .0297957
722.554 .0297797
723.284 .0297642
724.014 .0297490
724.744 .0297346
725.474 .0297201
726.204 .0297058
726.933 .0296916
727.662 .0296772
728.391 .0296629
729.120 .0296493
729.849 .0296363
730.577 .0296243
731.305 .0296135
732.033 .0296045
732.760 .0295954
733.488 .0295871
734.215 .0295787
734.942 .0295699
735.669 .0295612
736.395 .0295531
737.122 .0295459
737.848 .0295403
738.573 .0295363
739.299 .0295340
740.024 .0295325
740.750 .0295317
741.474 .0295299
742.199 .0295266
742.924 .0295216
743.648 .0295150
744.372 .0295070
745.096 .0294986
745.819 .0294903
746.543 .0294830
747.266 .0294770
747.989 .0294721
748.711 .0294681
749.434 .0294646
750.156 .0294613
750.878 .0294571
751.599 .0294525
752.321 .0294480
753.042 .0294443
753.763 .0294418
754.484 .0294402
755.205 .0294401
755.925 .0294414
756.645 .0294432
757.365 .0294449
758.085 .0294456
758.804 .0294448
759.523 .0294415
760.242 .0294354
760.961 .0294267
761.679 .0294162
762.397 .0294033
763.115 .0293891
763.833 .0293731
764.551 .0293557
765.268 .0293369
765.985 .0293169
766.702 .0292965
767.418 .0292753
768.134 .0292537
768.850 .0292318
769.566 .0292102
770.282 .0291897
770.997 .0291696
771.712 .0291504
772.427 .0291324
773.142 .0291151
773.856 .0290978
774.570 .0290810
775.284 .0290639
775.998 .0290467
776.711 .0290291
777.424 .0290108
778.137 .0289919
778.849 .0289723
779.562 .0289522
780.274 .0289315
780.986 .0289108
781.697 .0288904
782.409 .0288702
783.120 .0288517
783.831 .0288346
784.541 .0288187
785.252 .0288043
785.962 .0287909
786.671 .0287777
787.381 .0287646
788.090 .0287511
788.799 .0287368
789.508 .0287215
790.217 .0287051
790.925 .0286876
791.633 .0286689
792.341 .0286492
793.048 .0286282
793.755 .0286057
794.462 .0285814
795.169 .0285548
795.875 .0285266
796.581 .0284975
797.287 .0284677
797.993 .0284381
798.698 .0284094
799.403 .0283822
800.108 .0283567
800.812 .0283330
801.517 .0283108
802.221 .0282902
802.924 .0282705
803.628 .0282518
804.331 .0282339
805.034 .0282170
805.736 .0282012
806.439 .0281866
807.141 .0281733
807.843 .0281607
808.544 .0281480
809.245 .0281350
809.946 .0281209
810.647 .0281054
811.347 .0280886
812.047 .0280706
812.747 .0280521
813.447 .0280330
814.146 .0280136
814.845 .0279942
815.543 .0279752
816.242 .0279568
816.940 .0279384
817.638 .0279202
818.335 .0279022
819.032 .0278841
819.729 .0278664
820.426 .0278486
821.122 .0278312
821.818 .0278138
822.514 .0277967
823.209 .0277796
823.905 .0277632
824.599 .0277474
825.294 .0277324
825.988 .0277180
826.682 .0277043
827.376 .0276910
828.069 .0276777
828.762 .0276642
829.455 .0276507
830.147 .0276370
830.840 .0276235
831.531 .0276104
832.223 .0275990
832.914 .0275888
833.605 .0275808
834.296 .0275744
834.986 .0275699
835.676 .0275667
836.366 .0275642
837.055 .0275621
837.744 .0275599
838.433 .0275574
839.121 .0275545
839.809 .0275512
840.497 .0275481
841.185 .0275448
841.872 .0275419
842.559 .0275393
843.245 .0275370
843.932 .0275344
844.617 .0275317
845.303 .0275283
845.988 .0275245
846.673 .0275202
847.358 .0275156
848.042 .0275110
848.726 .0275066
849.410 .0275027
850.093 .0274995
850.776 .0274966
851.459 .0274942
852.141 .0274914
852.823 .0274886
853.505 .0274852
854.186 .0274811
854.867 .0274766
855.548 .0274722
856.228 .0274676
856.908 .0274634
857.588 .0274599
858.267 .0274569
858.946 .0274542
859.625 .0274513
860.303 .0274482
860.981 .0274447
861.659 .0274406
862.336 .0274357
863.013 .0274301
863.690 .0274247
864.366 .0274190
865.042 .0274138
865.718 .0274094
866.393 .0274057
867.068 .0274021
867.743 .0273984
868.417 .0273944
869.091 .0273896
869.765 .0273836
870.438 .0273773
871.111 .0273703
871.783 .0273635
872.456 .0273568
873.127 .0273508
873.799 .0273457
874.470 .0273420
875.141 .0273388
875.811 .0273361
876.481 .0273335
877.151 .0273313
877.820 .0273283
878.489 .0273255
879.158 .0273227
879.826 .0273201
880.494 .0273178
881.162 .0273153
881.829 .0273122
882.496 .0273085
883.163 .0273034
883.829 .0272974
884.495 .0272897
885.160 .0272821
885.825 .0272740
886.490 .0272668
887.154 .0272607
887.818 .0272561
888.482 .0272522
889.145 .0272491
889.808 .0272463
890.471 .0272436
891.133 .0272402
891.795 .0272365
892.456 .0272324
893.117 .0272285
893.778 .0272249
894.439 .0272219
895.099 .0272194
895.758 .0272181
896.417 .0272165
897.076 .0272144
897.735 .0272115
898.393 .0272073
899.051 .0272014
899.708 .0271934
900.365 .0271832
901.022 .0271713
901.678 .0271576
902.334 .0271426
902.990 .0271264
903.645 .0271102
904.300 .0270940
904.954 .0270777
905.608 .0270617
906.262 .0270462
906.915 .0270312
907.568 .0270165
908.221 .0270020
908.873 .0269876
909.525 .0269734
910.176 .0269593
910.828 .0269452
911.478 .0269322
912.129 .0269197
912.778 .0269078
913.428 .0268964
914.077 .0268853
914.726 .0268738
915.375 .0268617
916.023 .0268497
916.670 .0268373
917.318 .0268245
917.964 .0268113
918.611 .0267974
919.257 .0267830
919.903 .0267677
920.548 .0267512
921.193 .0267339
921.838 .0267163
922.482 .0266979
923.126 .0266794
923.770 .0266613
924.413 .0266437
925.056 .0266266
925.698 .0266102
926.340 .0265939
926.982 .0265773
927.623 .0265602
928.264 .0265422
928.904 .0265233
929.544 .0265036
930.184 .0264831
930.823 .0264624
931.462 .0264416
932.101 .0264205
932.739 .0263991
933.377 .0263773
934.014 .0263548
934.651 .0263313
935.288 .0263069
935.924 .0262821
936.560 .0262568
937.196 .0262314
937.831 .0262061
938.466 .0261812
939.100 .0261571
939.734 .0261333
940.368 .0261101
941.001 .0260872
941.634 .0260646
942.266 .0260421
942.899 .0260195
943.530 .0259970
944.162 .0259748
944.793 .0259525
945.423 .0259303
946.053 .0259076
946.683 .0258846
947.313 .0258615
947.942 .0258377
948.571 .0258135
949.199 .0257884
949.827 .0257623
950.455 .0257355
951.082 .0257080
951.709 .0256805
952.335 .0256529
952.961 .0256257
953.587 .0255987
954.212 .0255723
954.837 .0255465
955.462 .0255210
956.086 .0254963
956.710 .0254728
957.334 .0254503
957.957 .0254285
958.579 .0254078
959.202 .0253879
959.824 .0253686
960.445 .0253496
961.067 .0253303
961.688 .0253110
962.308 .0252916
962.928 .0252717
963.548 .0252515
964.168 .0252316
964.787 .0252117
965.406 .0251920
966.024 .0251729
966.642 .0251543
967.260 .0251364
967.877 .0251191
968.494 .0251024
969.110 .0250861
969.727 .0250702
970.342 .0250545
970.958 .0250388
971.573 .0250243
972.188 .0250101
972.802 .0249970
973.416 .0249855
974.030 .0249752
974.643 .0249661
975.256 .0249584
975.869 .0249517
976.481 .0249456
977.093 .0249397
977.705 .0249335
978.316 .0249272
978.927 .0249207
979.538 .0249141
980.148 .0249069
980.758 .0248998
981.367 .0248935
981.977 .0248877
982.586 .0248830
983.194 .0248795
983.802 .0248774
984.410 .0248760
985.018 .0248748
985.625 .0248732
986.232 .0248707
986.838 .0248676
987.445 .0248633
988.050 .0248585
988.656 .0248530
989.261 .0248473
989.866 .0248409
990.471 .0248347
991.075 .0248285
991.679 .0248220
992.282 .0248156
992.886 .0248093
993.489 .0248029
994.091 .0247968
994.694 .0247912
995.296 .0247866
995.897 .0247825
996.499 .0247791
997.100 .0247761
997.701 .0247743
998.301 .0247732
998.901 .0247734
999.501 .0247749
1000.101 .0247781
1000.700 .0247826
1001.299 .0247875
1001.898 .0247930
1002.496 .0247983
1003.094 .0248032
1003.692 .0248068
1004.289 .0248092
1004.887 .0248118
1005.484 .0248142
1006.080 .0248178
1006.677 .0248229
1007.273 .0248294
1007.868 .0248372
1008.464 .0248460
1009.059 .0248544
1009.654 .0248622
1010.249 .0248695
1010.843 .0248766
1011.437 .0248833
1012.031 .0248907
1012.625 .0248982
1013.218 .0249060
1013.811 .0249144
1014.404 .0249229
1014.997 .0249298
1015.589 .0249358
1016.181 .0249402
1016.773 .0249425
1017.365 .0249443
1017.956 .0249453
1018.547 .0249462
1019.138 .0249481
1019.728 .0249515
1020.319 .0249553
1020.909 .0249597
1021.499 .0249652
1022.088 .0249708
1022.678 .0249758
1023.267 .0249806
1023.856 .0249842
1024.445 .0249872
1025.033 .0249901
1025.621 .0249925
1026.209 .0249943
1026.797 .0249964
1027.385 .0249971
1027.972 .0249971
1028.560 .0249964
1029.147 .0249951
1029.734 .0249940
1030.320 .0249932
1030.907 .0249931
1031.493 .0249946
1032.079 .0249970
1032.665 .0250012
1033.250 .0250067
1033.836 .0250144
1034.421 .0250228
1035.006 .0250324
1035.591 .0250427
1036.176 .0250537
1036.761 .0250657
1037.345 .0250790
1037.929 .0250921
1038.514 .0251055
1039.097 .0251193
1039.681 .0251324
1040.265 .0251446
1040.848 .0251564
1041.432 .0251675
1042.015 .0251790
1042.598 .0251906
1043.181 .0252024
1043.764 .0252143
1044.346 .0252269
1044.929 .0252396
1045.511 .0252522
1046.094 .0252643
1046.676 .0252753
1047.258 .0252849
1047.840 .0252940
1048.422 .0253023
1049.003 .0253093
1049.585 .0253151
1050.166 .0253204
1050.748 .0253247
1051.329 .0253276
1051.910 .0253287
1052.491 .0253295
1053.072 .0253300
1053.653 .0253309
1054.234 .0253316
1054.815 .0253321
1055.396 .0253334
1055.976 .0253343
1056.557 .0253347
1057.138 .0253348
1057.718 .0253335
1058.298 .0253315
1058.879 .0253288
1059.459 .0253250
1060.039 .0253208
1060.620 .0253159
1061.200 .0253108
1061.780 .0253038
1062.360 .0252951
1062.940 .0252840
1063.520 .0252711
1064.101 .0252578
1064.681 .0252441
1065.261 .0252304
1065.841 .0252182
1066.421 .0252062
1067.001 .0251952
1067.581 .0251837
1068.161 .0251720
1068.741 .0251595
1069.321 .0251471
1069.901 .0251349
1070.482 .0251243
1071.062 .0251154
1071.642 .0251095
1072.222 .0251062
1072.803 .0251049
1073.383 .0251043
1073.963 .0251035
1074.544 .0251031
1075.124 .0251020
1075.705 .0251009
1076.286 .0251015
1076.866 .0251049
1077.447 .0251115
1078.028 .0251214
1078.609 .0251356
1079.190 .0251531
1079.771 .0251728
1080.352 .0251929
1080.934 .0252122
1081.515 .0252300
1082.097 .0252454
1082.679 .0252581
1083.260 .0252674
1083.842 .0252750
1084.424 .0252802
1085.007 .0252831
1085.589 .0252850
1086.172 .0252854
1086.754 .0252842
1087.337 .0252822
1087.920 .0252803
1088.503 .0252765
1089.087 .0252714
1089.670 .0252655
1090.254 .0252588
1090.838 .0252518
1091.422 .0252442
1092.006 .0252351
1092.590 .0252258
1093.175 .0252157
1093.760 .0252046
1094.345 .0251924
1094.930 .0251816
1095.516 .0251729
1096.102 .0251660
1096.688 .0251615
1097.274 .0251603
1097.860 .0251605
1098.447 .0251597
1099.034 .0251568
1099.622 .0251511
1100.209 .0251402
1100.797 .0251269
1101.385 .0251126
1101.973 .0251000
1102.562 .0250901
1103.151 .0250849
1103.740 .0250841
1104.330 .0250887
1104.920 .0250979
1105.510 .0251066
1106.101 .0251163
1106.691 .0251260
1107.283 .0251337
1107.874 .0251404
1108.466 .0251472
1109.058 .0251559
1109.651 .0251653
1110.244 .0251762
1110.837 .0251876
1111.431 .0251995
1112.025 .0252119
1112.620 .0252241
1113.215 .0252367
1113.810 .0252475
1114.406 .0252585
1115.002 .0252687
1115.599 .0252795
1116.196 .0252895
1116.793 .0252962
1117.391 .0253005
1117.989 .0252999
1118.588 .0252964
1119.187 .0252886
1119.787 .0252778
1120.387 .0252659
1120.988 .0252491
1121.589 .0252299
1122.190 .0252064
1122.793 .0251798
1123.395 .0251541
1123.998 .0251322
1124.602 .0251171
1125.206 .0251090
1125.811 .0251092
1126.416 .0251177
1127.022 .0251332
1127.628 .0251542
1128.235 .0251764
1128.843 .0252009
1129.451 .0252287
1130.059 .0252572
1130.669 .0252908
1131.278 .0253318
1131.889 .0253778
1132.500 .0254309
1133.112 .0254889
1133.724 .0255471
1134.337 .0256038
1134.950 .0256562
1135.564 .0257022
1136.179 .0257418
1136.795 .0257786
1137.411 .0258108
1138.028 .0258408
1138.645 .0258737
1139.263 .0259103
1139.882 .0259495
1140.502 .0259981
1141.122 .0260526
1141.743 .0261093
1142.365 .0261608
1142.987 .0261714
1143.611 .0263620
1144.235 .0264163
1144.859 .0263523
1145.485 .0262424
