Measurement Sequence started on: 10-20-44-796
Integration time: 35
Scans to Average: 2 
>>>>>Begin Spectral Data<<<<<
432.953 .0444961
433.882 .0338918
434.810 .0319581
435.737 .0302064
436.662 .0290697
437.586 .0306366
438.509 .0299240
439.431 .0296950
440.351 .0295899
441.269 .0295785
442.187 .0296188
443.103 .0296706
444.018 .0297495
444.932 .0298807
445.844 .0300239
446.756 .0301728
447.666 .0303187
448.575 .0304456
449.482 .0305674
450.388 .0306702
451.294 .0307493
452.198 .0308193
453.100 .0308822
454.002 .0309435
454.902 .0309965
455.801 .0310496
456.699 .0310976
457.596 .0311281
458.492 .0311469
459.387 .0311424
460.280 .0311265
461.172 .0310905
462.064 .0310389
462.954 .0309716
463.843 .0308953
464.730 .0308178
465.617 .0307433
466.503 .0306806
467.387 .0306280
468.271 .0305799
469.153 .0305400
470.035 .0305015
470.915 .0304635
471.794 .0304210
472.673 .0303770
473.550 .0303289
474.426 .0302822
475.301 .0302390
476.175 .0302042
477.048 .0301806
477.920 .0301668
478.791 .0301590
479.661 .0301556
480.530 .0301563
481.398 .0301522
482.266 .0301461
483.132 .0301378
483.997 .0301244
484.861 .0301104
485.724 .0300993
486.587 .0300925
487.448 .0300917
488.308 .0300977
489.168 .0301065
490.026 .0301136
490.884 .0301208
491.741 .0301231
492.597 .0301215
493.452 .0301157
494.306 .0301048
495.159 .0300878
496.011 .0300727
496.862 .0300554
497.713 .0300374
498.562 .0300175
499.411 .0299942
500.259 .0299644
501.106 .0299242
501.952 .0298752
502.798 .0298159
503.642 .0297494
504.486 .0296757
505.329 .0295937
506.171 .0295072
507.012 .0294165
507.852 .0293237
508.692 .0292279
509.531 .0291294
510.369 .0290230
511.206 .0289134
512.043 .0287989
512.878 .0286773
513.713 .0285531
514.547 .0284254
515.381 .0283038
516.213 .0281833
517.045 .0280664
517.876 .0279480
518.706 .0278304
519.536 .0277126
520.365 .0275866
521.193 .0274525
522.020 .0273136
522.847 .0271655
523.673 .0270120
524.498 .0268503
525.323 .0266825
526.146 .0265105
526.969 .0263397
527.792 .0261603
528.614 .0259741
529.435 .0257821
530.255 .0255896
531.075 .0253923
531.894 .0252041
532.712 .0250210
533.530 .0248469
534.347 .0246858
535.163 .0245398
535.979 .0244106
536.794 .0243015
537.608 .0242099
538.422 .0241389
539.235 .0240857
540.048 .0240502
540.860 .0240238
541.671 .0240184
542.481 .0240263
543.292 .0240407
544.101 .0240600
544.910 .0240906
545.718 .0241320
546.526 .0241847
547.333 .0242490
548.139 .0243287
548.945 .0244188
549.750 .0245149
550.555 .0246083
551.359 .0247026
552.162 .0247938
552.965 .0248764
553.768 .0249509
554.569 .0250248
555.371 .0250993
556.171 .0251757
556.972 .0252578
557.771 .0253467
558.570 .0254371
559.369 .0255301
560.167 .0256201
560.964 .0257099
561.761 .0257957
562.558 .0258796
563.354 .0259636
564.149 .0260500
564.944 .0261353
565.738 .0262215
566.532 .0263105
567.325 .0264002
568.118 .0264852
568.910 .0265632
569.702 .0266391
570.494 .0267133
571.285 .0267859
572.075 .0268604
572.865 .0269366
573.654 .0270174
574.443 .0270993
575.232 .0271801
576.020 .0272581
576.807 .0273322
577.594 .0274028
578.381 .0274647
579.167 .0275220
579.952 .0275757
580.738 .0276294
581.522 .0276869
582.307 .0277487
583.091 .0278126
583.874 .0278790
584.657 .0279456
585.440 .0280103
586.222 .0280708
587.004 .0281254
587.785 .0281739
588.566 .0282173
589.346 .0282556
590.126 .0282897
590.906 .0283208
591.685 .0283512
592.464 .0283794
593.242 .0284046
594.020 .0284252
594.797 .0284423
595.575 .0284561
596.351 .0284665
597.128 .0284741
597.904 .0284786
598.679 .0284814
599.454 .0284821
600.229 .0284806
601.004 .0284763
601.778 .0284698
602.551 .0284618
603.325 .0284518
604.097 .0284404
604.870 .0284283
605.642 .0284165
606.414 .0284058
607.185 .0283958
607.956 .0283870
608.727 .0283791
609.497 .0283726
610.267 .0283659
611.037 .0283585
611.806 .0283499
612.575 .0283400
613.344 .0283290
614.112 .0283172
614.880 .0283054
615.647 .0282937
616.414 .0282831
617.181 .0282738
617.948 .0282658
618.714 .0282587
619.480 .0282515
620.245 .0282442
621.011 .0282351
621.775 .0282244
622.540 .0282121
623.304 .0281988
624.068 .0281864
624.832 .0281747
625.595 .0281642
626.358 .0281554
627.120 .0281480
627.883 .0281414
628.645 .0281350
629.406 .0281281
630.168 .0281197
630.929 .0281097
631.689 .0280979
632.450 .0280837
633.210 .0280681
633.970 .0280520
634.729 .0280354
635.489 .0280174
636.248 .0279988
637.006 .0279787
637.765 .0279579
638.523 .0279359
639.280 .0279129
640.038 .0278899
640.795 .0278672
641.552 .0278445
642.309 .0278224
643.065 .0278014
643.821 .0277818
644.577 .0277618
645.332 .0277435
646.088 .0277250
646.843 .0277067
647.597 .0276882
648.352 .0276704
649.106 .0276532
649.860 .0276370
650.613 .0276216
651.367 .0276079
652.120 .0275962
652.872 .0275865
653.625 .0275774
654.377 .0275705
655.129 .0275647
655.881 .0275597
656.632 .0275539
657.384 .0275485
658.135 .0275421
658.885 .0275355
659.636 .0275283
660.386 .0275214
661.136 .0275153
661.885 .0275101
662.635 .0275055
663.384 .0275021
664.133 .0274993
664.881 .0274964
665.630 .0274926
666.378 .0274880
667.126 .0274816
667.874 .0274737
668.621 .0274647
669.368 .0274560
670.115 .0274479
670.862 .0274407
671.608 .0274349
672.354 .0274303
673.100 .0274263
673.846 .0274221
674.591 .0274173
675.337 .0274117
676.082 .0274048
676.826 .0273961
677.571 .0273864
678.315 .0273757
679.059 .0273643
679.803 .0273523
680.547 .0273401
681.290 .0273270
682.033 .0273130
682.776 .0272980
683.518 .0272820
684.261 .0272654
685.003 .0272486
685.745 .0272312
686.487 .0272144
687.228 .0271977
687.969 .0271812
688.710 .0271647
689.451 .0271485
690.192 .0271314
690.932 .0271138
691.672 .0270962
692.412 .0270788
693.152 .0270619
693.891 .0270467
694.630 .0270330
695.369 .0270213
696.108 .0270111
696.846 .0270015
697.585 .0269921
698.323 .0269825
699.061 .0269718
699.798 .0269606
700.536 .0269484
701.273 .0269360
702.010 .0269231
702.746 .0269109
703.483 .0268990
704.219 .0268873
704.955 .0268755
705.691 .0268632
706.427 .0268497
707.162 .0268344
707.897 .0268171
708.632 .0267988
709.367 .0267797
710.101 .0267600
710.835 .0267399
711.569 .0267199
712.303 .0267001
713.037 .0266815
713.770 .0266632
714.503 .0266457
715.236 .0266290
715.969 .0266128
716.702 .0265969
717.434 .0265814
718.166 .0265657
718.898 .0265498
719.629 .0265342
720.361 .0265187
721.092 .0265025
721.823 .0264862
722.554 .0264697
723.284 .0264535
724.014 .0264367
724.744 .0264191
725.474 .0264000
726.204 .0263802
726.933 .0263594
727.662 .0263372
728.391 .0263149
729.120 .0262930
729.849 .0262717
730.577 .0262512
731.305 .0262311
732.033 .0262114
732.760 .0261915
733.488 .0261719
734.215 .0261514
734.942 .0261306
735.669 .0261093
736.395 .0260882
737.122 .0260680
737.848 .0260486
738.573 .0260303
739.299 .0260132
740.024 .0259972
740.750 .0259814
741.474 .0259652
742.199 .0259490
742.924 .0259323
743.648 .0259163
744.372 .0259004
745.096 .0258855
745.819 .0258714
746.543 .0258586
747.266 .0258467
747.989 .0258356
748.711 .0258252
749.434 .0258153
750.156 .0258062
750.878 .0257978
751.599 .0257904
752.321 .0257843
753.042 .0257799
753.763 .0257772
754.484 .0257754
755.205 .0257745
755.925 .0257738
756.645 .0257730
757.365 .0257710
758.085 .0257684
758.804 .0257645
759.523 .0257591
760.242 .0257527
760.961 .0257448
761.679 .0257354
762.397 .0257246
763.115 .0257119
763.833 .0256969
764.551 .0256794
765.268 .0256591
765.985 .0256358
766.702 .0256104
767.418 .0255836
768.134 .0255556
768.850 .0255279
769.566 .0255010
770.282 .0254751
770.997 .0254512
771.712 .0254289
772.427 .0254084
773.142 .0253893
773.856 .0253710
774.570 .0253533
775.284 .0253361
775.998 .0253193
776.711 .0253032
777.424 .0252880
778.137 .0252738
778.849 .0252603
779.562 .0252475
780.274 .0252355
780.986 .0252237
781.697 .0252124
782.409 .0252012
783.120 .0251899
783.831 .0251791
784.541 .0251679
785.252 .0251571
785.962 .0251466
786.671 .0251363
787.381 .0251262
788.090 .0251163
788.799 .0251067
789.508 .0250973
790.217 .0250881
790.925 .0250792
791.633 .0250700
792.341 .0250606
793.048 .0250504
793.755 .0250395
794.462 .0250275
795.169 .0250145
795.875 .0250001
796.581 .0249852
797.287 .0249697
797.993 .0249539
798.698 .0249383
799.403 .0249233
800.108 .0249090
800.812 .0248956
801.517 .0248827
802.221 .0248705
802.924 .0248587
803.628 .0248473
804.331 .0248359
805.034 .0248251
805.736 .0248142
806.439 .0248040
807.141 .0247945
807.843 .0247863
808.544 .0247791
809.245 .0247723
809.946 .0247660
810.647 .0247596
811.347 .0247528
812.047 .0247452
812.747 .0247365
813.447 .0247272
814.146 .0247171
814.845 .0247067
815.543 .0246963
816.242 .0246864
816.940 .0246767
817.638 .0246670
818.335 .0246569
819.032 .0246461
819.729 .0246341
820.426 .0246208
821.122 .0246059
821.818 .0245895
822.514 .0245721
823.209 .0245539
823.905 .0245354
824.599 .0245173
825.294 .0244996
825.988 .0244827
826.682 .0244665
827.376 .0244510
828.069 .0244361
828.762 .0244214
829.455 .0244071
830.147 .0243929
830.840 .0243791
831.531 .0243654
832.223 .0243523
832.914 .0243400
833.605 .0243284
834.296 .0243177
834.986 .0243077
835.676 .0242982
836.366 .0242882
837.055 .0242774
837.744 .0242654
838.433 .0242521
839.121 .0242377
839.809 .0242222
840.497 .0242066
841.185 .0241909
841.872 .0241754
842.559 .0241610
843.245 .0241478
843.932 .0241357
844.617 .0241242
845.303 .0241135
845.988 .0241034
846.673 .0240933
847.358 .0240834
848.042 .0240744
848.726 .0240662
849.410 .0240590
850.093 .0240521
850.776 .0240460
851.459 .0240404
852.141 .0240352
852.823 .0240300
853.505 .0240246
854.186 .0240186
854.867 .0240120
855.548 .0240046
856.228 .0239972
856.908 .0239895
857.588 .0239815
858.267 .0239737
858.946 .0239654
859.625 .0239566
860.303 .0239465
860.981 .0239355
861.659 .0239235
862.336 .0239102
863.013 .0238959
863.690 .0238805
864.366 .0238646
865.042 .0238488
865.718 .0238329
866.393 .0238175
867.068 .0238028
867.743 .0237888
868.417 .0237754
869.091 .0237623
869.765 .0237492
870.438 .0237364
871.111 .0237238
871.783 .0237113
872.456 .0236990
873.127 .0236869
873.799 .0236756
874.470 .0236646
875.141 .0236546
875.811 .0236448
876.481 .0236355
877.151 .0236261
877.820 .0236159
878.489 .0236047
879.158 .0235922
879.826 .0235786
880.494 .0235643
881.162 .0235497
881.829 .0235358
882.496 .0235222
883.163 .0235101
883.829 .0234986
884.495 .0234880
885.160 .0234782
885.825 .0234686
886.490 .0234586
887.154 .0234480
887.818 .0234370
888.482 .0234255
889.145 .0234139
889.808 .0234030
890.471 .0233922
891.133 .0233820
891.795 .0233720
892.456 .0233620
893.117 .0233519
893.778 .0233417
894.439 .0233314
895.099 .0233209
895.758 .0233103
896.417 .0232997
897.076 .0232896
897.735 .0232800
898.393 .0232711
899.051 .0232625
899.708 .0232543
900.365 .0232465
901.022 .0232391
901.678 .0232323
902.334 .0232257
902.990 .0232198
903.645 .0232143
904.300 .0232087
904.954 .0232030
905.608 .0231963
906.262 .0231895
906.915 .0231823
907.568 .0231747
908.221 .0231666
908.873 .0231583
909.525 .0231500
910.176 .0231419
910.828 .0231336
911.478 .0231251
912.129 .0231158
912.778 .0231056
913.428 .0230949
914.077 .0230834
914.726 .0230713
915.375 .0230593
916.023 .0230474
916.670 .0230366
917.318 .0230260
917.964 .0230162
918.611 .0230070
919.257 .0229986
919.903 .0229905
920.548 .0229826
921.193 .0229749
921.838 .0229678
922.482 .0229612
923.126 .0229551
923.770 .0229493
924.413 .0229439
925.056 .0229390
925.698 .0229343
926.340 .0229299
926.982 .0229257
927.623 .0229211
928.264 .0229164
928.904 .0229109
929.544 .0229043
930.184 .0228961
930.823 .0228867
931.462 .0228761
932.101 .0228643
932.739 .0228515
933.377 .0228384
934.014 .0228251
934.651 .0228124
935.288 .0227998
935.924 .0227873
936.560 .0227748
937.196 .0227625
937.831 .0227497
938.466 .0227372
939.100 .0227249
939.734 .0227128
940.368 .0227012
941.001 .0226899
941.634 .0226785
942.266 .0226674
942.899 .0226560
943.530 .0226440
944.162 .0226313
944.793 .0226183
945.423 .0226045
946.053 .0225904
946.683 .0225762
947.313 .0225618
947.942 .0225468
948.571 .0225312
949.199 .0225144
949.827 .0224965
950.455 .0224777
951.082 .0224582
951.709 .0224387
952.335 .0224199
952.961 .0224022
953.587 .0223856
954.212 .0223701
954.837 .0223558
955.462 .0223420
956.086 .0223288
956.710 .0223161
957.334 .0223036
957.957 .0222912
958.579 .0222789
959.202 .0222668
959.824 .0222555
960.445 .0222451
961.067 .0222354
961.688 .0222266
962.308 .0222189
962.928 .0222118
963.548 .0222052
964.168 .0221996
964.787 .0221941
965.406 .0221887
966.024 .0221835
966.642 .0221780
967.260 .0221722
967.877 .0221666
968.494 .0221611
969.110 .0221558
969.727 .0221509
970.342 .0221461
970.958 .0221411
971.573 .0221369
972.188 .0221334
972.802 .0221302
973.416 .0221278
974.030 .0221256
974.643 .0221233
975.256 .0221210
975.869 .0221189
976.481 .0221165
977.093 .0221137
977.705 .0221113
978.316 .0221090
978.927 .0221073
979.538 .0221061
980.148 .0221052
980.758 .0221047
981.367 .0221045
981.977 .0221035
982.586 .0221016
983.194 .0220992
983.802 .0220965
984.410 .0220937
985.018 .0220913
985.625 .0220899
986.232 .0220897
986.838 .0220909
987.445 .0220937
988.050 .0220968
988.656 .0220999
989.261 .0221023
989.866 .0221037
990.471 .0221038
991.075 .0221027
991.679 .0221003
992.282 .0220971
992.886 .0220936
993.489 .0220896
994.091 .0220852
994.694 .0220808
995.296 .0220766
995.897 .0220718
996.499 .0220660
997.100 .0220594
997.701 .0220523
998.301 .0220449
998.901 .0220381
999.501 .0220321
1000.101 .0220277
1000.700 .0220250
1001.299 .0220235
1001.898 .0220234
1002.496 .0220249
1003.094 .0220272
1003.692 .0220299
1004.289 .0220329
1004.887 .0220364
1005.484 .0220401
1006.080 .0220452
1006.677 .0220516
1007.273 .0220590
1007.868 .0220673
1008.464 .0220762
1009.059 .0220847
1009.654 .0220934
1010.249 .0221016
1010.843 .0221098
1011.437 .0221185
1012.031 .0221275
1012.625 .0221364
1013.218 .0221451
1013.811 .0221539
1014.404 .0221617
1014.997 .0221682
1015.589 .0221733
1016.181 .0221767
1016.773 .0221792
1017.365 .0221812
1017.956 .0221823
1018.547 .0221833
1019.138 .0221842
1019.728 .0221841
1020.319 .0221822
1020.909 .0221785
1021.499 .0221729
1022.088 .0221657
1022.678 .0221574
1023.267 .0221491
1023.856 .0221410
1024.445 .0221343
1025.033 .0221286
1025.621 .0221239
1026.209 .0221204
1026.797 .0221165
1027.385 .0221123
1027.972 .0221072
1028.560 .0221019
1029.147 .0220957
1029.734 .0220895
1030.320 .0220845
1030.907 .0220804
1031.493 .0220777
1032.079 .0220766
1032.665 .0220774
1033.250 .0220792
1033.836 .0220816
1034.421 .0220844
1035.006 .0220873
1035.591 .0220900
1036.176 .0220912
1036.761 .0220911
1037.345 .0220902
1037.929 .0220885
1038.514 .0220857
1039.097 .0220826
1039.681 .0220809
1040.265 .0220792
1040.848 .0220787
1041.432 .0220790
1042.015 .0220795
1042.598 .0220798
1043.181 .0220795
1043.764 .0220783
1044.346 .0220768
1044.929 .0220748
1045.511 .0220726
1046.094 .0220696
1046.676 .0220677
1047.258 .0220652
1047.840 .0220625
1048.422 .0220596
1049.003 .0220567
1049.585 .0220526
1050.166 .0220489
1050.748 .0220449
1051.329 .0220415
1051.910 .0220389
1052.491 .0220372
1053.072 .0220355
1053.653 .0220333
1054.234 .0220300
1054.815 .0220256
1055.396 .0220187
1055.976 .0220108
1056.557 .0220009
1057.138 .0219903
1057.718 .0219797
1058.298 .0219696
1058.879 .0219608
1059.459 .0219530
1060.039 .0219468
1060.620 .0219417
1061.200 .0219361
1061.780 .0219296
1062.360 .0219213
1062.940 .0219127
1063.520 .0219051
1064.101 .0218978
1064.681 .0218913
1065.261 .0218879
1065.841 .0218871
1066.421 .0218883
1067.001 .0218907
1067.581 .0218934
1068.161 .0218949
1068.741 .0218949
1069.321 .0218940
1069.901 .0218902
1070.482 .0218854
1071.062 .0218803
1071.642 .0218749
1072.222 .0218708
1072.803 .0218673
1073.383 .0218639
1073.963 .0218609
1074.544 .0218583
1075.124 .0218538
1075.705 .0218468
1076.286 .0218394
1076.866 .0218313
1077.447 .0218226
1078.028 .0218135
1078.609 .0218032
1079.190 .0217922
1079.771 .0217823
1080.352 .0217716
1080.934 .0217595
1081.515 .0217466
1082.097 .0217322
1082.679 .0217172
1083.260 .0217023
1083.842 .0216875
1084.424 .0216730
1085.007 .0216612
1085.589 .0216515
1086.172 .0216422
1086.754 .0216339
1087.337 .0216283
1087.920 .0216246
1088.503 .0216237
1089.087 .0216238
1089.670 .0216241
1090.254 .0216254
1090.838 .0216283
1091.422 .0216309
1092.006 .0216333
1092.590 .0216352
1093.175 .0216361
1093.760 .0216356
1094.345 .0216347
1094.930 .0216301
1095.516 .0216232
1096.102 .0216155
1096.688 .0216067
1097.274 .0215950
1097.860 .0215814
1098.447 .0215668
1099.034 .0215504
1099.622 .0215332
1100.209 .0215147
1100.797 .0214954
1101.385 .0214784
1101.973 .0214623
1102.562 .0214449
1103.151 .0214284
1103.740 .0214122
1104.330 .0213943
1104.920 .0213760
1105.510 .0213590
1106.101 .0213408
1106.691 .0213221
1107.283 .0213050
1107.874 .0212897
1108.466 .0212760
1109.058 .0212675
1109.651 .0212609
1110.244 .0212586
1110.837 .0212591
1111.431 .0212592
1112.025 .0212594
1112.620 .0212616
1113.215 .0212625
1113.810 .0212629
1114.406 .0212654
1115.002 .0212703
1115.599 .0212755
1116.196 .0212822
1116.793 .0212891
1117.391 .0212947
1117.989 .0212976
1118.588 .0212966
1119.187 .0212893
1119.787 .0212814
1120.387 .0212723
1120.988 .0212633
1121.589 .0212593
1122.190 .0212601
1122.793 .0212671
1123.395 .0212782
1123.998 .0212927
1124.602 .0213091
1125.206 .0213254
1125.811 .0213452
1126.416 .0213642
1127.022 .0213841
1127.628 .0214083
1128.235 .0214351
1128.843 .0214677
1129.451 .0215042
1130.059 .0215443
1130.669 .0215828
1131.278 .0216178
1131.889 .0216451
1132.500 .0216628
1133.112 .0216737
1133.724 .0216788
1134.337 .0216791
1134.950 .0216784
1135.564 .0216795
1136.179 .0216835
1136.795 .0216949
1137.411 .0217195
1138.028 .0217512
1138.645 .0217928
1139.263 .0218405
1139.882 .0218981
1140.502 .0219664
1141.122 .0220457
1141.743 .0221455
1142.365 .0222793
1142.987 .0222867
1143.611 .0224755
1144.235 .0226321
1144.859 .0230146
1145.485 .0236134
