Measurement Sequence started on: 10-20-44-796
Integration time: 35
Scans to Average: 2 
>>>>>Begin Spectral Data<<<<<
432.953 .0272833
433.882 .0345448
434.810 .0367376
435.737 .0363703
436.662 .0377414
437.586 .0378651
438.509 .0387042
439.431 .0391899
440.351 .0395173
441.269 .0397603
442.187 .0398856
443.103 .0399448
444.018 .0399232
444.932 .0398991
445.844 .0398569
446.756 .0398208
447.666 .0398172
448.575 .0398124
449.482 .0398160
450.388 .0398129
451.294 .0397891
452.198 .0397321
453.100 .0396499
454.002 .0395584
454.902 .0394505
455.801 .0393351
456.699 .0392340
457.596 .0391460
458.492 .0390712
459.387 .0390103
460.280 .0389552
461.172 .0388876
462.064 .0388120
462.954 .0387168
463.843 .0386033
464.730 .0384863
465.617 .0383705
466.503 .0382663
467.387 .0381841
468.271 .0381251
469.153 .0380930
470.035 .0380815
470.915 .0380950
471.794 .0381151
472.673 .0381388
473.550 .0381617
474.426 .0381786
475.301 .0381919
476.175 .0382020
477.048 .0382055
477.920 .0382051
478.791 .0382052
479.661 .0382035
480.530 .0381949
481.398 .0381815
482.266 .0381579
483.132 .0381222
483.997 .0380683
484.861 .0380057
485.724 .0379332
486.587 .0378607
487.448 .0377889
488.308 .0377186
489.168 .0376546
490.026 .0375944
490.884 .0375403
491.741 .0374896
492.597 .0374422
493.452 .0373953
494.306 .0373436
495.159 .0372934
496.011 .0372421
496.862 .0371947
497.713 .0371486
498.562 .0371029
499.411 .0370511
500.259 .0369899
501.106 .0369162
501.952 .0368306
502.798 .0367369
503.642 .0366360
504.486 .0365299
505.329 .0364188
506.171 .0363017
507.012 .0361788
507.852 .0360451
508.692 .0359024
509.531 .0357445
510.369 .0355759
511.206 .0353956
512.043 .0352092
512.878 .0350243
513.713 .0348476
514.547 .0346848
515.381 .0345373
516.213 .0344009
517.045 .0342768
517.876 .0341608
518.706 .0340555
519.536 .0339566
520.365 .0338702
521.193 .0337944
522.020 .0337353
522.847 .0336869
523.673 .0336502
524.498 .0336120
525.323 .0335730
526.146 .0335280
526.969 .0334718
527.792 .0333938
528.614 .0332949
529.435 .0331838
530.255 .0330706
531.075 .0329363
531.894 .0327966
532.712 .0326410
533.530 .0324829
534.347 .0323149
535.163 .0321322
535.979 .0319465
536.794 .0317698
537.608 .0316066
538.422 .0314626
539.235 .0313410
540.048 .0312553
540.860 .0311936
541.671 .0311637
542.481 .0311480
543.292 .0311396
544.101 .0311357
544.910 .0311370
545.718 .0311342
546.526 .0311345
547.333 .0311375
548.139 .0311555
548.945 .0311967
549.750 .0312495
550.555 .0313132
551.359 .0313824
552.162 .0314480
552.965 .0315032
553.768 .0315376
554.569 .0315571
555.371 .0315511
556.171 .0315312
556.972 .0315067
557.771 .0314797
558.570 .0314599
559.369 .0314438
560.167 .0314355
560.964 .0314310
561.761 .0314249
562.558 .0314170
563.354 .0314123
564.149 .0314086
564.944 .0314023
565.738 .0313999
566.532 .0314095
567.325 .0314325
568.118 .0314705
568.910 .0315254
569.702 .0316002
570.494 .0316901
571.285 .0317912
572.075 .0319012
572.865 .0320195
573.654 .0321369
574.443 .0322474
575.232 .0323480
576.020 .0324403
576.807 .0325220
577.594 .0325963
578.381 .0326651
579.167 .0327310
579.952 .0327930
580.738 .0328523
581.522 .0329089
582.307 .0329599
583.091 .0330040
583.874 .0330430
584.657 .0330761
585.440 .0331051
586.222 .0331290
587.004 .0331511
587.785 .0331741
588.566 .0331980
589.346 .0332194
590.126 .0332389
590.906 .0332571
591.685 .0332730
592.464 .0332874
593.242 .0333024
594.020 .0333168
594.797 .0333312
595.575 .0333456
596.351 .0333593
597.128 .0333712
597.904 .0333816
598.679 .0333895
599.454 .0333945
600.229 .0333968
601.004 .0333952
601.778 .0333915
602.551 .0333880
603.325 .0333833
604.097 .0333770
604.870 .0333684
605.642 .0333569
606.414 .0333404
607.185 .0333197
607.956 .0332943
608.727 .0332652
609.497 .0332335
610.267 .0331992
611.037 .0331632
611.806 .0331277
612.575 .0330918
613.344 .0330557
614.112 .0330192
614.880 .0329812
615.647 .0329400
616.414 .0328962
617.181 .0328502
617.948 .0328033
618.714 .0327550
619.480 .0327071
620.245 .0326596
621.011 .0326131
621.775 .0325678
622.540 .0325236
623.304 .0324810
624.068 .0324392
624.832 .0323969
625.595 .0323548
626.358 .0323128
627.120 .0322726
627.883 .0322328
628.645 .0321944
629.406 .0321587
630.168 .0321244
630.929 .0320920
631.689 .0320612
632.450 .0320318
633.210 .0320035
633.970 .0319763
634.729 .0319505
635.489 .0319246
636.248 .0318979
637.006 .0318710
637.765 .0318427
638.523 .0318127
639.280 .0317810
640.038 .0317480
640.795 .0317152
641.552 .0316832
642.309 .0316519
643.065 .0316232
643.821 .0315975
644.577 .0315747
645.332 .0315533
646.088 .0315334
646.843 .0315147
647.597 .0314954
648.352 .0314760
649.106 .0314563
649.860 .0314356
650.613 .0314155
651.367 .0313968
652.120 .0313806
652.872 .0313667
653.625 .0313558
654.377 .0313477
655.129 .0313415
655.881 .0313360
656.632 .0313301
657.384 .0313226
658.135 .0313141
658.885 .0313035
659.636 .0312915
660.386 .0312796
661.136 .0312682
661.885 .0312586
662.635 .0312514
663.384 .0312464
664.133 .0312425
664.881 .0312381
665.630 .0312333
666.378 .0312263
667.126 .0312166
667.874 .0312043
668.621 .0311902
669.368 .0311748
670.115 .0311589
670.862 .0311428
671.608 .0311286
672.354 .0311155
673.100 .0311029
673.846 .0310909
674.591 .0310784
675.337 .0310663
676.082 .0310540
676.826 .0310421
677.571 .0310312
678.315 .0310206
679.059 .0310109
679.803 .0310016
680.547 .0309927
681.290 .0309836
682.033 .0309732
682.776 .0309621
683.518 .0309496
684.261 .0309353
685.003 .0309195
685.745 .0309021
686.487 .0308832
687.228 .0308631
687.969 .0308407
688.710 .0308167
689.451 .0307911
690.192 .0307638
690.932 .0307353
691.672 .0307061
692.412 .0306764
693.152 .0306460
693.891 .0306148
694.630 .0305836
695.369 .0305520
696.108 .0305206
696.846 .0304891
697.585 .0304589
698.323 .0304297
699.061 .0304022
699.798 .0303759
700.536 .0303511
701.273 .0303271
702.010 .0303033
702.746 .0302787
703.483 .0302528
704.219 .0302250
704.955 .0301961
705.691 .0301655
706.427 .0301349
707.162 .0301035
707.897 .0300731
708.632 .0300431
709.367 .0300134
710.101 .0299828
710.835 .0299514
711.569 .0299188
712.303 .0298852
713.037 .0298503
713.770 .0298145
714.503 .0297787
715.236 .0297439
715.969 .0297098
716.702 .0296777
717.434 .0296471
718.166 .0296177
718.898 .0295893
719.629 .0295623
720.361 .0295351
721.092 .0295081
721.823 .0294817
722.554 .0294550
723.284 .0294284
724.014 .0294019
724.744 .0293747
725.474 .0293475
726.204 .0293209
726.933 .0292943
727.662 .0292677
728.391 .0292424
729.120 .0292178
729.849 .0291941
730.577 .0291727
731.305 .0291521
732.033 .0291324
732.760 .0291137
733.488 .0290955
734.215 .0290773
734.942 .0290595
735.669 .0290417
736.395 .0290247
737.122 .0290088
737.848 .0289937
738.573 .0289793
739.299 .0289668
740.024 .0289551
740.750 .0289439
741.474 .0289328
742.199 .0289215
742.924 .0289088
743.648 .0288959
744.372 .0288817
745.096 .0288673
745.819 .0288534
746.543 .0288399
747.266 .0288275
747.989 .0288171
748.711 .0288080
749.434 .0288002
750.156 .0287937
750.878 .0287888
751.599 .0287836
752.321 .0287795
753.042 .0287755
753.763 .0287721
754.484 .0287695
755.205 .0287676
755.925 .0287657
756.645 .0287648
757.365 .0287633
758.085 .0287614
758.804 .0287588
759.523 .0287551
760.242 .0287498
760.961 .0287430
761.679 .0287351
762.397 .0287257
763.115 .0287148
763.833 .0287033
764.551 .0286908
765.268 .0286785
765.985 .0286659
766.702 .0286540
767.418 .0286431
768.134 .0286335
768.850 .0286252
769.566 .0286185
770.282 .0286130
770.997 .0286081
771.712 .0286036
772.427 .0285986
773.142 .0285937
773.856 .0285885
774.570 .0285839
775.284 .0285792
775.998 .0285748
776.711 .0285711
777.424 .0285668
778.137 .0285628
778.849 .0285575
779.562 .0285516
780.274 .0285455
780.986 .0285386
781.697 .0285313
782.409 .0285241
783.120 .0285181
783.831 .0285135
784.541 .0285105
785.252 .0285094
785.962 .0285094
786.671 .0285104
787.381 .0285113
788.090 .0285118
788.799 .0285117
789.508 .0285104
790.217 .0285076
790.925 .0285035
791.633 .0284979
792.341 .0284910
793.048 .0284831
793.755 .0284742
794.462 .0284643
795.169 .0284526
795.875 .0284392
796.581 .0284244
797.287 .0284082
797.993 .0283907
798.698 .0283725
799.403 .0283547
800.108 .0283372
800.812 .0283199
801.517 .0283041
802.221 .0282899
802.924 .0282774
803.628 .0282664
804.331 .0282567
805.034 .0282479
805.736 .0282400
806.439 .0282321
807.141 .0282246
807.843 .0282171
808.544 .0282101
809.245 .0282020
809.946 .0281932
810.647 .0281836
811.347 .0281728
812.047 .0281603
812.747 .0281469
813.447 .0281313
814.146 .0281144
814.845 .0280961
815.543 .0280769
816.242 .0280565
816.940 .0280363
817.638 .0280157
818.335 .0279955
819.032 .0279756
819.729 .0279562
820.426 .0279362
821.122 .0279166
821.818 .0278959
822.514 .0278740
823.209 .0278511
823.905 .0278275
824.599 .0278028
825.294 .0277783
825.988 .0277533
826.682 .0277290
827.376 .0277046
828.069 .0276808
828.762 .0276563
829.455 .0276311
830.147 .0276050
830.840 .0275782
831.531 .0275506
832.223 .0275236
832.914 .0274977
833.605 .0274735
834.296 .0274509
834.986 .0274306
835.676 .0274119
836.366 .0273948
837.055 .0273784
837.744 .0273619
838.433 .0273444
839.121 .0273263
839.809 .0273071
840.497 .0272877
841.185 .0272687
841.872 .0272502
842.559 .0272329
843.245 .0272163
843.932 .0272002
844.617 .0271840
845.303 .0271682
845.988 .0271523
846.673 .0271359
847.358 .0271192
848.042 .0271024
848.726 .0270854
849.410 .0270689
850.093 .0270522
850.776 .0270363
851.459 .0270201
852.141 .0270035
852.823 .0269863
853.505 .0269691
854.186 .0269513
854.867 .0269334
855.548 .0269159
856.228 .0268988
856.908 .0268818
857.588 .0268653
858.267 .0268489
858.946 .0268328
859.625 .0268169
860.303 .0268005
860.981 .0267838
861.659 .0267673
862.336 .0267501
863.013 .0267335
863.690 .0267175
864.366 .0267023
865.042 .0266878
865.718 .0266741
866.393 .0266615
867.068 .0266489
867.743 .0266363
868.417 .0266236
869.091 .0266103
869.765 .0265964
870.438 .0265814
871.111 .0265660
871.783 .0265508
872.456 .0265356
873.127 .0265215
873.799 .0265085
874.470 .0264961
875.141 .0264848
875.811 .0264740
876.481 .0264629
877.151 .0264517
877.820 .0264397
878.489 .0264273
879.158 .0264147
879.826 .0264026
880.494 .0263912
881.162 .0263812
881.829 .0263736
882.496 .0263672
883.163 .0263618
883.829 .0263574
884.495 .0263530
885.160 .0263486
885.825 .0263442
886.490 .0263396
887.154 .0263350
887.818 .0263306
888.482 .0263267
889.145 .0263233
889.808 .0263205
890.471 .0263181
891.133 .0263159
891.795 .0263136
892.456 .0263119
893.117 .0263100
893.778 .0263090
894.439 .0263093
895.099 .0263107
895.758 .0263134
896.417 .0263168
897.076 .0263206
897.735 .0263242
898.393 .0263273
899.051 .0263297
899.708 .0263303
900.365 .0263297
901.022 .0263285
901.678 .0263271
902.334 .0263258
902.990 .0263246
903.645 .0263234
904.300 .0263214
904.954 .0263182
905.608 .0263128
906.262 .0263058
906.915 .0262979
907.568 .0262893
908.221 .0262806
908.873 .0262733
909.525 .0262679
910.176 .0262640
910.828 .0262622
911.478 .0262618
912.129 .0262617
912.778 .0262613
913.428 .0262598
914.077 .0262581
914.726 .0262564
915.375 .0262552
916.023 .0262549
916.670 .0262567
917.318 .0262604
917.964 .0262655
918.611 .0262716
919.257 .0262782
919.903 .0262842
920.548 .0262894
921.193 .0262936
921.838 .0262971
922.482 .0263003
923.126 .0263034
923.770 .0263063
924.413 .0263093
925.056 .0263111
925.698 .0263116
926.340 .0263106
926.982 .0263086
927.623 .0263044
928.264 .0262987
928.904 .0262915
929.544 .0262829
930.184 .0262732
930.823 .0262620
931.462 .0262496
932.101 .0262369
932.739 .0262236
933.377 .0262096
934.014 .0261952
934.651 .0261810
935.288 .0261672
935.924 .0261541
936.560 .0261419
937.196 .0261303
937.831 .0261198
938.466 .0261105
939.100 .0261021
939.734 .0260948
940.368 .0260890
941.001 .0260841
941.634 .0260805
942.266 .0260776
942.899 .0260748
943.530 .0260718
944.162 .0260687
944.793 .0260647
945.423 .0260603
946.053 .0260550
946.683 .0260498
947.313 .0260441
947.942 .0260387
948.571 .0260333
949.199 .0260276
949.827 .0260202
950.455 .0260106
951.082 .0259984
951.709 .0259842
952.335 .0259677
952.961 .0259504
953.587 .0259331
954.212 .0259163
954.837 .0259004
955.462 .0258857
956.086 .0258718
956.710 .0258593
957.334 .0258461
957.957 .0258321
958.579 .0258170
959.202 .0258009
959.824 .0257834
960.445 .0257656
961.067 .0257486
961.688 .0257324
962.308 .0257175
962.928 .0257044
963.548 .0256923
964.168 .0256815
964.787 .0256709
965.406 .0256602
966.024 .0256490
966.642 .0256381
967.260 .0256267
967.877 .0256157
968.494 .0256057
969.110 .0255967
969.727 .0255881
970.342 .0255800
970.958 .0255724
971.573 .0255643
972.188 .0255557
972.802 .0255469
973.416 .0255379
974.030 .0255284
974.643 .0255190
975.256 .0255106
975.869 .0255028
976.481 .0254967
977.093 .0254908
977.705 .0254851
978.316 .0254802
978.927 .0254747
979.538 .0254687
980.148 .0254614
980.758 .0254539
981.367 .0254464
981.977 .0254389
982.586 .0254324
983.194 .0254262
983.802 .0254213
984.410 .0254167
985.018 .0254117
985.625 .0254061
986.232 .0253991
986.838 .0253905
987.445 .0253805
988.050 .0253684
988.656 .0253545
989.261 .0253393
989.866 .0253224
990.471 .0253044
991.075 .0252861
991.679 .0252678
992.282 .0252498
992.886 .0252325
993.489 .0252164
994.091 .0252006
994.694 .0251858
995.296 .0251719
995.897 .0251582
996.499 .0251459
997.100 .0251332
997.701 .0251213
998.301 .0251106
998.901 .0251017
999.501 .0250937
1000.101 .0250870
1000.700 .0250813
1001.299 .0250762
1001.898 .0250711
1002.496 .0250656
1003.094 .0250586
1003.692 .0250513
1004.289 .0250426
1004.887 .0250329
1005.484 .0250213
1006.080 .0250088
1006.677 .0249945
1007.273 .0249804
1007.868 .0249659
1008.464 .0249520
1009.059 .0249396
1009.654 .0249298
1010.249 .0249224
1010.843 .0249172
1011.437 .0249145
1012.031 .0249127
1012.625 .0249109
1013.218 .0249081
1013.811 .0249022
1014.404 .0248946
1014.997 .0248847
1015.589 .0248742
1016.181 .0248625
1016.773 .0248512
1017.365 .0248402
1017.956 .0248286
1018.547 .0248166
1019.138 .0248032
1019.728 .0247873
1020.319 .0247701
1020.909 .0247512
1021.499 .0247301
1022.088 .0247082
1022.678 .0246869
1023.267 .0246673
1023.856 .0246491
1024.445 .0246331
1025.033 .0246191
1025.621 .0246059
1026.209 .0245948
1026.797 .0245836
1027.385 .0245726
1027.972 .0245627
1028.560 .0245528
1029.147 .0245435
1029.734 .0245354
1030.320 .0245284
1030.907 .0245224
1031.493 .0245175
1032.079 .0245135
1032.665 .0245098
1033.250 .0245059
1033.836 .0245024
1034.421 .0244986
1035.006 .0244952
1035.591 .0244920
1036.176 .0244883
1036.761 .0244851
1037.345 .0244812
1037.929 .0244767
1038.514 .0244722
1039.097 .0244662
1039.681 .0244603
1040.265 .0244537
1040.848 .0244461
1041.432 .0244376
1042.015 .0244281
1042.598 .0244176
1043.181 .0244065
1043.764 .0243956
1044.346 .0243852
1044.929 .0243748
1045.511 .0243666
1046.094 .0243592
1046.676 .0243530
1047.258 .0243479
1047.840 .0243429
1048.422 .0243361
1049.003 .0243290
1049.585 .0243196
1050.166 .0243095
1050.748 .0242997
1051.329 .0242915
1051.910 .0242856
1052.491 .0242822
1053.072 .0242810
1053.653 .0242810
1054.234 .0242814
1054.815 .0242814
1055.396 .0242778
1055.976 .0242728
1056.557 .0242639
1057.138 .0242532
1057.718 .0242419
1058.298 .0242317
1058.879 .0242221
1059.459 .0242146
1060.039 .0242073
1060.620 .0241995
1061.200 .0241924
1061.780 .0241848
1062.360 .0241747
1062.940 .0241647
1063.520 .0241544
1064.101 .0241411
1064.681 .0241257
1065.261 .0241114
1065.841 .0240955
1066.421 .0240816
1067.001 .0240690
1067.581 .0240573
1068.161 .0240472
1068.741 .0240403
1069.321 .0240355
1069.901 .0240330
1070.482 .0240351
1071.062 .0240377
1071.642 .0240400
1072.222 .0240453
1072.803 .0240496
1073.383 .0240526
1073.963 .0240548
1074.544 .0240572
1075.124 .0240579
1075.705 .0240579
1076.286 .0240577
1076.866 .0240579
1077.447 .0240588
1078.028 .0240614
1078.609 .0240628
1079.190 .0240641
1079.771 .0240651
1080.352 .0240638
1080.934 .0240588
1081.515 .0240510
1082.097 .0240385
1082.679 .0240210
1083.260 .0239986
1083.842 .0239758
1084.424 .0239511
1085.007 .0239255
1085.589 .0239024
1086.172 .0238799
1086.754 .0238584
1087.337 .0238389
1087.920 .0238203
1088.503 .0238036
1089.087 .0237904
1089.670 .0237801
1090.254 .0237721
1090.838 .0237698
1091.422 .0237752
1092.006 .0237855
1092.590 .0238018
1093.175 .0238226
1093.760 .0238445
1094.345 .0238669
1094.930 .0238896
1095.516 .0239091
1096.102 .0239278
1096.688 .0239438
1097.274 .0239567
1097.860 .0239660
1098.447 .0239713
1099.034 .0239700
1099.622 .0239624
1100.209 .0239478
1100.797 .0239245
1101.385 .0238914
1101.973 .0238522
1102.562 .0238113
1103.151 .0237724
1103.740 .0237377
1104.330 .0237092
1104.920 .0236862
1105.510 .0236668
1106.101 .0236472
1106.691 .0236278
1107.283 .0236082
1107.874 .0235864
1108.466 .0235655
1109.058 .0235499
1109.651 .0235399
1110.244 .0235397
1110.837 .0235475
1111.431 .0235622
1112.025 .0235838
1112.620 .0236077
1113.215 .0236303
1113.810 .0236501
1114.406 .0236714
1115.002 .0236910
1115.599 .0237120
1116.196 .0237380
1116.793 .0237653
1117.391 .0237933
1117.989 .0238232
1118.588 .0238517
1119.187 .0238755
1119.787 .0238969
1120.387 .0239145
1120.988 .0239306
1121.589 .0239503
1122.190 .0239677
1122.793 .0239894
1123.395 .0240186
1123.998 .0240606
1124.602 .0241066
1125.206 .0241625
1125.811 .0242285
1126.416 .0243006
1127.022 .0243746
1127.628 .0244513
1128.235 .0245286
1128.843 .0246059
1129.451 .0246787
1130.059 .0247494
1130.669 .0248163
1131.278 .0248855
1131.889 .0249535
1132.500 .0250260
1133.112 .0250974
1133.724 .0251705
1134.337 .0252365
1134.950 .0252973
1135.564 .0253506
1136.179 .0253958
1136.795 .0254287
1137.411 .0254578
1138.028 .0254823
1138.645 .0255049
1139.263 .0255264
1139.882 .0255495
1140.502 .0255657
1141.122 .0255743
1141.743 .0255596
1142.365 .0255237
1142.987 .0256146
1143.611 .0254790
1144.235 .0254113
1144.859 .0250488
1145.485 .0249277
