Measurement Sequence started on: 10-20-44-796
Integration time: 35
Scans to Average: 2 
>>>>>Begin Spectral Data<<<<<
432.953 .0384443
433.882 .0392500
434.810 .0342968
435.737 .0348267
436.662 .0340715
437.586 .0342014
438.509 .0336777
439.431 .0332015
440.351 .0328992
441.269 .0325872
442.187 .0323184
443.103 .0320998
444.018 .0319140
444.932 .0317735
445.844 .0316781
446.756 .0316135
447.666 .0315666
448.575 .0315216
449.482 .0314826
450.388 .0314400
451.294 .0314130
452.198 .0313987
453.100 .0313875
454.002 .0313978
454.902 .0314214
455.801 .0314478
456.699 .0314785
457.596 .0315137
458.492 .0315479
459.387 .0315700
460.280 .0315805
461.172 .0315783
462.064 .0315595
462.954 .0315323
463.843 .0314955
464.730 .0314518
465.617 .0314080
466.503 .0313629
467.387 .0313173
468.271 .0312764
469.153 .0312392
470.035 .0312043
470.915 .0311730
471.794 .0311467
472.673 .0311189
473.550 .0310905
474.426 .0310714
475.301 .0310599
476.175 .0310544
477.048 .0310551
477.920 .0310574
478.791 .0310623
479.661 .0310655
480.530 .0310679
481.398 .0310642
482.266 .0310593
483.132 .0310535
483.997 .0310445
484.861 .0310359
485.724 .0310304
486.587 .0310244
487.448 .0310205
488.308 .0310164
489.168 .0310079
490.026 .0309951
490.884 .0309817
491.741 .0309663
492.597 .0309505
493.452 .0309351
494.306 .0309214
495.159 .0309071
496.011 .0308962
496.862 .0308829
497.713 .0308654
498.562 .0308431
499.411 .0308130
500.259 .0307736
501.106 .0307265
501.952 .0306715
502.798 .0306113
503.642 .0305490
504.486 .0304841
505.329 .0304164
506.171 .0303467
507.012 .0302758
507.852 .0301990
508.692 .0301169
509.531 .0300279
510.369 .0299310
511.206 .0298274
512.043 .0297197
512.878 .0296052
513.713 .0294866
514.547 .0293619
515.381 .0292358
516.213 .0291033
517.045 .0289667
517.876 .0288204
518.706 .0286667
519.536 .0285047
520.365 .0283369
521.193 .0281578
522.020 .0279794
522.847 .0278000
523.673 .0276202
524.498 .0274377
525.323 .0272606
526.146 .0270825
526.969 .0269091
527.792 .0267344
528.614 .0265591
529.435 .0263830
530.255 .0262125
531.075 .0260402
531.894 .0258732
532.712 .0257129
533.530 .0255528
534.347 .0253950
535.163 .0252442
535.979 .0251016
536.794 .0249729
537.608 .0248638
538.422 .0247793
539.235 .0247184
540.048 .0246863
540.860 .0246796
541.671 .0246987
542.481 .0247447
543.292 .0248032
544.101 .0248751
544.910 .0249535
545.718 .0250378
546.526 .0251212
547.333 .0252073
548.139 .0252953
548.945 .0253777
549.750 .0254539
550.555 .0255265
551.359 .0255952
552.162 .0256608
552.965 .0257221
553.768 .0257800
554.569 .0258342
555.371 .0258848
556.171 .0259282
556.972 .0259713
557.771 .0260110
558.570 .0260499
559.369 .0260855
560.167 .0261239
560.964 .0261679
561.761 .0262178
562.558 .0262823
563.354 .0263597
564.149 .0264456
564.944 .0265389
565.738 .0266352
566.532 .0267355
567.325 .0268341
568.118 .0269272
568.910 .0270154
569.702 .0271029
570.494 .0271899
571.285 .0272768
572.075 .0273680
572.865 .0274667
573.654 .0275681
574.443 .0276708
575.232 .0277737
576.020 .0278728
576.807 .0279684
577.594 .0280556
578.381 .0281329
579.167 .0282016
579.952 .0282619
580.738 .0283169
581.522 .0283676
582.307 .0284160
583.091 .0284624
583.874 .0285077
584.657 .0285529
585.440 .0285977
586.222 .0286414
587.004 .0286837
587.785 .0287230
588.566 .0287589
589.346 .0287906
590.126 .0288165
590.906 .0288383
591.685 .0288570
592.464 .0288721
593.242 .0288856
594.020 .0288975
594.797 .0289099
595.575 .0289225
596.351 .0289355
597.128 .0289474
597.904 .0289569
598.679 .0289640
599.454 .0289658
600.229 .0289630
601.004 .0289569
601.778 .0289466
602.551 .0289332
603.325 .0289185
604.097 .0289040
604.870 .0288890
605.642 .0288756
606.414 .0288637
607.185 .0288525
607.956 .0288418
608.727 .0288304
609.497 .0288182
610.267 .0288052
611.037 .0287915
611.806 .0287765
612.575 .0287614
613.344 .0287469
614.112 .0287330
614.880 .0287208
615.647 .0287110
616.414 .0287038
617.181 .0286983
617.948 .0286943
618.714 .0286910
619.480 .0286874
620.245 .0286825
621.011 .0286758
621.775 .0286676
622.540 .0286574
623.304 .0286463
624.068 .0286352
624.832 .0286246
625.595 .0286155
626.358 .0286081
627.120 .0286021
627.883 .0285964
628.645 .0285908
629.406 .0285837
630.168 .0285750
630.929 .0285651
631.689 .0285528
632.450 .0285385
633.210 .0285235
633.970 .0285084
634.729 .0284939
635.489 .0284796
636.248 .0284659
637.006 .0284519
637.765 .0284370
638.523 .0284208
639.280 .0284030
640.038 .0283837
640.795 .0283641
641.552 .0283440
642.309 .0283240
643.065 .0283050
643.821 .0282875
644.577 .0282713
645.332 .0282561
646.088 .0282416
646.843 .0282265
647.597 .0282104
648.352 .0281935
649.106 .0281751
649.860 .0281552
650.613 .0281344
651.367 .0281132
652.120 .0280924
652.872 .0280719
653.625 .0280516
654.377 .0280315
655.129 .0280117
655.881 .0279918
656.632 .0279711
657.384 .0279499
658.135 .0279287
658.885 .0279072
659.636 .0278857
660.386 .0278648
661.136 .0278450
661.885 .0278268
662.635 .0278103
663.384 .0277957
664.133 .0277826
664.881 .0277707
665.630 .0277598
666.378 .0277491
667.126 .0277383
667.874 .0277273
668.621 .0277148
669.368 .0277018
670.115 .0276880
670.862 .0276741
671.608 .0276604
672.354 .0276473
673.100 .0276342
673.846 .0276214
674.591 .0276086
675.337 .0275956
676.082 .0275825
676.826 .0275692
677.571 .0275554
678.315 .0275417
679.059 .0275278
679.803 .0275146
680.547 .0275016
681.290 .0274891
682.033 .0274759
682.776 .0274627
683.518 .0274487
684.261 .0274339
685.003 .0274191
685.745 .0274049
686.487 .0273912
687.228 .0273786
687.969 .0273667
688.710 .0273554
689.451 .0273443
690.192 .0273323
690.932 .0273190
691.672 .0273043
692.412 .0272885
693.152 .0272721
693.891 .0272559
694.630 .0272411
695.369 .0272281
696.108 .0272170
696.846 .0272076
697.585 .0271988
698.323 .0271906
699.061 .0271818
699.798 .0271721
700.536 .0271615
701.273 .0271501
702.010 .0271383
702.746 .0271270
703.483 .0271164
704.219 .0271072
704.955 .0270991
705.691 .0270915
706.427 .0270840
707.162 .0270758
707.897 .0270666
708.632 .0270560
709.367 .0270440
710.101 .0270315
710.835 .0270180
711.569 .0270043
712.303 .0269903
713.037 .0269768
713.770 .0269638
714.503 .0269508
715.236 .0269379
715.969 .0269247
716.702 .0269108
717.434 .0268963
718.166 .0268811
718.898 .0268658
719.629 .0268505
720.361 .0268354
721.092 .0268204
721.823 .0268057
722.554 .0267909
723.284 .0267760
724.014 .0267605
724.744 .0267443
725.474 .0267262
726.204 .0267066
726.933 .0266860
727.662 .0266641
728.391 .0266421
729.120 .0266205
729.849 .0265992
730.577 .0265790
731.305 .0265594
732.033 .0265407
732.760 .0265223
733.488 .0265046
734.215 .0264867
734.942 .0264690
735.669 .0264509
736.395 .0264330
737.122 .0264158
737.848 .0264001
738.573 .0263856
739.299 .0263723
740.024 .0263605
740.750 .0263495
741.474 .0263387
742.199 .0263282
742.924 .0263169
743.648 .0263053
744.372 .0262924
745.096 .0262791
745.819 .0262653
746.543 .0262519
747.266 .0262391
747.989 .0262270
748.711 .0262161
749.434 .0262059
750.156 .0261958
750.878 .0261864
751.599 .0261772
752.321 .0261677
753.042 .0261583
753.763 .0261493
754.484 .0261404
755.205 .0261322
755.925 .0261245
756.645 .0261169
757.365 .0261092
758.085 .0261011
758.804 .0260916
759.523 .0260804
760.242 .0260680
760.961 .0260536
761.679 .0260375
762.397 .0260203
763.115 .0260016
763.833 .0259818
764.551 .0259608
765.268 .0259382
765.985 .0259139
766.702 .0258887
767.418 .0258625
768.134 .0258355
768.850 .0258087
769.566 .0257827
770.282 .0257577
770.997 .0257342
771.712 .0257119
772.427 .0256907
773.142 .0256707
773.856 .0256516
774.570 .0256329
775.284 .0256144
775.998 .0255962
776.711 .0255786
777.424 .0255614
778.137 .0255449
778.849 .0255287
779.562 .0255131
780.274 .0254980
780.986 .0254830
781.697 .0254678
782.409 .0254524
783.120 .0254372
783.831 .0254222
784.541 .0254073
785.252 .0253926
785.962 .0253783
786.671 .0253644
787.381 .0253507
788.090 .0253369
788.799 .0253233
789.508 .0253098
790.217 .0252959
790.925 .0252818
791.633 .0252674
792.341 .0252528
793.048 .0252382
793.755 .0252233
794.462 .0252082
795.169 .0251927
795.875 .0251775
796.581 .0251622
797.287 .0251475
797.993 .0251330
798.698 .0251193
799.403 .0251060
800.108 .0250934
800.812 .0250815
801.517 .0250705
802.221 .0250606
802.924 .0250518
803.628 .0250439
804.331 .0250369
805.034 .0250304
805.736 .0250246
806.439 .0250186
807.141 .0250126
807.843 .0250060
808.544 .0249985
809.245 .0249900
809.946 .0249806
810.647 .0249705
811.347 .0249601
812.047 .0249495
812.747 .0249390
813.447 .0249283
814.146 .0249177
814.845 .0249066
815.543 .0248954
816.242 .0248843
816.940 .0248724
817.638 .0248598
818.335 .0248473
819.032 .0248345
819.729 .0248221
820.426 .0248103
821.122 .0247994
821.818 .0247887
822.514 .0247785
823.209 .0247685
823.905 .0247588
824.599 .0247490
825.294 .0247390
825.988 .0247283
826.682 .0247176
827.376 .0247065
828.069 .0246953
828.762 .0246844
829.455 .0246743
830.147 .0246643
830.840 .0246550
831.531 .0246461
832.223 .0246380
832.914 .0246304
833.605 .0246235
834.296 .0246169
834.986 .0246108
835.676 .0246046
836.366 .0245984
837.055 .0245924
837.744 .0245863
838.433 .0245799
839.121 .0245734
839.809 .0245669
840.497 .0245607
841.185 .0245551
841.872 .0245501
842.559 .0245462
843.245 .0245433
843.932 .0245409
844.617 .0245388
845.303 .0245368
845.988 .0245344
846.673 .0245316
847.358 .0245285
848.042 .0245249
848.726 .0245206
849.410 .0245159
850.093 .0245109
850.776 .0245055
851.459 .0244999
852.141 .0244932
852.823 .0244859
853.505 .0244786
854.186 .0244706
854.867 .0244621
855.548 .0244540
856.228 .0244461
856.908 .0244388
857.588 .0244318
858.267 .0244251
858.946 .0244185
859.625 .0244124
860.303 .0244064
860.981 .0244007
861.659 .0243957
862.336 .0243912
863.013 .0243870
863.690 .0243837
864.366 .0243804
865.042 .0243769
865.718 .0243730
866.393 .0243686
867.068 .0243632
867.743 .0243568
868.417 .0243496
869.091 .0243418
869.765 .0243339
870.438 .0243261
871.111 .0243185
871.783 .0243114
872.456 .0243049
873.127 .0242986
873.799 .0242924
874.470 .0242862
875.141 .0242799
875.811 .0242735
876.481 .0242671
877.151 .0242610
877.820 .0242555
878.489 .0242506
879.158 .0242464
879.826 .0242427
880.494 .0242399
881.162 .0242371
881.829 .0242343
882.496 .0242308
883.163 .0242266
883.829 .0242213
884.495 .0242150
885.160 .0242076
885.825 .0241994
886.490 .0241906
887.154 .0241816
887.818 .0241725
888.482 .0241637
889.145 .0241550
889.808 .0241472
890.471 .0241397
891.133 .0241324
891.795 .0241252
892.456 .0241178
893.117 .0241104
893.778 .0241027
894.439 .0240950
895.099 .0240872
895.758 .0240799
896.417 .0240728
897.076 .0240659
897.735 .0240591
898.393 .0240520
899.051 .0240445
899.708 .0240361
900.365 .0240265
901.022 .0240156
901.678 .0240040
902.334 .0239916
902.990 .0239788
903.645 .0239667
904.300 .0239552
904.954 .0239450
905.608 .0239360
906.262 .0239285
906.915 .0239224
907.568 .0239178
908.221 .0239144
908.873 .0239120
909.525 .0239101
910.176 .0239084
910.828 .0239062
911.478 .0239035
912.129 .0238998
912.778 .0238954
913.428 .0238902
914.077 .0238846
914.726 .0238784
915.375 .0238714
916.023 .0238639
916.670 .0238558
917.318 .0238466
917.964 .0238357
918.611 .0238231
919.257 .0238087
919.903 .0237932
920.548 .0237768
921.193 .0237606
921.838 .0237455
922.482 .0237318
923.126 .0237190
923.770 .0237067
924.413 .0236949
925.056 .0236829
925.698 .0236706
926.340 .0236580
926.982 .0236449
927.623 .0236319
928.264 .0236192
928.904 .0236073
929.544 .0235960
930.184 .0235855
930.823 .0235749
931.462 .0235634
932.101 .0235506
932.739 .0235356
933.377 .0235190
934.014 .0235010
934.651 .0234824
935.288 .0234633
935.924 .0234447
936.560 .0234265
937.196 .0234090
937.831 .0233918
938.466 .0233741
939.100 .0233555
939.734 .0233355
940.368 .0233141
941.001 .0232922
941.634 .0232701
942.266 .0232489
942.899 .0232289
943.530 .0232102
944.162 .0231924
944.793 .0231750
945.423 .0231570
946.053 .0231378
946.683 .0231169
947.313 .0230944
947.942 .0230704
948.571 .0230456
949.199 .0230207
949.827 .0229964
950.455 .0229727
951.082 .0229501
951.709 .0229283
952.335 .0229071
952.961 .0228861
953.587 .0228650
954.212 .0228432
954.837 .0228211
955.462 .0227991
956.086 .0227774
956.710 .0227564
957.334 .0227363
957.957 .0227172
958.579 .0226992
959.202 .0226822
959.824 .0226652
960.445 .0226486
961.067 .0226329
961.688 .0226177
962.308 .0226026
962.928 .0225883
963.548 .0225750
964.168 .0225626
964.787 .0225510
965.406 .0225402
966.024 .0225299
966.642 .0225204
967.260 .0225112
967.877 .0225021
968.494 .0224930
969.110 .0224842
969.727 .0224745
970.342 .0224649
970.958 .0224547
971.573 .0224437
972.188 .0224323
972.802 .0224208
973.416 .0224087
974.030 .0223962
974.643 .0223835
975.256 .0223711
975.869 .0223585
976.481 .0223459
977.093 .0223333
977.705 .0223211
978.316 .0223094
978.927 .0222983
979.538 .0222879
980.148 .0222783
980.758 .0222692
981.367 .0222606
981.977 .0222523
982.586 .0222437
983.194 .0222351
983.802 .0222262
984.410 .0222167
985.018 .0222069
985.625 .0221973
986.232 .0221877
986.838 .0221792
987.445 .0221714
988.050 .0221645
988.656 .0221584
989.261 .0221528
989.866 .0221469
990.471 .0221413
991.075 .0221364
991.679 .0221320
992.282 .0221276
992.886 .0221245
993.489 .0221220
994.091 .0221205
994.694 .0221200
995.296 .0221198
995.897 .0221194
996.499 .0221190
997.100 .0221181
997.701 .0221171
998.301 .0221165
998.901 .0221169
999.501 .0221182
1000.101 .0221209
1000.700 .0221242
1001.299 .0221271
1001.898 .0221301
1002.496 .0221327
1003.094 .0221337
1003.692 .0221330
1004.289 .0221304
1004.887 .0221265
1005.484 .0221221
1006.080 .0221176
1006.677 .0221137
1007.273 .0221104
1007.868 .0221078
1008.464 .0221045
1009.059 .0221002
1009.654 .0220949
1010.249 .0220882
1010.843 .0220805
1011.437 .0220729
1012.031 .0220654
1012.625 .0220596
1013.218 .0220557
1013.811 .0220549
1014.404 .0220569
1014.997 .0220607
1015.589 .0220656
1016.181 .0220715
1016.773 .0220773
1017.365 .0220832
1017.956 .0220887
1018.547 .0220946
1019.138 .0221006
1019.728 .0221075
1020.319 .0221155
1020.909 .0221245
1021.499 .0221339
1022.088 .0221438
1022.678 .0221521
1023.267 .0221601
1023.856 .0221660
1024.445 .0221702
1025.033 .0221734
1025.621 .0221762
1026.209 .0221783
1026.797 .0221800
1027.385 .0221815
1027.972 .0221833
1028.560 .0221839
1029.147 .0221839
1029.734 .0221828
1030.320 .0221810
1030.907 .0221787
1031.493 .0221761
1032.079 .0221738
1032.665 .0221735
1033.250 .0221741
1033.836 .0221766
1034.421 .0221805
1035.006 .0221859
1035.591 .0221919
1036.176 .0221978
1036.761 .0222044
1037.345 .0222110
1037.929 .0222169
1038.514 .0222235
1039.097 .0222310
1039.681 .0222401
1040.265 .0222494
1040.848 .0222597
1041.432 .0222709
1042.015 .0222816
1042.598 .0222911
1043.181 .0222987
1043.764 .0223055
1044.346 .0223113
1044.929 .0223154
1045.511 .0223187
1046.094 .0223220
1046.676 .0223257
1047.258 .0223290
1047.840 .0223327
1048.422 .0223374
1049.003 .0223422
1049.585 .0223473
1050.166 .0223517
1050.748 .0223566
1051.329 .0223612
1051.910 .0223659
1052.491 .0223713
1053.072 .0223786
1053.653 .0223869
1054.234 .0223971
1054.815 .0224095
1055.396 .0224242
1055.976 .0224396
1056.557 .0224547
1057.138 .0224698
1057.718 .0224842
1058.298 .0224960
1058.879 .0225055
1059.459 .0225115
1060.039 .0225161
1060.620 .0225173
1061.200 .0225163
1061.780 .0225138
1062.360 .0225104
1062.940 .0225068
1063.520 .0225026
1064.101 .0224988
1064.681 .0224970
1065.261 .0224950
1065.841 .0224942
1066.421 .0224936
1067.001 .0224937
1067.581 .0224936
1068.161 .0224941
1068.741 .0224953
1069.321 .0224982
1069.901 .0225017
1070.482 .0225067
1071.062 .0225117
1071.642 .0225174
1072.222 .0225221
1072.803 .0225246
1073.383 .0225247
1073.963 .0225213
1074.544 .0225138
1075.124 .0225044
1075.705 .0224927
1076.286 .0224824
1076.866 .0224748
1077.447 .0224707
1078.028 .0224712
1078.609 .0224748
1079.190 .0224813
1079.771 .0224893
1080.352 .0224965
1080.934 .0225028
1081.515 .0225068
1082.097 .0225104
1082.679 .0225133
1083.260 .0225169
1083.842 .0225219
1084.424 .0225268
1085.007 .0225328
1085.589 .0225388
1086.172 .0225420
1086.754 .0225421
1087.337 .0225398
1087.920 .0225348
1088.503 .0225294
1089.087 .0225244
1089.670 .0225208
1090.254 .0225211
1090.838 .0225257
1091.422 .0225332
1092.006 .0225415
1092.590 .0225527
1093.175 .0225628
1093.760 .0225721
1094.345 .0225820
1094.930 .0225898
1095.516 .0225956
1096.102 .0226011
1096.688 .0226050
1097.274 .0226056
1097.860 .0226036
1098.447 .0225994
1099.034 .0225930
1099.622 .0225867
1100.209 .0225794
1100.797 .0225740
1101.385 .0225720
1101.973 .0225746
1102.562 .0225785
1103.151 .0225850
1103.740 .0225930
1104.330 .0226004
1104.920 .0226090
1105.510 .0226179
1106.101 .0226293
1106.691 .0226422
1107.283 .0226565
1107.874 .0226720
1108.466 .0226878
1109.058 .0227018
1109.651 .0227130
1110.244 .0227228
1110.837 .0227285
1111.431 .0227309
1112.025 .0227296
1112.620 .0227248
1113.215 .0227211
1113.810 .0227165
1114.406 .0227125
1115.002 .0227053
1115.599 .0226989
1116.196 .0226878
1116.793 .0226725
1117.391 .0226540
1117.989 .0226307
1118.588 .0226050
1119.187 .0225783
1119.787 .0225504
1120.387 .0225244
1120.988 .0224994
1121.589 .0224782
1122.190 .0224596
1122.793 .0224462
1123.395 .0224341
1123.998 .0224261
1124.602 .0224246
1125.206 .0224302
1125.811 .0224408
1126.416 .0224582
1127.022 .0224833
1127.628 .0225136
1128.235 .0225502
1128.843 .0225913
1129.451 .0226382
1130.059 .0226896
1130.669 .0227414
1131.278 .0227935
1131.889 .0228428
1132.500 .0228869
1133.112 .0229242
1133.724 .0229554
1134.337 .0229834
1134.950 .0230030
1135.564 .0230190
1136.179 .0230316
1136.795 .0230455
1137.411 .0230602
1138.028 .0230773
1138.645 .0230965
1139.263 .0231208
1139.882 .0231498
1140.502 .0231881
1141.122 .0232280
1141.743 .0232816
1142.365 .0233657
1142.987 .0233503
1143.611 .0235526
1144.235 .0234528
1144.859 .0237062
1145.485 .0244182
