Measurement Sequence started on: 10-20-44-796
Integration time: 35
Scans to Average: 2 
>>>>>Begin Spectral Data<<<<<
432.953 .0527995
433.882 .0385151
434.810 .0349653
435.737 .0325504
436.662 .0322270
437.586 .0336205
438.509 .0325703
439.431 .0321534
440.351 .0319094
441.269 .0317623
442.187 .0316335
443.103 .0315192
444.018 .0314538
444.932 .0314105
445.844 .0313847
446.756 .0313830
447.666 .0313831
448.575 .0313778
449.482 .0313845
450.388 .0313998
451.294 .0314238
452.198 .0314686
453.100 .0315236
454.002 .0316065
454.902 .0317026
455.801 .0318160
456.699 .0319308
457.596 .0320487
458.492 .0321558
459.387 .0322466
460.280 .0323175
461.172 .0323620
462.064 .0323850
462.954 .0323873
463.843 .0323742
464.730 .0323510
465.617 .0323194
466.503 .0322860
467.387 .0322470
468.271 .0322091
469.153 .0321636
470.035 .0321132
470.915 .0320610
471.794 .0320039
472.673 .0319443
473.550 .0318885
474.426 .0318413
475.301 .0318048
476.175 .0317831
477.048 .0317748
477.920 .0317783
478.791 .0317912
479.661 .0318082
480.530 .0318268
481.398 .0318425
482.266 .0318559
483.132 .0318642
483.997 .0318665
484.861 .0318635
485.724 .0318542
486.587 .0318418
487.448 .0318249
488.308 .0318025
489.168 .0317772
490.026 .0317492
490.884 .0317171
491.741 .0316816
492.597 .0316433
493.452 .0316018
494.306 .0315570
495.159 .0315080
496.011 .0314532
496.862 .0313951
497.713 .0313330
498.562 .0312677
499.411 .0312011
500.259 .0311370
501.106 .0310733
501.952 .0310128
502.798 .0309580
503.642 .0309046
504.486 .0308478
505.329 .0307894
506.171 .0307264
507.012 .0306572
507.852 .0305825
508.692 .0305032
509.531 .0304209
510.369 .0303396
511.206 .0302578
512.043 .0301761
512.878 .0300959
513.713 .0300156
514.547 .0299256
515.381 .0298267
516.213 .0297184
517.045 .0295951
517.876 .0294545
518.706 .0293041
519.536 .0291475
520.365 .0289846
521.193 .0288193
522.020 .0286564
522.847 .0284957
523.673 .0283380
524.498 .0281790
525.323 .0280154
526.146 .0278489
526.969 .0276774
527.792 .0274969
528.614 .0273074
529.435 .0271212
530.255 .0269328
531.075 .0267424
531.894 .0265612
532.712 .0263893
533.530 .0262266
534.347 .0260749
535.163 .0259348
535.979 .0258092
536.794 .0256992
537.608 .0256032
538.422 .0255239
539.235 .0254666
540.048 .0254242
540.860 .0253936
541.671 .0253800
542.481 .0253794
543.292 .0253843
544.101 .0253959
544.910 .0254186
545.718 .0254461
546.526 .0254835
547.333 .0255289
548.139 .0255836
548.945 .0256476
549.750 .0257128
550.555 .0257742
551.359 .0258353
552.162 .0258957
552.965 .0259465
553.768 .0259921
554.569 .0260398
555.371 .0260862
556.171 .0261343
556.972 .0261883
557.771 .0262487
558.570 .0263120
559.369 .0263777
560.167 .0264450
560.964 .0265117
561.761 .0265788
562.558 .0266429
563.354 .0267096
564.149 .0267777
564.944 .0268470
565.738 .0269162
566.532 .0269893
567.325 .0270651
568.118 .0271397
568.910 .0272140
569.702 .0272907
570.494 .0273729
571.285 .0274563
572.075 .0275424
572.865 .0276336
573.654 .0277244
574.443 .0278146
575.232 .0279010
576.020 .0279849
576.807 .0280663
577.594 .0281445
578.381 .0282202
579.167 .0282940
579.952 .0283683
580.738 .0284404
581.522 .0285106
582.307 .0285776
583.091 .0286412
583.874 .0286978
584.657 .0287483
585.440 .0287924
586.222 .0288305
587.004 .0288635
587.785 .0288917
588.566 .0289175
589.346 .0289420
590.126 .0289652
590.906 .0289872
591.685 .0290089
592.464 .0290290
593.242 .0290459
594.020 .0290603
594.797 .0290715
595.575 .0290811
596.351 .0290896
597.128 .0290977
597.904 .0291061
598.679 .0291163
599.454 .0291267
600.229 .0291379
601.004 .0291495
601.778 .0291599
602.551 .0291675
603.325 .0291720
604.097 .0291742
604.870 .0291730
605.642 .0291698
606.414 .0291639
607.185 .0291559
607.956 .0291477
608.727 .0291378
609.497 .0291271
610.267 .0291161
611.037 .0291041
611.806 .0290904
612.575 .0290748
613.344 .0290571
614.112 .0290373
614.880 .0290159
615.647 .0289936
616.414 .0289712
617.181 .0289498
617.948 .0289289
618.714 .0289096
619.480 .0288931
620.245 .0288783
621.011 .0288642
621.775 .0288502
622.540 .0288358
623.304 .0288208
624.068 .0288053
624.832 .0287891
625.595 .0287733
626.358 .0287587
627.120 .0287447
627.883 .0287309
628.645 .0287173
629.406 .0287035
630.168 .0286883
630.929 .0286721
631.689 .0286540
632.450 .0286340
633.210 .0286134
633.970 .0285918
634.729 .0285707
635.489 .0285496
636.248 .0285286
637.006 .0285081
637.765 .0284885
638.523 .0284695
639.280 .0284497
640.038 .0284307
640.795 .0284131
641.552 .0283958
642.309 .0283795
643.065 .0283638
643.821 .0283491
644.577 .0283350
645.332 .0283210
646.088 .0283059
646.843 .0282910
647.597 .0282755
648.352 .0282596
649.106 .0282432
649.860 .0282271
650.613 .0282111
651.367 .0281953
652.120 .0281801
652.872 .0281651
653.625 .0281497
654.377 .0281349
655.129 .0281195
655.881 .0281045
656.632 .0280894
657.384 .0280747
658.135 .0280605
658.885 .0280469
659.636 .0280335
660.386 .0280199
661.136 .0280061
661.885 .0279921
662.635 .0279772
663.384 .0279623
664.133 .0279469
664.881 .0279315
665.630 .0279163
666.378 .0279014
667.126 .0278871
667.874 .0278736
668.621 .0278609
669.368 .0278489
670.115 .0278381
670.862 .0278277
671.608 .0278186
672.354 .0278103
673.100 .0278029
673.846 .0277965
674.591 .0277904
675.337 .0277842
676.082 .0277776
676.826 .0277706
677.571 .0277628
678.315 .0277543
679.059 .0277449
679.803 .0277342
680.547 .0277228
681.290 .0277106
682.033 .0276969
682.776 .0276817
683.518 .0276658
684.261 .0276492
685.003 .0276324
685.745 .0276159
686.487 .0275999
687.228 .0275853
687.969 .0275721
688.710 .0275593
689.451 .0275473
690.192 .0275359
690.932 .0275251
691.672 .0275137
692.412 .0275027
693.152 .0274916
693.891 .0274804
694.630 .0274697
695.369 .0274591
696.108 .0274480
696.846 .0274362
697.585 .0274234
698.323 .0274096
699.061 .0273951
699.798 .0273797
700.536 .0273636
701.273 .0273477
702.010 .0273317
702.746 .0273156
703.483 .0272994
704.219 .0272840
704.955 .0272688
705.691 .0272538
706.427 .0272385
707.162 .0272229
707.897 .0272074
708.632 .0271919
709.367 .0271765
710.101 .0271610
710.835 .0271448
711.569 .0271283
712.303 .0271108
713.037 .0270927
713.770 .0270740
714.503 .0270550
715.236 .0270355
715.969 .0270166
716.702 .0269979
717.434 .0269802
718.166 .0269641
718.898 .0269495
719.629 .0269360
720.361 .0269239
721.092 .0269121
721.823 .0268998
722.554 .0268869
723.284 .0268736
724.014 .0268580
724.744 .0268416
725.474 .0268241
726.204 .0268058
726.933 .0267876
727.662 .0267696
728.391 .0267512
729.120 .0267330
729.849 .0267147
730.577 .0266951
731.305 .0266742
732.033 .0266530
732.760 .0266306
733.488 .0266082
734.215 .0265865
734.942 .0265652
735.669 .0265447
736.395 .0265258
737.122 .0265071
737.848 .0264883
738.573 .0264695
739.299 .0264497
740.024 .0264290
740.750 .0264076
741.474 .0263855
742.199 .0263631
742.924 .0263411
743.648 .0263195
744.372 .0262977
745.096 .0262767
745.819 .0262557
746.543 .0262349
747.266 .0262151
747.989 .0261963
748.711 .0261790
749.434 .0261636
750.156 .0261507
750.878 .0261400
751.599 .0261321
752.321 .0261264
753.042 .0261225
753.763 .0261202
754.484 .0261187
755.205 .0261174
755.925 .0261166
756.645 .0261160
757.365 .0261152
758.085 .0261145
758.804 .0261134
759.523 .0261111
760.242 .0261075
760.961 .0261017
761.679 .0260938
762.397 .0260830
763.115 .0260695
763.833 .0260530
764.551 .0260344
765.268 .0260138
765.985 .0259917
766.702 .0259684
767.418 .0259445
768.134 .0259197
768.850 .0258945
769.566 .0258691
770.282 .0258438
770.997 .0258193
771.712 .0257964
772.427 .0257749
773.142 .0257556
773.856 .0257383
774.570 .0257234
775.284 .0257099
775.998 .0256979
776.711 .0256869
777.424 .0256764
778.137 .0256664
778.849 .0256565
779.562 .0256468
780.274 .0256377
780.986 .0256287
781.697 .0256198
782.409 .0256108
783.120 .0256021
783.831 .0255929
784.541 .0255837
785.252 .0255746
785.962 .0255655
786.671 .0255564
787.381 .0255473
788.090 .0255380
788.799 .0255290
789.508 .0255199
790.217 .0255103
790.925 .0255010
791.633 .0254919
792.341 .0254827
793.048 .0254740
793.755 .0254654
794.462 .0254566
795.169 .0254472
795.875 .0254374
796.581 .0254266
797.287 .0254151
797.993 .0254032
798.698 .0253910
799.403 .0253787
800.108 .0253666
800.812 .0253544
801.517 .0253420
802.221 .0253303
802.924 .0253188
803.628 .0253078
804.331 .0252980
805.034 .0252896
805.736 .0252827
806.439 .0252770
807.141 .0252726
807.843 .0252690
808.544 .0252656
809.245 .0252620
809.946 .0252575
810.647 .0252521
811.347 .0252462
812.047 .0252399
812.747 .0252338
813.447 .0252280
814.146 .0252222
814.845 .0252166
815.543 .0252107
816.242 .0252040
816.940 .0251960
817.638 .0251865
818.335 .0251758
819.032 .0251636
819.729 .0251501
820.426 .0251355
821.122 .0251201
821.818 .0251043
822.514 .0250880
823.209 .0250717
823.905 .0250554
824.599 .0250389
825.294 .0250228
825.988 .0250067
826.682 .0249906
827.376 .0249743
828.069 .0249580
828.762 .0249413
829.455 .0249243
830.147 .0249070
830.840 .0248901
831.531 .0248743
832.223 .0248599
832.914 .0248468
833.605 .0248351
834.296 .0248247
834.986 .0248152
835.676 .0248056
836.366 .0247953
837.055 .0247838
837.744 .0247710
838.433 .0247563
839.121 .0247403
839.809 .0247235
840.497 .0247065
841.185 .0246901
841.872 .0246746
842.559 .0246604
843.245 .0246470
843.932 .0246344
844.617 .0246218
845.303 .0246092
845.988 .0245961
846.673 .0245822
847.358 .0245679
848.042 .0245541
848.726 .0245407
849.410 .0245281
850.093 .0245167
850.776 .0245067
851.459 .0244977
852.141 .0244892
852.823 .0244809
853.505 .0244727
854.186 .0244639
854.867 .0244548
855.548 .0244453
856.228 .0244362
856.908 .0244274
857.588 .0244188
858.267 .0244108
858.946 .0244030
859.625 .0243953
860.303 .0243874
860.981 .0243797
861.659 .0243720
862.336 .0243634
863.013 .0243540
863.690 .0243438
864.366 .0243325
865.042 .0243200
865.718 .0243067
866.393 .0242923
867.068 .0242775
867.743 .0242625
868.417 .0242477
869.091 .0242339
869.765 .0242210
870.438 .0242087
871.111 .0241967
871.783 .0241846
872.456 .0241721
873.127 .0241587
873.799 .0241450
874.470 .0241310
875.141 .0241172
875.811 .0241039
876.481 .0240913
877.151 .0240799
877.820 .0240698
878.489 .0240606
879.158 .0240519
879.826 .0240430
880.494 .0240335
881.162 .0240233
881.829 .0240127
882.496 .0240018
883.163 .0239913
883.829 .0239811
884.495 .0239720
885.160 .0239642
885.825 .0239578
886.490 .0239526
887.154 .0239486
887.818 .0239450
888.482 .0239413
889.145 .0239371
889.808 .0239323
890.471 .0239268
891.133 .0239211
891.795 .0239149
892.456 .0239085
893.117 .0239021
893.778 .0238962
894.439 .0238905
895.099 .0238850
895.758 .0238789
896.417 .0238724
897.076 .0238651
897.735 .0238570
898.393 .0238483
899.051 .0238396
899.708 .0238309
900.365 .0238225
901.022 .0238148
901.678 .0238075
902.334 .0238007
902.990 .0237943
903.645 .0237879
904.300 .0237816
904.954 .0237748
905.608 .0237678
906.262 .0237608
906.915 .0237546
907.568 .0237485
908.221 .0237425
908.873 .0237365
909.525 .0237299
910.176 .0237218
910.828 .0237120
911.478 .0237007
912.129 .0236877
912.778 .0236734
913.428 .0236589
914.077 .0236451
914.726 .0236331
915.375 .0236227
916.023 .0236144
916.670 .0236078
917.318 .0236028
917.964 .0235981
918.611 .0235934
919.257 .0235891
919.903 .0235849
920.548 .0235809
921.193 .0235779
921.838 .0235765
922.482 .0235765
923.126 .0235780
923.770 .0235804
924.413 .0235822
925.056 .0235832
925.698 .0235827
926.340 .0235808
926.982 .0235771
927.623 .0235719
928.264 .0235653
928.904 .0235578
929.544 .0235494
930.184 .0235400
930.823 .0235298
931.462 .0235192
932.101 .0235079
932.739 .0234961
933.377 .0234837
934.014 .0234712
934.651 .0234589
935.288 .0234468
935.924 .0234345
936.560 .0234220
937.196 .0234096
937.831 .0233974
938.466 .0233851
939.100 .0233732
939.734 .0233615
940.368 .0233502
941.001 .0233388
941.634 .0233273
942.266 .0233157
942.899 .0233040
943.530 .0232923
944.162 .0232807
944.793 .0232693
945.423 .0232582
946.053 .0232473
946.683 .0232369
947.313 .0232265
947.942 .0232156
948.571 .0232037
949.199 .0231908
949.827 .0231765
950.455 .0231611
951.082 .0231448
951.709 .0231282
952.335 .0231116
952.961 .0230950
953.587 .0230786
954.212 .0230624
954.837 .0230459
955.462 .0230290
956.086 .0230115
956.710 .0229941
957.334 .0229765
957.957 .0229596
958.579 .0229438
959.202 .0229292
959.824 .0229158
960.445 .0229034
961.067 .0228922
961.688 .0228820
962.308 .0228722
962.928 .0228627
963.548 .0228529
964.168 .0228429
964.787 .0228326
965.406 .0228225
966.024 .0228124
966.642 .0228032
967.260 .0227943
967.877 .0227862
968.494 .0227786
969.110 .0227711
969.727 .0227635
970.342 .0227557
970.958 .0227478
971.573 .0227395
972.188 .0227314
972.802 .0227249
973.416 .0227195
974.030 .0227161
974.643 .0227140
975.256 .0227130
975.869 .0227123
976.481 .0227114
977.093 .0227096
977.705 .0227069
978.316 .0227035
978.927 .0226996
979.538 .0226954
980.148 .0226916
980.758 .0226884
981.367 .0226857
981.977 .0226835
982.586 .0226814
983.194 .0226785
983.802 .0226756
984.410 .0226713
985.018 .0226665
985.625 .0226613
986.232 .0226561
986.838 .0226513
987.445 .0226472
988.050 .0226437
988.656 .0226410
989.261 .0226388
989.866 .0226370
990.471 .0226347
991.075 .0226329
991.679 .0226304
992.282 .0226274
992.886 .0226238
993.489 .0226202
994.091 .0226162
994.694 .0226128
995.296 .0226091
995.897 .0226053
996.499 .0226011
997.100 .0225968
997.701 .0225916
998.301 .0225863
998.901 .0225805
999.501 .0225741
1000.101 .0225674
1000.700 .0225605
1001.299 .0225530
1001.898 .0225460
1002.496 .0225395
1003.094 .0225333
1003.692 .0225280
1004.289 .0225236
1004.887 .0225201
1005.484 .0225182
1006.080 .0225175
1006.677 .0225182
1007.273 .0225195
1007.868 .0225212
1008.464 .0225226
1009.059 .0225240
1009.654 .0225255
1010.249 .0225267
1010.843 .0225282
1011.437 .0225300
1012.031 .0225317
1012.625 .0225333
1013.218 .0225346
1013.811 .0225353
1014.404 .0225351
1014.997 .0225338
1015.589 .0225312
1016.181 .0225281
1016.773 .0225241
1017.365 .0225200
1017.956 .0225154
1018.547 .0225108
1019.138 .0225057
1019.728 .0224999
1020.319 .0224939
1020.909 .0224873
1021.499 .0224801
1022.088 .0224731
1022.678 .0224660
1023.267 .0224595
1023.856 .0224530
1024.445 .0224468
1025.033 .0224400
1025.621 .0224326
1026.209 .0224244
1026.797 .0224155
1027.385 .0224066
1027.972 .0223980
1028.560 .0223905
1029.147 .0223848
1029.734 .0223815
1030.320 .0223800
1030.907 .0223802
1031.493 .0223815
1032.079 .0223832
1032.665 .0223854
1033.250 .0223878
1033.836 .0223908
1034.421 .0223944
1035.006 .0223989
1035.591 .0224051
1036.176 .0224121
1036.761 .0224196
1037.345 .0224263
1037.929 .0224325
1038.514 .0224365
1039.097 .0224382
1039.681 .0224373
1040.265 .0224344
1040.848 .0224302
1041.432 .0224243
1042.015 .0224172
1042.598 .0224099
1043.181 .0224028
1043.764 .0223961
1044.346 .0223893
1044.929 .0223831
1045.511 .0223765
1046.094 .0223699
1046.676 .0223630
1047.258 .0223560
1047.840 .0223497
1048.422 .0223435
1049.003 .0223380
1049.585 .0223326
1050.166 .0223271
1050.748 .0223214
1051.329 .0223160
1051.910 .0223099
1052.491 .0223035
1053.072 .0222965
1053.653 .0222891
1054.234 .0222814
1054.815 .0222742
1055.396 .0222669
1055.976 .0222605
1056.557 .0222540
1057.138 .0222479
1057.718 .0222421
1058.298 .0222370
1058.879 .0222320
1059.459 .0222285
1060.039 .0222262
1060.620 .0222241
1061.200 .0222223
1061.780 .0222215
1062.360 .0222195
1062.940 .0222175
1063.520 .0222143
1064.101 .0222105
1064.681 .0222061
1065.261 .0222016
1065.841 .0221952
1066.421 .0221894
1067.001 .0221839
1067.581 .0221773
1068.161 .0221707
1068.741 .0221650
1069.321 .0221596
1069.901 .0221558
1070.482 .0221537
1071.062 .0221533
1071.642 .0221538
1072.222 .0221567
1072.803 .0221583
1073.383 .0221595
1073.963 .0221593
1074.544 .0221565
1075.124 .0221524
1075.705 .0221467
1076.286 .0221395
1076.866 .0221324
1077.447 .0221260
1078.028 .0221193
1078.609 .0221117
1079.190 .0221040
1079.771 .0220950
1080.352 .0220847
1080.934 .0220736
1081.515 .0220612
1082.097 .0220489
1082.679 .0220379
1083.260 .0220285
1083.842 .0220221
1084.424 .0220186
1085.007 .0220168
1085.589 .0220170
1086.172 .0220182
1086.754 .0220183
1087.337 .0220173
1087.920 .0220171
1088.503 .0220169
1089.087 .0220176
1089.670 .0220194
1090.254 .0220234
1090.838 .0220294
1091.422 .0220361
1092.006 .0220407
1092.590 .0220429
1093.175 .0220425
1093.760 .0220376
1094.345 .0220298
1094.930 .0220203
1095.516 .0220126
1096.102 .0220075
1096.688 .0220060
1097.274 .0220085
1097.860 .0220107
1098.447 .0220121
1099.034 .0220102
1099.622 .0220028
1100.209 .0219893
1100.797 .0219707
1101.385 .0219509
1101.973 .0219304
1102.562 .0219124
1103.151 .0218956
1103.740 .0218819
1104.330 .0218712
1104.920 .0218613
1105.510 .0218484
1106.101 .0218355
1106.691 .0218217
1107.283 .0218074
1107.874 .0217946
1108.466 .0217848
1109.058 .0217788
1109.651 .0217790
1110.244 .0217825
1110.837 .0217905
1111.431 .0218005
1112.025 .0218153
1112.620 .0218319
1113.215 .0218501
1113.810 .0218705
1114.406 .0218915
1115.002 .0219146
1115.599 .0219390
1116.196 .0219621
1116.793 .0219847
1117.391 .0220049
1117.989 .0220229
1118.588 .0220381
1119.187 .0220499
1119.787 .0220597
1120.387 .0220676
1120.988 .0220746
1121.589 .0220812
1122.190 .0220864
1122.793 .0220907
1123.395 .0220975
1123.998 .0221042
1124.602 .0221140
1125.206 .0221242
1125.811 .0221392
1126.416 .0221565
1127.022 .0221767
1127.628 .0222000
1128.235 .0222242
1128.843 .0222503
1129.451 .0222759
1130.059 .0222983
1130.669 .0223232
1131.278 .0223458
1131.889 .0223676
1132.500 .0223906
1133.112 .0224190
1133.724 .0224486
1134.337 .0224828
1134.950 .0225202
1135.564 .0225604
1136.179 .0225996
1136.795 .0226395
1137.411 .0226761
1138.028 .0227111
1138.645 .0227491
1139.263 .0227891
1139.882 .0228331
1140.502 .0228856
1141.122 .0229398
1141.743 .0229964
1142.365 .0230634
1142.987 .0231645
1143.611 .0232294
1144.235 .0231722
1144.859 .0231934
1145.485 .0235767
