Measurement Sequence started on: 10-20-44-796
Integration time: 35
Scans to Average: 2 
>>>>>Begin Spectral Data<<<<<
432.953 .0417910
433.882 .0353899
434.810 .0375508
435.737 .0364456
436.662 .0345693
437.586 .0353698
438.509 .0349773
439.431 .0348468
440.351 .0347186
441.269 .0346852
442.187 .0346957
443.103 .0346876
444.018 .0346533
444.932 .0345981
445.844 .0345205
446.756 .0344214
447.666 .0343121
448.575 .0341943
449.482 .0341024
450.388 .0340307
451.294 .0339731
452.198 .0339419
453.100 .0339146
454.002 .0338878
454.902 .0338573
455.801 .0338318
456.699 .0338069
457.596 .0337853
458.492 .0337609
459.387 .0337464
460.280 .0337403
461.172 .0337361
462.064 .0337417
462.954 .0337507
463.843 .0337551
464.730 .0337485
465.617 .0337282
466.503 .0336997
467.387 .0336641
468.271 .0336276
469.153 .0335907
470.035 .0335608
470.915 .0335381
471.794 .0335141
472.673 .0334850
473.550 .0334581
474.426 .0334272
475.301 .0333876
476.175 .0333450
477.048 .0332974
477.920 .0332508
478.791 .0332070
479.661 .0331656
480.530 .0331277
481.398 .0330895
482.266 .0330435
483.132 .0329891
483.997 .0329221
484.861 .0328402
485.724 .0327475
486.587 .0326524
487.448 .0325583
488.308 .0324685
489.168 .0323868
490.026 .0323151
490.884 .0322531
491.741 .0321961
492.597 .0321376
493.452 .0320789
494.306 .0320199
495.159 .0319556
496.011 .0318951
496.862 .0318439
497.713 .0317996
498.562 .0317636
499.411 .0317362
500.259 .0317091
501.106 .0316799
501.952 .0316430
502.798 .0315943
503.642 .0315334
504.486 .0314609
505.329 .0313732
506.171 .0312788
507.012 .0311822
507.852 .0310848
508.692 .0309890
509.531 .0308999
510.369 .0308074
511.206 .0307147
512.043 .0306218
512.878 .0305231
513.713 .0304224
514.547 .0303202
515.381 .0302171
516.213 .0301147
517.045 .0300101
517.876 .0298981
518.706 .0297818
519.536 .0296651
520.365 .0295390
521.193 .0294036
522.020 .0292642
522.847 .0291213
523.673 .0289765
524.498 .0288306
525.323 .0286837
526.146 .0285328
526.969 .0283819
527.792 .0282198
528.614 .0280433
529.435 .0278579
530.255 .0276690
531.075 .0274811
531.894 .0272960
532.712 .0271174
533.530 .0269514
534.347 .0267973
535.163 .0266586
535.979 .0265349
536.794 .0264250
537.608 .0263244
538.422 .0262339
539.235 .0261513
540.048 .0260775
540.860 .0260136
541.671 .0259595
542.481 .0259164
543.292 .0258821
544.101 .0258568
544.910 .0258451
545.718 .0258583
546.526 .0259043
547.333 .0259767
548.139 .0260863
548.945 .0262230
549.750 .0263766
550.555 .0265335
551.359 .0266845
552.162 .0268270
552.965 .0269458
553.768 .0270435
554.569 .0271296
555.371 .0272044
556.171 .0272786
556.972 .0273528
557.771 .0274353
558.570 .0275247
559.369 .0276120
560.167 .0276897
560.964 .0277596
561.761 .0278230
562.558 .0278741
563.354 .0279168
564.149 .0279589
564.944 .0280007
565.738 .0280411
566.532 .0280884
567.325 .0281408
568.118 .0281991
568.910 .0282645
569.702 .0283358
570.494 .0284161
571.285 .0285028
572.075 .0285929
572.865 .0286906
573.654 .0287914
574.443 .0288935
575.232 .0289904
576.020 .0290841
576.807 .0291732
577.594 .0292528
578.381 .0293262
579.167 .0293910
579.952 .0294495
580.738 .0295021
581.522 .0295481
582.307 .0295915
583.091 .0296339
583.874 .0296753
584.657 .0297153
585.440 .0297534
586.222 .0297859
587.004 .0298133
587.785 .0298352
588.566 .0298516
589.346 .0298652
590.126 .0298775
590.906 .0298902
591.685 .0299042
592.464 .0299205
593.242 .0299372
594.020 .0299519
594.797 .0299642
595.575 .0299699
596.351 .0299697
597.128 .0299630
597.904 .0299507
598.679 .0299359
599.454 .0299206
600.229 .0299060
601.004 .0298928
601.778 .0298822
602.551 .0298733
603.325 .0298647
604.097 .0298556
604.870 .0298452
605.642 .0298327
606.414 .0298200
607.185 .0298070
607.956 .0297951
608.727 .0297856
609.497 .0297780
610.267 .0297727
611.037 .0297682
611.806 .0297636
612.575 .0297578
613.344 .0297502
614.112 .0297418
614.880 .0297314
615.647 .0297195
616.414 .0297070
617.181 .0296938
617.948 .0296803
618.714 .0296669
619.480 .0296532
620.245 .0296397
621.011 .0296256
621.775 .0296113
622.540 .0295967
623.304 .0295818
624.068 .0295689
624.832 .0295567
625.595 .0295457
626.358 .0295348
627.120 .0295238
627.883 .0295122
628.645 .0294996
629.406 .0294858
630.168 .0294700
630.929 .0294526
631.689 .0294346
632.450 .0294149
633.210 .0293948
633.970 .0293748
634.729 .0293556
635.489 .0293362
636.248 .0293166
637.006 .0292953
637.765 .0292735
638.523 .0292512
639.280 .0292286
640.038 .0292054
640.795 .0291835
641.552 .0291633
642.309 .0291446
643.065 .0291287
643.821 .0291157
644.577 .0291037
645.332 .0290929
646.088 .0290811
646.843 .0290692
647.597 .0290563
648.352 .0290427
649.106 .0290300
649.860 .0290189
650.613 .0290099
651.367 .0290022
652.120 .0289964
652.872 .0289907
653.625 .0289838
654.377 .0289747
655.129 .0289627
655.881 .0289484
656.632 .0289320
657.384 .0289147
658.135 .0288975
658.885 .0288820
659.636 .0288670
660.386 .0288515
661.136 .0288366
661.885 .0288187
662.635 .0287974
663.384 .0287734
664.133 .0287471
664.881 .0287196
665.630 .0286916
666.378 .0286647
667.126 .0286392
667.874 .0286164
668.621 .0285960
669.368 .0285770
670.115 .0285593
670.862 .0285426
671.608 .0285262
672.354 .0285099
673.100 .0284949
673.846 .0284798
674.591 .0284661
675.337 .0284534
676.082 .0284410
676.826 .0284293
677.571 .0284187
678.315 .0284097
679.059 .0284011
679.803 .0283928
680.547 .0283847
681.290 .0283755
682.033 .0283656
682.776 .0283537
683.518 .0283404
684.261 .0283259
685.003 .0283103
685.745 .0282944
686.487 .0282789
687.228 .0282648
687.969 .0282522
688.710 .0282406
689.451 .0282289
690.192 .0282167
690.932 .0282035
691.672 .0281891
692.412 .0281740
693.152 .0281579
693.891 .0281418
694.630 .0281254
695.369 .0281100
696.108 .0280942
696.846 .0280781
697.585 .0280613
698.323 .0280432
699.061 .0280240
699.798 .0280033
700.536 .0279816
701.273 .0279593
702.010 .0279371
702.746 .0279148
703.483 .0278922
704.219 .0278699
704.955 .0278473
705.691 .0278250
706.427 .0278026
707.162 .0277807
707.897 .0277598
708.632 .0277407
709.367 .0277229
710.101 .0277067
710.835 .0276925
711.569 .0276794
712.303 .0276675
713.037 .0276564
713.770 .0276462
714.503 .0276366
715.236 .0276274
715.969 .0276187
716.702 .0276104
717.434 .0276026
718.166 .0275943
718.898 .0275856
719.629 .0275763
720.361 .0275658
721.092 .0275540
721.823 .0275411
722.554 .0275269
723.284 .0275107
724.014 .0274922
724.744 .0274714
725.474 .0274486
726.204 .0274237
726.933 .0273975
727.662 .0273704
728.391 .0273439
729.120 .0273182
729.849 .0272933
730.577 .0272697
731.305 .0272473
732.033 .0272259
732.760 .0272044
733.488 .0271830
734.215 .0271620
734.942 .0271420
735.669 .0271235
736.395 .0271058
737.122 .0270899
737.848 .0270752
738.573 .0270608
739.299 .0270459
740.024 .0270302
740.750 .0270124
741.474 .0269932
742.199 .0269732
742.924 .0269529
743.648 .0269335
744.372 .0269156
745.096 .0269002
745.819 .0268870
746.543 .0268754
747.266 .0268651
747.989 .0268554
748.711 .0268475
749.434 .0268395
750.156 .0268325
750.878 .0268268
751.599 .0268236
752.321 .0268230
753.042 .0268247
753.763 .0268280
754.484 .0268321
755.205 .0268355
755.925 .0268369
756.645 .0268349
757.365 .0268293
758.085 .0268201
758.804 .0268079
759.523 .0267926
760.242 .0267750
760.961 .0267564
761.679 .0267377
762.397 .0267185
763.115 .0266985
763.833 .0266770
764.551 .0266540
765.268 .0266291
765.985 .0266022
766.702 .0265738
767.418 .0265448
768.134 .0265156
768.850 .0264875
769.566 .0264612
770.282 .0264369
770.997 .0264154
771.712 .0263967
772.427 .0263803
773.142 .0263660
773.856 .0263528
774.570 .0263406
775.284 .0263293
775.998 .0263189
776.711 .0263084
777.424 .0262987
778.137 .0262890
778.849 .0262785
779.562 .0262679
780.274 .0262571
780.986 .0262454
781.697 .0262336
782.409 .0262219
783.120 .0262101
783.831 .0261991
784.541 .0261887
785.252 .0261787
785.962 .0261697
786.671 .0261608
787.381 .0261521
788.090 .0261433
788.799 .0261356
789.508 .0261280
790.217 .0261218
790.925 .0261173
791.633 .0261140
792.341 .0261113
793.048 .0261096
793.755 .0261081
794.462 .0261061
795.169 .0261028
795.875 .0260984
796.581 .0260924
797.287 .0260848
797.993 .0260751
798.698 .0260641
799.403 .0260518
800.108 .0260383
800.812 .0260233
801.517 .0260070
802.221 .0259900
802.924 .0259722
803.628 .0259545
804.331 .0259372
805.034 .0259207
805.736 .0259041
806.439 .0258883
807.141 .0258732
807.843 .0258592
808.544 .0258454
809.245 .0258326
809.946 .0258205
810.647 .0258100
811.347 .0258007
812.047 .0257932
812.747 .0257869
813.447 .0257820
814.146 .0257774
814.845 .0257734
815.543 .0257690
816.242 .0257648
816.940 .0257601
817.638 .0257556
818.335 .0257502
819.032 .0257446
819.729 .0257378
820.426 .0257307
821.122 .0257225
821.818 .0257133
822.514 .0257023
823.209 .0256913
823.905 .0256795
824.599 .0256679
825.294 .0256555
825.988 .0256426
826.682 .0256289
827.376 .0256145
828.069 .0255993
828.762 .0255833
829.455 .0255667
830.147 .0255501
830.840 .0255329
831.531 .0255159
832.223 .0254991
832.914 .0254824
833.605 .0254653
834.296 .0254481
834.986 .0254298
835.676 .0254107
836.366 .0253915
837.055 .0253732
837.744 .0253557
838.433 .0253396
839.121 .0253253
839.809 .0253122
840.497 .0253010
841.185 .0252907
841.872 .0252813
842.559 .0252726
843.245 .0252642
843.932 .0252559
844.617 .0252484
845.303 .0252421
845.988 .0252368
846.673 .0252319
847.358 .0252279
848.042 .0252239
848.726 .0252192
849.410 .0252137
850.093 .0252073
850.776 .0251998
851.459 .0251911
852.141 .0251805
852.823 .0251692
853.505 .0251566
854.186 .0251432
854.867 .0251288
855.548 .0251138
856.228 .0250984
856.908 .0250831
857.588 .0250680
858.267 .0250537
858.946 .0250398
859.625 .0250263
860.303 .0250128
860.981 .0249996
861.659 .0249859
862.336 .0249715
863.013 .0249562
863.690 .0249411
864.366 .0249260
865.042 .0249116
865.718 .0248983
866.393 .0248867
867.068 .0248768
867.743 .0248684
868.417 .0248604
869.091 .0248536
869.765 .0248468
870.438 .0248398
871.111 .0248323
871.783 .0248246
872.456 .0248175
873.127 .0248107
873.799 .0248043
874.470 .0247987
875.141 .0247934
875.811 .0247879
876.481 .0247814
877.151 .0247741
877.820 .0247655
878.489 .0247551
879.158 .0247434
879.826 .0247307
880.494 .0247170
881.162 .0247032
881.829 .0246889
882.496 .0246742
883.163 .0246600
883.829 .0246450
884.495 .0246301
885.160 .0246163
885.825 .0246036
886.490 .0245923
887.154 .0245828
887.818 .0245758
888.482 .0245704
889.145 .0245659
889.808 .0245618
890.471 .0245572
891.133 .0245516
891.795 .0245449
892.456 .0245373
893.117 .0245298
893.778 .0245230
894.439 .0245172
895.099 .0245125
895.758 .0245089
896.417 .0245060
897.076 .0245027
897.735 .0244982
898.393 .0244927
899.051 .0244852
899.708 .0244762
900.365 .0244664
901.022 .0244564
901.678 .0244466
902.334 .0244375
902.990 .0244286
903.645 .0244197
904.300 .0244108
904.954 .0244017
905.608 .0243919
906.262 .0243818
906.915 .0243713
907.568 .0243605
908.221 .0243500
908.873 .0243396
909.525 .0243296
910.176 .0243204
910.828 .0243118
911.478 .0243030
912.129 .0242940
912.778 .0242851
913.428 .0242764
914.077 .0242690
914.726 .0242623
915.375 .0242564
916.023 .0242517
916.670 .0242483
917.318 .0242453
917.964 .0242424
918.611 .0242390
919.257 .0242338
919.903 .0242270
920.548 .0242180
921.193 .0242071
921.838 .0241948
922.482 .0241826
923.126 .0241703
923.770 .0241583
924.413 .0241471
925.056 .0241360
925.698 .0241259
926.340 .0241166
926.982 .0241070
927.623 .0240974
928.264 .0240886
928.904 .0240803
929.544 .0240729
930.184 .0240674
930.823 .0240630
931.462 .0240597
932.101 .0240574
932.739 .0240557
933.377 .0240539
934.014 .0240527
934.651 .0240518
935.288 .0240505
935.924 .0240495
936.560 .0240478
937.196 .0240449
937.831 .0240412
938.466 .0240357
939.100 .0240281
939.734 .0240183
940.368 .0240071
941.001 .0239947
941.634 .0239824
942.266 .0239706
942.899 .0239593
943.530 .0239487
944.162 .0239387
944.793 .0239283
945.423 .0239168
946.053 .0239042
946.683 .0238899
947.313 .0238740
947.942 .0238567
948.571 .0238382
949.199 .0238188
949.827 .0237985
950.455 .0237777
951.082 .0237562
951.709 .0237341
952.335 .0237115
952.961 .0236886
953.587 .0236659
954.212 .0236435
954.837 .0236216
955.462 .0236004
956.086 .0235803
956.710 .0235612
957.334 .0235430
957.957 .0235257
958.579 .0235091
959.202 .0234932
959.824 .0234785
960.445 .0234648
961.067 .0234524
961.688 .0234418
962.308 .0234327
962.928 .0234252
963.548 .0234192
964.168 .0234145
964.787 .0234102
965.406 .0234060
966.024 .0234016
966.642 .0233965
967.260 .0233910
967.877 .0233859
968.494 .0233808
969.110 .0233771
969.727 .0233746
970.342 .0233733
970.958 .0233730
971.573 .0233739
972.188 .0233741
972.802 .0233736
973.416 .0233721
974.030 .0233689
974.643 .0233638
975.256 .0233589
975.869 .0233543
976.481 .0233513
977.093 .0233497
977.705 .0233492
978.316 .0233493
978.927 .0233503
979.538 .0233499
980.148 .0233476
980.758 .0233439
981.367 .0233392
981.977 .0233336
982.586 .0233287
983.194 .0233256
983.802 .0233255
984.410 .0233279
985.018 .0233327
985.625 .0233384
986.232 .0233447
986.838 .0233508
987.445 .0233560
988.050 .0233600
988.656 .0233623
989.261 .0233628
989.866 .0233617
990.471 .0233598
991.075 .0233570
991.679 .0233535
992.282 .0233493
992.886 .0233451
993.489 .0233413
994.091 .0233370
994.694 .0233325
995.296 .0233281
995.897 .0233225
996.499 .0233153
997.100 .0233056
997.701 .0232951
998.301 .0232838
998.901 .0232732
999.501 .0232640
1000.101 .0232574
1000.700 .0232536
1001.299 .0232517
1001.898 .0232511
1002.496 .0232509
1003.094 .0232493
1003.692 .0232450
1004.289 .0232372
1004.887 .0232273
1005.484 .0232156
1006.080 .0232032
1006.677 .0231920
1007.273 .0231837
1007.868 .0231776
1008.464 .0231747
1009.059 .0231750
1009.654 .0231772
1010.249 .0231801
1010.843 .0231834
1011.437 .0231862
1012.031 .0231882
1012.625 .0231899
1013.218 .0231910
1013.811 .0231923
1014.404 .0231945
1014.997 .0231966
1015.589 .0231986
1016.181 .0232007
1016.773 .0232020
1017.365 .0232017
1017.956 .0231995
1018.547 .0231952
1019.138 .0231879
1019.728 .0231790
1020.319 .0231686
1020.909 .0231572
1021.499 .0231468
1022.088 .0231380
1022.678 .0231309
1023.267 .0231263
1023.856 .0231233
1024.445 .0231216
1025.033 .0231196
1025.621 .0231168
1026.209 .0231127
1026.797 .0231074
1027.385 .0231012
1027.972 .0230946
1028.560 .0230885
1029.147 .0230838
1029.734 .0230800
1030.320 .0230775
1030.907 .0230755
1031.493 .0230728
1032.079 .0230697
1032.665 .0230657
1033.250 .0230608
1033.836 .0230558
1034.421 .0230518
1035.006 .0230496
1035.591 .0230496
1036.176 .0230510
1036.761 .0230536
1037.345 .0230557
1037.929 .0230575
1038.514 .0230572
1039.097 .0230550
1039.681 .0230520
1040.265 .0230488
1040.848 .0230461
1041.432 .0230457
1042.015 .0230467
1042.598 .0230491
1043.181 .0230520
1043.764 .0230547
1044.346 .0230554
1044.929 .0230550
1045.511 .0230525
1046.094 .0230500
1046.676 .0230474
1047.258 .0230456
1047.840 .0230444
1048.422 .0230454
1049.003 .0230469
1049.585 .0230484
1050.166 .0230489
1050.748 .0230489
1051.329 .0230477
1051.910 .0230458
1052.491 .0230425
1053.072 .0230386
1053.653 .0230335
1054.234 .0230269
1054.815 .0230179
1055.396 .0230076
1055.976 .0229954
1056.557 .0229818
1057.138 .0229675
1057.718 .0229532
1058.298 .0229393
1058.879 .0229263
1059.459 .0229133
1060.039 .0228996
1060.620 .0228853
1061.200 .0228685
1061.780 .0228497
1062.360 .0228287
1062.940 .0228081
1063.520 .0227878
1064.101 .0227700
1064.681 .0227554
1065.261 .0227443
1065.841 .0227376
1066.421 .0227344
1067.001 .0227332
1067.581 .0227339
1068.161 .0227350
1068.741 .0227367
1069.321 .0227380
1069.901 .0227411
1070.482 .0227429
1071.062 .0227462
1071.642 .0227494
1072.222 .0227548
1072.803 .0227622
1073.383 .0227712
1073.963 .0227825
1074.544 .0227953
1075.124 .0228079
1075.705 .0228190
1076.286 .0228280
1076.866 .0228356
1077.447 .0228385
1078.028 .0228378
1078.609 .0228332
1079.190 .0228266
1079.771 .0228188
1080.352 .0228110
1080.934 .0228026
1081.515 .0227965
1082.097 .0227909
1082.679 .0227844
1083.260 .0227775
1083.842 .0227683
1084.424 .0227567
1085.007 .0227431
1085.589 .0227277
1086.172 .0227104
1086.754 .0226938
1087.337 .0226803
1087.920 .0226692
1088.503 .0226636
1089.087 .0226622
1089.670 .0226642
1090.254 .0226693
1090.838 .0226739
1091.422 .0226766
1092.006 .0226763
1092.590 .0226744
1093.175 .0226699
1093.760 .0226648
1094.345 .0226599
1094.930 .0226576
1095.516 .0226568
1096.102 .0226594
1096.688 .0226630
1097.274 .0226686
1097.860 .0226745
1098.447 .0226805
1099.034 .0226856
1099.622 .0226892
1100.209 .0226926
1100.797 .0226976
1101.385 .0227023
1101.973 .0227082
1102.562 .0227122
1103.151 .0227150
1103.740 .0227144
1104.330 .0227126
1104.920 .0227073
1105.510 .0226999
1106.101 .0226917
1106.691 .0226799
1107.283 .0226643
1107.874 .0226464
1108.466 .0226245
1109.058 .0226003
1109.651 .0225714
1110.244 .0225399
1110.837 .0225058
1111.431 .0224721
1112.025 .0224417
1112.620 .0224167
1113.215 .0224022
1113.810 .0223985
1114.406 .0224018
1115.002 .0224112
1115.599 .0224230
1116.196 .0224349
1116.793 .0224458
1117.391 .0224547
1117.989 .0224622
1118.588 .0224676
1119.187 .0224719
1119.787 .0224795
1120.387 .0224903
1120.988 .0225057
1121.589 .0225255
1122.190 .0225448
1122.793 .0225663
1123.395 .0225855
1123.998 .0226052
1124.602 .0226278
1125.206 .0226508
1125.811 .0226777
1126.416 .0227075
1127.022 .0227397
1127.628 .0227738
1128.235 .0228051
1128.843 .0228375
1129.451 .0228735
1130.059 .0229104
1130.669 .0229503
1131.278 .0229906
1131.889 .0230315
1132.500 .0230704
1133.112 .0231025
1133.724 .0231287
1134.337 .0231455
1134.950 .0231523
1135.564 .0231491
1136.179 .0231373
1136.795 .0231277
1137.411 .0231201
1138.028 .0231211
1138.645 .0231324
1139.263 .0231423
1139.882 .0231545
1140.502 .0231741
1141.122 .0231886
1141.743 .0232064
1142.365 .0232540
1142.987 .0231340
1143.611 .0233523
1144.235 .0231499
1144.859 .0233276
1145.485 .0242104
