Measurement Sequence started on: 10-20-44-796
Integration time: 35
Scans to Average: 2 
>>>>>Begin Spectral Data<<<<<
432.953 .0381509
433.882 .0318814
434.810 .0332017
435.737 .0333648
436.662 .0330116
437.586 .0342879
438.509 .0344028
439.431 .0346901
440.351 .0348994
441.269 .0350605
442.187 .0351965
443.103 .0352666
444.018 .0353207
444.932 .0353568
445.844 .0353612
446.756 .0353306
447.666 .0352676
448.575 .0351677
449.482 .0350485
450.388 .0349159
451.294 .0347928
452.198 .0346793
453.100 .0345846
454.002 .0345126
454.902 .0344540
455.801 .0344057
456.699 .0343597
457.596 .0343081
458.492 .0342493
459.387 .0341864
460.280 .0341244
461.172 .0340651
462.064 .0340137
462.954 .0339714
463.843 .0339318
464.730 .0339008
465.617 .0338698
466.503 .0338326
467.387 .0337874
468.271 .0337311
469.153 .0336679
470.035 .0336001
470.915 .0335301
471.794 .0334611
472.673 .0333971
473.550 .0333410
474.426 .0332893
475.301 .0332426
476.175 .0331998
477.048 .0331616
477.920 .0331267
478.791 .0330960
479.661 .0330707
480.530 .0330533
481.398 .0330421
482.266 .0330386
483.132 .0330420
483.997 .0330463
484.861 .0330518
485.724 .0330591
486.587 .0330682
487.448 .0330797
488.308 .0330938
489.168 .0331126
490.026 .0331336
490.884 .0331564
491.741 .0331748
492.597 .0331879
493.452 .0331944
494.306 .0331904
495.159 .0331773
496.011 .0331564
496.862 .0331288
497.713 .0330959
498.562 .0330588
499.411 .0330208
500.259 .0329770
501.106 .0329269
501.952 .0328662
502.798 .0327947
503.642 .0327116
504.486 .0326173
505.329 .0325157
506.171 .0324101
507.012 .0323041
507.852 .0322012
508.692 .0321003
509.531 .0320017
510.369 .0319033
511.206 .0318022
512.043 .0316951
512.878 .0315801
513.713 .0314511
514.547 .0313113
515.381 .0311652
516.213 .0310128
517.045 .0308573
517.876 .0307000
518.706 .0305418
519.536 .0303779
520.365 .0302081
521.193 .0300276
522.020 .0298389
522.847 .0296437
523.673 .0294379
524.498 .0292270
525.323 .0290238
526.146 .0288347
526.969 .0286703
527.792 .0285340
528.614 .0284242
529.435 .0283294
530.255 .0282536
531.075 .0281773
531.894 .0281003
532.712 .0280205
533.530 .0279351
534.347 .0278490
535.163 .0277650
535.979 .0276873
536.794 .0276234
537.608 .0275748
538.422 .0275475
539.235 .0275200
540.048 .0274973
540.860 .0274723
541.671 .0274417
542.481 .0274148
543.292 .0273895
544.101 .0273726
544.910 .0273734
545.718 .0273911
546.526 .0274345
547.333 .0274940
548.139 .0275723
548.945 .0276634
549.750 .0277544
550.555 .0278413
551.359 .0279177
552.162 .0279839
552.965 .0280473
553.768 .0281040
554.569 .0281578
555.371 .0282102
556.171 .0282635
556.972 .0283178
557.771 .0283708
558.570 .0284261
559.369 .0284820
560.167 .0285351
560.964 .0285955
561.761 .0286579
562.558 .0287227
563.354 .0287935
564.149 .0288658
564.944 .0289413
565.738 .0290180
566.532 .0290923
567.325 .0291643
568.118 .0292354
568.910 .0293066
569.702 .0293741
570.494 .0294447
571.285 .0295186
572.075 .0295932
572.865 .0296708
573.654 .0297480
574.443 .0298195
575.232 .0298851
576.020 .0299441
576.807 .0299949
577.594 .0300400
578.381 .0300837
579.167 .0301238
579.952 .0301658
580.738 .0302120
581.522 .0302604
582.307 .0303117
583.091 .0303646
583.874 .0304149
584.657 .0304618
585.440 .0305052
586.222 .0305425
587.004 .0305743
587.785 .0306040
588.566 .0306302
589.346 .0306531
590.126 .0306746
590.906 .0306944
591.685 .0307124
592.464 .0307301
593.242 .0307460
594.020 .0307599
594.797 .0307734
595.575 .0307848
596.351 .0307947
597.128 .0308038
597.904 .0308111
598.679 .0308167
599.454 .0308210
600.229 .0308243
601.004 .0308265
601.778 .0308283
602.551 .0308297
603.325 .0308304
604.097 .0308315
604.870 .0308316
605.642 .0308310
606.414 .0308301
607.185 .0308282
607.956 .0308244
608.727 .0308196
609.497 .0308132
610.267 .0308052
611.037 .0307965
611.806 .0307869
612.575 .0307759
613.344 .0307636
614.112 .0307497
614.880 .0307349
615.647 .0307191
616.414 .0307035
617.181 .0306874
617.948 .0306714
618.714 .0306558
619.480 .0306401
620.245 .0306240
621.011 .0306079
621.775 .0305911
622.540 .0305736
623.304 .0305548
624.068 .0305361
624.832 .0305173
625.595 .0304993
626.358 .0304823
627.120 .0304657
627.883 .0304495
628.645 .0304339
629.406 .0304181
630.168 .0304019
630.929 .0303858
631.689 .0303697
632.450 .0303533
633.210 .0303371
633.970 .0303208
634.729 .0303047
635.489 .0302891
636.248 .0302730
637.006 .0302553
637.765 .0302365
638.523 .0302165
639.280 .0301953
640.038 .0301738
640.795 .0301517
641.552 .0301294
642.309 .0301070
643.065 .0300841
643.821 .0300604
644.577 .0300358
645.332 .0300116
646.088 .0299869
646.843 .0299623
647.597 .0299381
648.352 .0299145
649.106 .0298925
649.860 .0298715
650.613 .0298514
651.367 .0298323
652.120 .0298138
652.872 .0297952
653.625 .0297766
654.377 .0297581
655.129 .0297396
655.881 .0297210
656.632 .0297025
657.384 .0296840
658.135 .0296653
658.885 .0296473
659.636 .0296297
660.386 .0296125
661.136 .0295958
661.885 .0295795
662.635 .0295642
663.384 .0295498
664.133 .0295366
664.881 .0295246
665.630 .0295142
666.378 .0295055
667.126 .0294976
667.874 .0294901
668.621 .0294832
669.368 .0294759
670.115 .0294680
670.862 .0294598
671.608 .0294514
672.354 .0294434
673.100 .0294360
673.846 .0294292
674.591 .0294235
675.337 .0294189
676.082 .0294153
676.826 .0294122
677.571 .0294090
678.315 .0294050
679.059 .0293999
679.803 .0293939
680.547 .0293870
681.290 .0293790
682.033 .0293705
682.776 .0293612
683.518 .0293511
684.261 .0293405
685.003 .0293290
685.745 .0293169
686.487 .0293041
687.228 .0292901
687.969 .0292752
688.710 .0292588
689.451 .0292413
690.192 .0292231
690.932 .0292043
691.672 .0291855
692.412 .0291668
693.152 .0291491
693.891 .0291329
694.630 .0291179
695.369 .0291040
696.108 .0290907
696.846 .0290769
697.585 .0290624
698.323 .0290463
699.061 .0290292
699.798 .0290115
700.536 .0289936
701.273 .0289757
702.010 .0289586
702.746 .0289420
703.483 .0289259
704.219 .0289097
704.955 .0288936
705.691 .0288765
706.427 .0288580
707.162 .0288388
707.897 .0288192
708.632 .0287998
709.367 .0287811
710.101 .0287633
710.835 .0287470
711.569 .0287313
712.303 .0287155
713.037 .0286993
713.770 .0286827
714.503 .0286648
715.236 .0286457
715.969 .0286258
716.702 .0286055
717.434 .0285849
718.166 .0285643
718.898 .0285437
719.629 .0285233
720.361 .0285031
721.092 .0284823
721.823 .0284612
722.554 .0284399
723.284 .0284176
724.014 .0283945
724.744 .0283704
725.474 .0283449
726.204 .0283183
726.933 .0282906
727.662 .0282618
728.391 .0282326
729.120 .0282032
729.849 .0281739
730.577 .0281453
731.305 .0281173
732.033 .0280897
732.760 .0280621
733.488 .0280349
734.215 .0280071
734.942 .0279791
735.669 .0279509
736.395 .0279228
737.122 .0278954
737.848 .0278689
738.573 .0278435
739.299 .0278196
740.024 .0277972
740.750 .0277755
741.474 .0277539
742.199 .0277324
742.924 .0277105
743.648 .0276885
744.372 .0276660
745.096 .0276437
745.819 .0276220
746.543 .0276013
747.266 .0275819
747.989 .0275639
748.711 .0275474
749.434 .0275322
750.156 .0275183
750.878 .0275055
751.599 .0274933
752.321 .0274825
753.042 .0274726
753.763 .0274639
754.484 .0274560
755.205 .0274488
755.925 .0274418
756.645 .0274349
757.365 .0274273
758.085 .0274185
758.804 .0274084
759.523 .0273970
760.242 .0273848
760.961 .0273714
761.679 .0273572
762.397 .0273423
763.115 .0273266
763.833 .0273096
764.551 .0272909
765.268 .0272706
765.985 .0272488
766.702 .0272255
767.418 .0272015
768.134 .0271771
768.850 .0271533
769.566 .0271304
770.282 .0271084
770.997 .0270875
771.712 .0270675
772.427 .0270479
773.142 .0270290
773.856 .0270103
774.570 .0269922
775.284 .0269743
775.998 .0269573
776.711 .0269418
777.424 .0269278
778.137 .0269151
778.849 .0269034
779.562 .0268928
780.274 .0268830
780.986 .0268733
781.697 .0268641
782.409 .0268556
783.120 .0268477
783.831 .0268407
784.541 .0268347
785.252 .0268292
785.962 .0268244
786.671 .0268192
787.381 .0268136
788.090 .0268072
788.799 .0267997
789.508 .0267914
790.217 .0267826
790.925 .0267736
791.633 .0267643
792.341 .0267546
793.048 .0267448
793.755 .0267345
794.462 .0267233
795.169 .0267111
795.875 .0266982
796.581 .0266847
797.287 .0266712
797.993 .0266578
798.698 .0266452
799.403 .0266335
800.108 .0266228
800.812 .0266132
801.517 .0266043
802.221 .0265965
802.924 .0265894
803.628 .0265829
804.331 .0265771
805.034 .0265720
805.736 .0265675
806.439 .0265629
807.141 .0265586
807.843 .0265545
808.544 .0265496
809.245 .0265439
809.946 .0265375
810.647 .0265304
811.347 .0265229
812.047 .0265149
812.747 .0265064
813.447 .0264973
814.146 .0264877
814.845 .0264776
815.543 .0264670
816.242 .0264568
816.940 .0264465
817.638 .0264360
818.335 .0264260
819.032 .0264164
819.729 .0264071
820.426 .0263984
821.122 .0263902
821.818 .0263823
822.514 .0263743
823.209 .0263667
823.905 .0263593
824.599 .0263522
825.294 .0263451
825.988 .0263370
826.682 .0263276
827.376 .0263170
828.069 .0263046
828.762 .0262905
829.455 .0262748
830.147 .0262580
830.840 .0262395
831.531 .0262201
832.223 .0262001
832.914 .0261792
833.605 .0261581
834.296 .0261368
834.986 .0261149
835.676 .0260929
836.366 .0260708
837.055 .0260490
837.744 .0260274
838.433 .0260064
839.121 .0259862
839.809 .0259667
840.497 .0259486
841.185 .0259318
841.872 .0259165
842.559 .0259034
843.245 .0258918
843.932 .0258813
844.617 .0258718
845.303 .0258628
845.988 .0258539
846.673 .0258448
847.358 .0258355
848.042 .0258255
848.726 .0258149
849.410 .0258039
850.093 .0257918
850.776 .0257787
851.459 .0257646
852.141 .0257490
852.823 .0257319
853.505 .0257132
854.186 .0256929
854.867 .0256716
855.548 .0256492
856.228 .0256266
856.908 .0256035
857.588 .0255806
858.267 .0255582
858.946 .0255362
859.625 .0255151
860.303 .0254949
860.981 .0254757
861.659 .0254582
862.336 .0254420
863.013 .0254271
863.690 .0254134
864.366 .0254007
865.042 .0253889
865.718 .0253773
866.393 .0253658
867.068 .0253541
867.743 .0253423
868.417 .0253306
869.091 .0253182
869.765 .0253055
870.438 .0252921
871.111 .0252774
871.783 .0252612
872.456 .0252433
873.127 .0252236
873.799 .0252027
874.470 .0251807
875.141 .0251583
875.811 .0251356
876.481 .0251131
877.151 .0250909
877.820 .0250689
878.489 .0250471
879.158 .0250250
879.826 .0250027
880.494 .0249803
881.162 .0249577
881.829 .0249356
882.496 .0249141
883.163 .0248934
883.829 .0248743
884.495 .0248562
885.160 .0248391
885.825 .0248230
886.490 .0248079
887.154 .0247936
887.818 .0247799
888.482 .0247666
889.145 .0247535
889.808 .0247415
890.471 .0247298
891.133 .0247183
891.795 .0247072
892.456 .0246967
893.117 .0246865
893.778 .0246765
894.439 .0246669
895.099 .0246568
895.758 .0246466
896.417 .0246358
897.076 .0246237
897.735 .0246107
898.393 .0245972
899.051 .0245834
899.708 .0245697
900.365 .0245561
901.022 .0245427
901.678 .0245299
902.334 .0245181
902.990 .0245063
903.645 .0244940
904.300 .0244816
904.954 .0244692
905.608 .0244565
906.262 .0244445
906.915 .0244335
907.568 .0244240
908.221 .0244159
908.873 .0244087
909.525 .0244024
910.176 .0243964
910.828 .0243903
911.478 .0243836
912.129 .0243761
912.778 .0243677
913.428 .0243583
914.077 .0243488
914.726 .0243394
915.375 .0243299
916.023 .0243205
916.670 .0243107
917.318 .0243006
917.964 .0242897
918.611 .0242781
919.257 .0242661
919.903 .0242541
920.548 .0242421
921.193 .0242302
921.838 .0242193
922.482 .0242096
923.126 .0242009
923.770 .0241929
924.413 .0241857
925.056 .0241793
925.698 .0241737
926.340 .0241686
926.982 .0241646
927.623 .0241621
928.264 .0241609
928.904 .0241604
929.544 .0241607
930.184 .0241613
930.823 .0241616
931.462 .0241611
932.101 .0241596
932.739 .0241568
933.377 .0241530
934.014 .0241480
934.651 .0241426
935.288 .0241373
935.924 .0241317
936.560 .0241262
937.196 .0241213
937.831 .0241162
938.466 .0241108
939.100 .0241047
939.734 .0240982
940.368 .0240912
941.001 .0240839
941.634 .0240763
942.266 .0240688
942.899 .0240617
943.530 .0240542
944.162 .0240463
944.793 .0240389
945.423 .0240308
946.053 .0240215
946.683 .0240115
947.313 .0240000
947.942 .0239872
948.571 .0239734
949.199 .0239588
949.827 .0239438
950.455 .0239289
951.082 .0239140
951.709 .0238994
952.335 .0238857
952.961 .0238727
953.587 .0238602
954.212 .0238484
954.837 .0238365
955.462 .0238242
956.086 .0238124
956.710 .0238017
957.334 .0237916
957.957 .0237832
958.579 .0237766
959.202 .0237720
959.824 .0237688
960.445 .0237673
961.067 .0237667
961.688 .0237671
962.308 .0237675
962.928 .0237670
963.548 .0237658
964.168 .0237639
964.787 .0237613
965.406 .0237590
966.024 .0237570
966.642 .0237553
967.260 .0237537
967.877 .0237529
968.494 .0237518
969.110 .0237499
969.727 .0237468
970.342 .0237424
970.958 .0237363
971.573 .0237295
972.188 .0237216
972.802 .0237144
973.416 .0237086
974.030 .0237042
974.643 .0237010
975.256 .0236996
975.869 .0236991
976.481 .0236994
977.093 .0236999
977.705 .0237008
978.316 .0237019
978.927 .0237038
979.538 .0237065
980.148 .0237100
980.758 .0237149
981.367 .0237205
981.977 .0237264
982.586 .0237330
983.194 .0237390
983.802 .0237448
984.410 .0237503
985.018 .0237550
985.625 .0237591
986.232 .0237622
986.838 .0237644
987.445 .0237654
988.050 .0237656
988.656 .0237649
989.261 .0237633
989.866 .0237612
990.471 .0237585
991.075 .0237554
991.679 .0237523
992.282 .0237490
992.886 .0237458
993.489 .0237432
994.091 .0237404
994.694 .0237377
995.296 .0237354
995.897 .0237332
996.499 .0237311
997.100 .0237287
997.701 .0237265
998.301 .0237240
998.901 .0237215
999.501 .0237187
1000.101 .0237156
1000.700 .0237125
1001.299 .0237083
1001.898 .0237034
1002.496 .0236975
1003.094 .0236905
1003.692 .0236824
1004.289 .0236737
1004.887 .0236654
1005.484 .0236576
1006.080 .0236509
1006.677 .0236458
1007.273 .0236424
1007.868 .0236407
1008.464 .0236401
1009.059 .0236399
1009.654 .0236400
1010.249 .0236400
1010.843 .0236399
1011.437 .0236403
1012.031 .0236411
1012.625 .0236431
1013.218 .0236460
1013.811 .0236499
1014.404 .0236544
1014.997 .0236581
1015.589 .0236609
1016.181 .0236625
1016.773 .0236623
1017.365 .0236603
1017.956 .0236566
1018.547 .0236526
1019.138 .0236488
1019.728 .0236453
1020.319 .0236433
1020.909 .0236424
1021.499 .0236425
1022.088 .0236429
1022.678 .0236421
1023.267 .0236402
1023.856 .0236365
1024.445 .0236309
1025.033 .0236240
1025.621 .0236161
1026.209 .0236086
1026.797 .0236014
1027.385 .0235948
1027.972 .0235889
1028.560 .0235829
1029.147 .0235765
1029.734 .0235695
1030.320 .0235614
1030.907 .0235524
1031.493 .0235423
1032.079 .0235324
1032.665 .0235236
1033.250 .0235154
1033.836 .0235074
1034.421 .0235002
1035.006 .0234930
1035.591 .0234863
1036.176 .0234794
1036.761 .0234733
1037.345 .0234682
1037.929 .0234638
1038.514 .0234589
1039.097 .0234540
1039.681 .0234492
1040.265 .0234441
1040.848 .0234369
1041.432 .0234287
1042.015 .0234184
1042.598 .0234070
1043.181 .0233955
1043.764 .0233854
1044.346 .0233769
1044.929 .0233705
1045.511 .0233644
1046.094 .0233587
1046.676 .0233527
1047.258 .0233459
1047.840 .0233378
1048.422 .0233287
1049.003 .0233180
1049.585 .0233058
1050.166 .0232917
1050.748 .0232777
1051.329 .0232636
1051.910 .0232501
1052.491 .0232362
1053.072 .0232212
1053.653 .0232053
1054.234 .0231882
1054.815 .0231701
1055.396 .0231519
1055.976 .0231324
1056.557 .0231104
1057.138 .0230868
1057.718 .0230613
1058.298 .0230358
1058.879 .0230112
1059.459 .0229885
1060.039 .0229686
1060.620 .0229508
1061.200 .0229353
1061.780 .0229211
1062.360 .0229080
1062.940 .0228968
1063.520 .0228850
1064.101 .0228730
1064.681 .0228600
1065.261 .0228477
1065.841 .0228360
1066.421 .0228260
1067.001 .0228173
1067.581 .0228089
1068.161 .0227997
1068.741 .0227900
1069.321 .0227790
1069.901 .0227671
1070.482 .0227544
1071.062 .0227400
1071.642 .0227245
1072.222 .0227093
1072.803 .0226924
1073.383 .0226764
1073.963 .0226608
1074.544 .0226461
1075.124 .0226320
1075.705 .0226197
1076.286 .0226100
1076.866 .0226036
1077.447 .0226012
1078.028 .0226016
1078.609 .0226040
1079.190 .0226074
1079.771 .0226106
1080.352 .0226146
1080.934 .0226205
1081.515 .0226279
1082.097 .0226368
1082.679 .0226479
1083.260 .0226592
1083.842 .0226707
1084.424 .0226805
1085.007 .0226856
1085.589 .0226862
1086.172 .0226825
1086.754 .0226740
1087.337 .0226626
1087.920 .0226507
1088.503 .0226393
1089.087 .0226287
1089.670 .0226184
1090.254 .0226069
1090.838 .0225944
1091.422 .0225812
1092.006 .0225668
1092.590 .0225519
1093.175 .0225393
1093.760 .0225285
1094.345 .0225213
1094.930 .0225180
1095.516 .0225173
1096.102 .0225167
1096.688 .0225147
1097.274 .0225107
1097.860 .0225046
1098.447 .0224956
1099.034 .0224863
1099.622 .0224777
1100.209 .0224729
1100.797 .0224704
1101.385 .0224689
1101.973 .0224684
1102.562 .0224676
1103.151 .0224652
1103.740 .0224589
1104.330 .0224487
1104.920 .0224374
1105.510 .0224261
1106.101 .0224176
1106.691 .0224117
1107.283 .0224094
1107.874 .0224089
1108.466 .0224084
1109.058 .0224069
1109.651 .0224032
1110.244 .0223966
1110.837 .0223872
1111.431 .0223750
1112.025 .0223603
1112.620 .0223478
1113.215 .0223372
1113.810 .0223317
1114.406 .0223329
1115.002 .0223389
1115.599 .0223474
1116.196 .0223552
1116.793 .0223622
1117.391 .0223676
1117.989 .0223721
1118.588 .0223791
1119.187 .0223861
1119.787 .0223967
1120.387 .0224104
1120.988 .0224283
1121.589 .0224487
1122.190 .0224741
1122.793 .0224999
1123.395 .0225269
1123.998 .0225519
1124.602 .0225763
1125.206 .0225993
1125.811 .0226255
1126.416 .0226534
1127.022 .0226831
1127.628 .0227119
1128.235 .0227414
1128.843 .0227697
1129.451 .0227998
1130.059 .0228328
1130.669 .0228674
1131.278 .0229022
1131.889 .0229411
1132.500 .0229782
1133.112 .0230143
1133.724 .0230445
1134.337 .0230753
1134.950 .0231020
1135.564 .0231266
1136.179 .0231514
1136.795 .0231821
1137.411 .0232259
1138.028 .0232836
1138.645 .0233505
1139.263 .0234264
1139.882 .0235103
1140.502 .0236036
1141.122 .0237098
1141.743 .0238343
1142.365 .0239905
1142.987 .0239393
1143.611 .0241867
1144.235 .0246242
1144.859 .0248440
1145.485 .0253594
