Measurement Sequence started on: 10-20-44-796
Integration time: 35
Scans to Average: 2 
>>>>>Begin Spectral Data<<<<<
432.953 .0206284
433.882 .0264342
434.810 .0298449
435.737 .0292214
436.662 .0290292
437.586 .0293698
438.509 .0299338
439.431 .0302577
440.351 .0304926
441.269 .0307637
442.187 .0310472
443.103 .0313049
444.018 .0315878
444.932 .0318482
445.844 .0320744
446.756 .0322817
447.666 .0324727
448.575 .0326376
449.482 .0327910
450.388 .0329323
451.294 .0330621
452.198 .0331775
453.100 .0332769
454.002 .0333598
454.902 .0334255
455.801 .0334708
456.699 .0334876
457.596 .0334822
458.492 .0334576
459.387 .0334172
460.280 .0333685
461.172 .0333088
462.064 .0332408
462.954 .0331637
463.843 .0330847
464.730 .0330065
465.617 .0329307
466.503 .0328604
467.387 .0327957
468.271 .0327374
469.153 .0326820
470.035 .0326310
470.915 .0325835
471.794 .0325399
472.673 .0325018
473.550 .0324680
474.426 .0324404
475.301 .0324205
476.175 .0324091
477.048 .0324054
477.920 .0324059
478.791 .0324058
479.661 .0324013
480.530 .0323934
481.398 .0323797
482.266 .0323627
483.132 .0323433
483.997 .0323263
484.861 .0323096
485.724 .0322966
486.587 .0322851
487.448 .0322734
488.308 .0322601
489.168 .0322412
490.026 .0322129
490.884 .0321774
491.741 .0321308
492.597 .0320775
493.452 .0320174
494.306 .0319544
495.159 .0318863
496.011 .0318183
496.862 .0317523
497.713 .0316855
498.562 .0316155
499.411 .0315434
500.259 .0314664
501.106 .0313871
501.952 .0313016
502.798 .0312129
503.642 .0311205
504.486 .0310293
505.329 .0309362
506.171 .0308476
507.012 .0307670
507.852 .0306951
508.692 .0306292
509.531 .0305659
510.369 .0304985
511.206 .0304232
512.043 .0303400
512.878 .0302445
513.713 .0301373
514.547 .0300202
515.381 .0298928
516.213 .0297600
517.045 .0296145
517.876 .0294664
518.706 .0293096
519.536 .0291501
520.365 .0289820
521.193 .0288032
522.020 .0286239
522.847 .0284383
523.673 .0282551
524.498 .0280775
525.323 .0279034
526.146 .0277396
526.969 .0275809
527.792 .0274306
528.614 .0272857
529.435 .0271468
530.255 .0270134
531.075 .0268894
531.894 .0267737
532.712 .0266670
533.530 .0265628
534.347 .0264671
535.163 .0263734
535.979 .0262768
536.794 .0261826
537.608 .0260842
538.422 .0259924
539.235 .0259052
540.048 .0258232
540.860 .0257634
541.671 .0257234
542.481 .0257051
543.292 .0257032
544.101 .0257139
544.910 .0257365
545.718 .0257584
546.526 .0257834
547.333 .0258069
548.139 .0258333
548.945 .0258605
549.750 .0258876
550.555 .0259227
551.359 .0259715
552.162 .0260283
552.965 .0260949
553.768 .0261631
554.569 .0262336
555.371 .0262991
556.171 .0263552
556.972 .0264037
557.771 .0264500
558.570 .0264931
559.369 .0265415
560.167 .0265957
560.964 .0266617
561.761 .0267354
562.558 .0268209
563.354 .0269164
564.149 .0270134
564.944 .0271119
565.738 .0272086
566.532 .0273041
567.325 .0273982
568.118 .0274883
568.910 .0275790
569.702 .0276718
570.494 .0277685
571.285 .0278666
572.075 .0279683
572.865 .0280727
573.654 .0281776
574.443 .0282793
575.232 .0283780
576.020 .0284732
576.807 .0285635
577.594 .0286503
578.381 .0287328
579.167 .0288119
579.952 .0288875
580.738 .0289594
581.522 .0290303
582.307 .0290969
583.091 .0291592
583.874 .0292163
584.657 .0292686
585.440 .0293150
586.222 .0293552
587.004 .0293885
587.785 .0294160
588.566 .0294373
589.346 .0294529
590.126 .0294618
590.906 .0294663
591.685 .0294675
592.464 .0294665
593.242 .0294646
594.020 .0294637
594.797 .0294629
595.575 .0294637
596.351 .0294657
597.128 .0294686
597.904 .0294718
598.679 .0294753
599.454 .0294782
600.229 .0294804
601.004 .0294817
601.778 .0294819
602.551 .0294812
603.325 .0294810
604.097 .0294805
604.870 .0294788
605.642 .0294760
606.414 .0294718
607.185 .0294650
607.956 .0294563
608.727 .0294452
609.497 .0294317
610.267 .0294157
611.037 .0293978
611.806 .0293778
612.575 .0293569
613.344 .0293362
614.112 .0293163
614.880 .0292979
615.647 .0292814
616.414 .0292657
617.181 .0292516
617.948 .0292393
618.714 .0292274
619.480 .0292159
620.245 .0292050
621.011 .0291936
621.775 .0291824
622.540 .0291716
623.304 .0291612
624.068 .0291524
624.832 .0291443
625.595 .0291360
626.358 .0291270
627.120 .0291169
627.883 .0291046
628.645 .0290902
629.406 .0290740
630.168 .0290553
630.929 .0290349
631.689 .0290146
632.450 .0289938
633.210 .0289736
633.970 .0289542
634.729 .0289360
635.489 .0289177
636.248 .0288996
637.006 .0288803
637.765 .0288599
638.523 .0288394
639.280 .0288180
640.038 .0287963
640.795 .0287754
641.552 .0287555
642.309 .0287368
643.065 .0287200
643.821 .0287051
644.577 .0286907
645.332 .0286776
646.088 .0286647
646.843 .0286511
647.597 .0286372
648.352 .0286228
649.106 .0286088
649.860 .0285953
650.613 .0285825
651.367 .0285707
652.120 .0285606
652.872 .0285518
653.625 .0285437
654.377 .0285360
655.129 .0285283
655.881 .0285201
656.632 .0285112
657.384 .0285012
658.135 .0284900
658.885 .0284782
659.636 .0284657
660.386 .0284521
661.136 .0284384
661.885 .0284240
662.635 .0284094
663.384 .0283947
664.133 .0283802
664.881 .0283653
665.630 .0283501
666.378 .0283348
667.126 .0283186
667.874 .0283017
668.621 .0282840
669.368 .0282652
670.115 .0282459
670.862 .0282263
671.608 .0282070
672.354 .0281880
673.100 .0281699
673.846 .0281529
674.591 .0281366
675.337 .0281214
676.082 .0281073
676.826 .0280937
677.571 .0280810
678.315 .0280689
679.059 .0280570
679.803 .0280456
680.547 .0280345
681.290 .0280234
682.033 .0280119
682.776 .0280002
683.518 .0279878
684.261 .0279748
685.003 .0279617
685.745 .0279482
686.487 .0279346
687.228 .0279212
687.969 .0279074
688.710 .0278932
689.451 .0278782
690.192 .0278626
690.932 .0278461
691.672 .0278293
692.412 .0278123
693.152 .0277957
693.891 .0277803
694.630 .0277664
695.369 .0277542
696.108 .0277439
696.846 .0277349
697.585 .0277269
698.323 .0277192
699.061 .0277108
699.798 .0277016
700.536 .0276918
701.273 .0276812
702.010 .0276701
702.746 .0276586
703.483 .0276470
704.219 .0276354
704.955 .0276236
705.691 .0276112
706.427 .0275978
707.162 .0275832
707.897 .0275671
708.632 .0275495
709.367 .0275304
710.101 .0275102
710.835 .0274893
711.569 .0274682
712.303 .0274466
713.037 .0274252
713.770 .0274042
714.503 .0273838
715.236 .0273638
715.969 .0273440
716.702 .0273244
717.434 .0273058
718.166 .0272874
718.898 .0272698
719.629 .0272530
720.361 .0272371
721.092 .0272218
721.823 .0272070
722.554 .0271925
723.284 .0271779
724.014 .0271625
724.744 .0271463
725.474 .0271284
726.204 .0271097
726.933 .0270897
727.662 .0270691
728.391 .0270483
729.120 .0270276
729.849 .0270073
730.577 .0269872
731.305 .0269670
732.033 .0269469
732.760 .0269259
733.488 .0269043
734.215 .0268818
734.942 .0268589
735.669 .0268358
736.395 .0268133
737.122 .0267919
737.848 .0267717
738.573 .0267525
739.299 .0267343
740.024 .0267166
740.750 .0266990
741.474 .0266810
742.199 .0266619
742.924 .0266428
743.648 .0266237
744.372 .0266047
745.096 .0265869
745.819 .0265701
746.543 .0265548
747.266 .0265410
747.989 .0265285
748.711 .0265173
749.434 .0265068
750.156 .0264972
750.878 .0264882
751.599 .0264801
752.321 .0264730
753.042 .0264670
753.763 .0264622
754.484 .0264588
755.205 .0264556
755.925 .0264529
756.645 .0264501
757.365 .0264469
758.085 .0264430
758.804 .0264378
759.523 .0264309
760.242 .0264224
760.961 .0264120
761.679 .0264002
762.397 .0263868
763.115 .0263721
763.833 .0263561
764.551 .0263386
765.268 .0263200
765.985 .0263002
766.702 .0262791
767.418 .0262575
768.134 .0262355
768.850 .0262130
769.566 .0261903
770.282 .0261682
770.997 .0261468
771.712 .0261264
772.427 .0261076
773.142 .0260901
773.856 .0260742
774.570 .0260601
775.284 .0260467
775.998 .0260340
776.711 .0260220
777.424 .0260100
778.137 .0259975
778.849 .0259846
779.562 .0259713
780.274 .0259576
780.986 .0259441
781.697 .0259311
782.409 .0259188
783.120 .0259077
783.831 .0258977
784.541 .0258888
785.252 .0258813
785.962 .0258744
786.671 .0258679
787.381 .0258615
788.090 .0258555
788.799 .0258491
789.508 .0258425
790.217 .0258359
790.925 .0258291
791.633 .0258218
792.341 .0258139
793.048 .0258049
793.755 .0257947
794.462 .0257831
795.169 .0257699
795.875 .0257555
796.581 .0257404
797.287 .0257248
797.993 .0257091
798.698 .0256937
799.403 .0256790
800.108 .0256649
800.812 .0256515
801.517 .0256392
802.221 .0256278
802.924 .0256175
803.628 .0256079
804.331 .0255995
805.034 .0255924
805.736 .0255860
806.439 .0255801
807.141 .0255746
807.843 .0255692
808.544 .0255635
809.245 .0255571
809.946 .0255498
810.647 .0255419
811.347 .0255333
812.047 .0255243
812.747 .0255152
813.447 .0255062
814.146 .0254976
814.845 .0254895
815.543 .0254822
816.242 .0254756
816.940 .0254696
817.638 .0254638
818.335 .0254582
819.032 .0254526
819.729 .0254462
820.426 .0254389
821.122 .0254305
821.818 .0254208
822.514 .0254098
823.209 .0253976
823.905 .0253843
824.599 .0253696
825.294 .0253537
825.988 .0253360
826.682 .0253170
827.376 .0252965
828.069 .0252745
828.762 .0252512
829.455 .0252277
830.147 .0252044
830.840 .0251819
831.531 .0251609
832.223 .0251422
832.914 .0251254
833.605 .0251105
834.296 .0250974
834.986 .0250861
835.676 .0250757
836.366 .0250662
837.055 .0250568
837.744 .0250480
838.433 .0250394
839.121 .0250312
839.809 .0250236
840.497 .0250169
841.185 .0250107
841.872 .0250045
842.559 .0249979
843.245 .0249907
843.932 .0249818
844.617 .0249716
845.303 .0249600
845.988 .0249471
846.673 .0249332
847.358 .0249193
848.042 .0249058
848.726 .0248934
849.410 .0248818
850.093 .0248708
850.776 .0248604
851.459 .0248500
852.141 .0248389
852.823 .0248270
853.505 .0248147
854.186 .0248018
854.867 .0247886
855.548 .0247755
856.228 .0247627
856.908 .0247506
857.588 .0247394
858.267 .0247287
858.946 .0247179
859.625 .0247069
860.303 .0246962
860.981 .0246853
861.659 .0246746
862.336 .0246640
863.013 .0246538
863.690 .0246439
864.366 .0246340
865.042 .0246238
865.718 .0246133
866.393 .0246027
867.068 .0245919
867.743 .0245807
868.417 .0245698
869.091 .0245589
869.765 .0245479
870.438 .0245370
871.111 .0245259
871.783 .0245138
872.456 .0245007
873.127 .0244866
873.799 .0244718
874.470 .0244563
875.141 .0244408
875.811 .0244255
876.481 .0244110
877.151 .0243976
877.820 .0243851
878.489 .0243739
879.158 .0243638
879.826 .0243540
880.494 .0243444
881.162 .0243346
881.829 .0243245
882.496 .0243141
883.163 .0243035
883.829 .0242931
884.495 .0242831
885.160 .0242741
885.825 .0242658
886.490 .0242586
887.154 .0242528
887.818 .0242476
888.482 .0242423
889.145 .0242368
889.808 .0242304
890.471 .0242231
891.133 .0242150
891.795 .0242061
892.456 .0241966
893.117 .0241872
893.778 .0241781
894.439 .0241693
895.099 .0241609
895.758 .0241528
896.417 .0241441
897.076 .0241347
897.735 .0241247
898.393 .0241138
899.051 .0241025
899.708 .0240914
900.365 .0240807
901.022 .0240707
901.678 .0240618
902.334 .0240538
902.990 .0240469
903.645 .0240410
904.300 .0240359
904.954 .0240306
905.608 .0240256
906.262 .0240207
906.915 .0240154
907.568 .0240096
908.221 .0240034
908.873 .0239969
909.525 .0239898
910.176 .0239826
910.828 .0239754
911.478 .0239684
912.129 .0239615
912.778 .0239543
913.428 .0239464
914.077 .0239378
914.726 .0239286
915.375 .0239181
916.023 .0239073
916.670 .0238967
917.318 .0238861
917.964 .0238764
918.611 .0238679
919.257 .0238609
919.903 .0238550
920.548 .0238500
921.193 .0238458
921.838 .0238421
922.482 .0238390
923.126 .0238363
923.770 .0238337
924.413 .0238319
925.056 .0238302
925.698 .0238292
926.340 .0238287
926.982 .0238288
927.623 .0238288
928.264 .0238289
928.904 .0238280
929.544 .0238261
930.184 .0238225
930.823 .0238172
931.462 .0238100
932.101 .0238013
932.739 .0237909
933.377 .0237796
934.014 .0237674
934.651 .0237551
935.288 .0237425
935.924 .0237301
936.560 .0237171
937.196 .0237044
937.831 .0236912
938.466 .0236776
939.100 .0236636
939.734 .0236494
940.368 .0236352
941.001 .0236216
941.634 .0236086
942.266 .0235966
942.899 .0235851
943.530 .0235743
944.162 .0235634
944.793 .0235525
945.423 .0235409
946.053 .0235288
946.683 .0235158
947.313 .0235021
947.942 .0234876
948.571 .0234727
949.199 .0234578
949.827 .0234435
950.455 .0234300
951.082 .0234173
951.709 .0234053
952.335 .0233941
952.961 .0233828
953.587 .0233717
954.212 .0233601
954.837 .0233478
955.462 .0233346
956.086 .0233210
956.710 .0233076
957.334 .0232945
957.957 .0232820
958.579 .0232706
959.202 .0232599
959.824 .0232500
960.445 .0232398
961.067 .0232294
961.688 .0232184
962.308 .0232072
962.928 .0231958
963.548 .0231845
964.168 .0231736
964.787 .0231632
965.406 .0231535
966.024 .0231449
966.642 .0231364
967.260 .0231283
967.877 .0231201
968.494 .0231120
969.110 .0231032
969.727 .0230937
970.342 .0230840
970.958 .0230749
971.573 .0230667
972.188 .0230593
972.802 .0230529
973.416 .0230474
974.030 .0230425
974.643 .0230380
975.256 .0230336
975.869 .0230293
976.481 .0230247
977.093 .0230205
977.705 .0230167
978.316 .0230139
978.927 .0230118
979.538 .0230108
980.148 .0230104
980.758 .0230097
981.367 .0230085
981.977 .0230066
982.586 .0230043
983.194 .0230022
983.802 .0230005
984.410 .0229993
985.018 .0229991
985.625 .0229995
986.232 .0230000
986.838 .0230001
987.445 .0229992
988.050 .0229967
988.656 .0229927
989.261 .0229881
989.866 .0229828
990.471 .0229773
991.075 .0229728
991.679 .0229684
992.282 .0229647
992.886 .0229613
993.489 .0229577
994.091 .0229533
994.694 .0229484
995.296 .0229424
995.897 .0229358
996.499 .0229290
997.100 .0229220
997.701 .0229152
998.301 .0229090
998.901 .0229031
999.501 .0228968
1000.101 .0228905
1000.700 .0228841
1001.299 .0228765
1001.898 .0228685
1002.496 .0228593
1003.094 .0228493
1003.692 .0228388
1004.289 .0228278
1004.887 .0228171
1005.484 .0228070
1006.080 .0227981
1006.677 .0227903
1007.273 .0227843
1007.868 .0227797
1008.464 .0227766
1009.059 .0227747
1009.654 .0227741
1010.249 .0227743
1010.843 .0227753
1011.437 .0227773
1012.031 .0227799
1012.625 .0227833
1013.218 .0227871
1013.811 .0227909
1014.404 .0227949
1014.997 .0227978
1015.589 .0228001
1016.181 .0228013
1016.773 .0228021
1017.365 .0228023
1017.956 .0228021
1018.547 .0228016
1019.138 .0228011
1019.728 .0228006
1020.319 .0228000
1020.909 .0227996
1021.499 .0227992
1022.088 .0227991
1022.678 .0227989
1023.267 .0227992
1023.856 .0227992
1024.445 .0227992
1025.033 .0227990
1025.621 .0227980
1026.209 .0227962
1026.797 .0227934
1027.385 .0227893
1027.972 .0227847
1028.560 .0227794
1029.147 .0227738
1029.734 .0227673
1030.320 .0227612
1030.907 .0227547
1031.493 .0227482
1032.079 .0227410
1032.665 .0227337
1033.250 .0227262
1033.836 .0227193
1034.421 .0227128
1035.006 .0227070
1035.591 .0227019
1036.176 .0226972
1036.761 .0226923
1037.345 .0226873
1037.929 .0226819
1038.514 .0226761
1039.097 .0226701
1039.681 .0226652
1040.265 .0226606
1040.848 .0226574
1041.432 .0226551
1042.015 .0226546
1042.598 .0226549
1043.181 .0226560
1043.764 .0226576
1044.346 .0226591
1044.929 .0226613
1045.511 .0226632
1046.094 .0226656
1046.676 .0226689
1047.258 .0226720
1047.840 .0226754
1048.422 .0226792
1049.003 .0226840
1049.585 .0226892
1050.166 .0226946
1050.748 .0227001
1051.329 .0227046
1051.910 .0227074
1052.491 .0227077
1053.072 .0227058
1053.653 .0227012
1054.234 .0226947
1054.815 .0226853
1055.396 .0226755
1055.976 .0226643
1056.557 .0226529
1057.138 .0226416
1057.718 .0226307
1058.298 .0226196
1058.879 .0226075
1059.459 .0225945
1060.039 .0225809
1060.620 .0225665
1061.200 .0225526
1061.780 .0225388
1062.360 .0225267
1062.940 .0225162
1063.520 .0225076
1064.101 .0224997
1064.681 .0224936
1065.261 .0224871
1065.841 .0224807
1066.421 .0224732
1067.001 .0224644
1067.581 .0224543
1068.161 .0224438
1068.741 .0224334
1069.321 .0224213
1069.901 .0224091
1070.482 .0223954
1071.062 .0223788
1071.642 .0223607
1072.222 .0223408
1072.803 .0223188
1073.383 .0222957
1073.963 .0222736
1074.544 .0222526
1075.124 .0222358
1075.705 .0222235
1076.286 .0222151
1076.866 .0222129
1077.447 .0222144
1078.028 .0222173
1078.609 .0222195
1079.190 .0222240
1079.771 .0222270
1080.352 .0222286
1080.934 .0222308
1081.515 .0222346
1082.097 .0222408
1082.679 .0222500
1083.260 .0222617
1083.842 .0222753
1084.424 .0222897
1085.007 .0223018
1085.589 .0223096
1086.172 .0223143
1086.754 .0223159
1087.337 .0223137
1087.920 .0223101
1088.503 .0223086
1089.087 .0223078
1089.670 .0223089
1090.254 .0223139
1090.838 .0223197
1091.422 .0223270
1092.006 .0223327
1092.590 .0223371
1093.175 .0223396
1093.760 .0223401
1094.345 .0223374
1094.930 .0223326
1095.516 .0223270
1096.102 .0223207
1096.688 .0223105
1097.274 .0223007
1097.860 .0222899
1098.447 .0222787
1099.034 .0222672
1099.622 .0222562
1100.209 .0222479
1100.797 .0222433
1101.385 .0222381
1101.973 .0222357
1102.562 .0222332
1103.151 .0222307
1103.740 .0222266
1104.330 .0222220
1104.920 .0222171
1105.510 .0222125
1106.101 .0222099
1106.691 .0222105
1107.283 .0222143
1107.874 .0222232
1108.466 .0222334
1109.058 .0222492
1109.651 .0222694
1110.244 .0222889
1110.837 .0223087
1111.431 .0223304
1112.025 .0223495
1112.620 .0223663
1113.215 .0223811
1113.810 .0223947
1114.406 .0224094
1115.002 .0224252
1115.599 .0224421
1116.196 .0224594
1116.793 .0224778
1117.391 .0224932
1117.989 .0225043
1118.588 .0225118
1119.187 .0225106
1119.787 .0225017
1120.387 .0224889
1120.988 .0224719
1121.589 .0224526
1122.190 .0224342
1122.793 .0224193
1123.395 .0224058
1123.998 .0223962
1124.602 .0223872
1125.206 .0223802
1125.811 .0223770
1126.416 .0223745
1127.022 .0223724
1127.628 .0223746
1128.235 .0223811
1128.843 .0223898
1129.451 .0224012
1130.059 .0224137
1130.669 .0224242
1131.278 .0224346
1131.889 .0224420
1132.500 .0224478
1133.112 .0224552
1133.724 .0224680
1134.337 .0224858
1134.950 .0225125
1135.564 .0225496
1136.179 .0225969
1136.795 .0226547
1137.411 .0227222
1138.028 .0227960
1138.645 .0228773
1139.263 .0229676
1139.882 .0230662
1140.502 .0231762
1141.122 .0233016
1141.743 .0234438
1142.365 .0235874
1142.987 .0236949
1143.611 .0239604
1144.235 .0241709
1144.859 .0243995
1145.485 .0241561
