Measurement Sequence started on: 10-20-44-796
Integration time: 35
Scans to Average: 2 
>>>>>Begin Spectral Data<<<<<
432.953 .0142310
433.882 .0260820
434.810 .0326482
435.737 .0385108
436.662 .0394814
437.586 .0378873
438.509 .0395651
439.431 .0404847
440.351 .0409828
441.269 .0412132
442.187 .0413468
443.103 .0413915
444.018 .0413888
444.932 .0413211
445.844 .0411868
446.756 .0410022
447.666 .0408169
448.575 .0406180
449.482 .0404398
450.388 .0402901
451.294 .0401607
452.198 .0400537
453.100 .0399605
454.002 .0399004
454.902 .0398572
455.801 .0398297
456.699 .0398042
457.596 .0397842
458.492 .0397576
459.387 .0397173
460.280 .0396678
461.172 .0396024
462.064 .0395316
462.954 .0394542
463.843 .0393749
464.730 .0392985
465.617 .0392336
466.503 .0391791
467.387 .0391254
468.271 .0390697
469.153 .0390063
470.035 .0389269
470.915 .0388431
471.794 .0387511
472.673 .0386565
473.550 .0385706
474.426 .0384975
475.301 .0384365
476.175 .0383921
477.048 .0383570
477.920 .0383283
478.791 .0382999
479.661 .0382729
480.530 .0382318
481.398 .0381837
482.266 .0381364
483.132 .0380909
483.997 .0380505
484.861 .0380234
485.724 .0380090
486.587 .0380077
487.448 .0380117
488.308 .0380180
489.168 .0380203
490.026 .0380155
490.884 .0380001
491.741 .0379698
492.597 .0379301
493.452 .0378815
494.306 .0378271
495.159 .0377733
496.011 .0377234
496.862 .0376760
497.713 .0376282
498.562 .0375761
499.411 .0375204
500.259 .0374529
501.106 .0373770
501.952 .0372938
502.798 .0372027
503.642 .0371071
504.486 .0370145
505.329 .0369238
506.171 .0368387
507.012 .0367595
507.852 .0366809
508.692 .0365960
509.531 .0365022
510.369 .0363917
511.206 .0362617
512.043 .0361148
512.878 .0359493
513.713 .0357687
514.547 .0355777
515.381 .0353821
516.213 .0351873
517.045 .0350031
517.876 .0348263
518.706 .0346610
519.536 .0345091
520.365 .0343726
521.193 .0342416
522.020 .0341251
522.847 .0340115
523.673 .0339051
524.498 .0338038
525.323 .0337000
526.146 .0336044
526.969 .0335169
527.792 .0334323
528.614 .0333546
529.435 .0332783
530.255 .0331973
531.075 .0330945
531.894 .0329786
532.712 .0328194
533.530 .0326166
534.347 .0323744
535.163 .0320947
535.979 .0318008
536.794 .0315057
537.608 .0312284
538.422 .0309808
539.235 .0307803
540.048 .0306078
540.860 .0304635
541.671 .0303513
542.481 .0302523
543.292 .0301583
544.101 .0300762
544.910 .0300033
545.718 .0299503
546.526 .0299218
547.333 .0299321
548.139 .0299757
548.945 .0300615
549.750 .0301723
550.555 .0303144
551.359 .0304674
552.162 .0306265
552.965 .0307755
553.768 .0309176
554.569 .0310465
555.371 .0311537
556.171 .0312435
556.972 .0313258
557.771 .0314036
558.570 .0314764
559.369 .0315401
560.167 .0316073
560.964 .0316717
561.761 .0317328
562.558 .0317921
563.354 .0318508
564.149 .0319078
564.944 .0319629
565.738 .0320125
566.532 .0320587
567.325 .0321068
568.118 .0321554
568.910 .0322070
569.702 .0322618
570.494 .0323193
571.285 .0323796
572.075 .0324399
572.865 .0325029
573.654 .0325593
574.443 .0326107
575.232 .0326574
576.020 .0326969
576.807 .0327336
577.594 .0327690
578.381 .0328065
579.167 .0328465
579.952 .0328876
580.738 .0329325
581.522 .0329785
582.307 .0330242
583.091 .0330679
583.874 .0331078
584.657 .0331408
585.440 .0331687
586.222 .0331888
587.004 .0332065
587.785 .0332220
588.566 .0332346
589.346 .0332434
590.126 .0332483
590.906 .0332504
591.685 .0332497
592.464 .0332438
593.242 .0332375
594.020 .0332298
594.797 .0332217
595.575 .0332122
596.351 .0332029
597.128 .0331928
597.904 .0331816
598.679 .0331697
599.454 .0331578
600.229 .0331455
601.004 .0331352
601.778 .0331266
602.551 .0331202
603.325 .0331139
604.097 .0331074
604.870 .0330979
605.642 .0330880
606.414 .0330746
607.185 .0330573
607.956 .0330381
608.727 .0330191
609.497 .0330003
610.267 .0329815
611.037 .0329625
611.806 .0329444
612.575 .0329247
613.344 .0329028
614.112 .0328766
614.880 .0328483
615.647 .0328173
616.414 .0327852
617.181 .0327517
617.948 .0327189
618.714 .0326870
619.480 .0326568
620.245 .0326265
621.011 .0325958
621.775 .0325629
622.540 .0325275
623.304 .0324907
624.068 .0324527
624.832 .0324125
625.595 .0323721
626.358 .0323313
627.120 .0322906
627.883 .0322488
628.645 .0322070
629.406 .0321647
630.168 .0321227
630.929 .0320799
631.689 .0320357
632.450 .0319911
633.210 .0319481
633.970 .0319055
634.729 .0318656
635.489 .0318280
636.248 .0317932
637.006 .0317604
637.765 .0317301
638.523 .0317016
639.280 .0316746
640.038 .0316484
640.795 .0316228
641.552 .0315968
642.309 .0315717
643.065 .0315471
643.821 .0315249
644.577 .0315049
645.332 .0314871
646.088 .0314702
646.843 .0314544
647.597 .0314380
648.352 .0314208
649.106 .0314019
649.860 .0313814
650.613 .0313596
651.367 .0313375
652.120 .0313157
652.872 .0312956
653.625 .0312776
654.377 .0312622
655.129 .0312488
655.881 .0312369
656.632 .0312253
657.384 .0312134
658.135 .0312013
658.885 .0311884
659.636 .0311753
660.386 .0311628
661.136 .0311512
661.885 .0311410
662.635 .0311327
663.384 .0311258
664.133 .0311198
664.881 .0311144
665.630 .0311090
666.378 .0311027
667.126 .0310961
667.874 .0310883
668.621 .0310805
669.368 .0310728
670.115 .0310653
670.862 .0310573
671.608 .0310498
672.354 .0310424
673.100 .0310337
673.846 .0310239
674.591 .0310137
675.337 .0310031
676.082 .0309921
676.826 .0309803
677.571 .0309684
678.315 .0309564
679.059 .0309438
679.803 .0309298
680.547 .0309154
681.290 .0309001
682.033 .0308831
682.776 .0308645
683.518 .0308448
684.261 .0308238
685.003 .0308015
685.745 .0307780
686.487 .0307532
687.228 .0307272
687.969 .0306998
688.710 .0306712
689.451 .0306425
690.192 .0306139
690.932 .0305842
691.672 .0305550
692.412 .0305265
693.152 .0304974
693.891 .0304676
694.630 .0304372
695.369 .0304066
696.108 .0303758
696.846 .0303448
697.585 .0303136
698.323 .0302837
699.061 .0302558
699.798 .0302283
700.536 .0302014
701.273 .0301748
702.010 .0301476
702.746 .0301193
703.483 .0300901
704.219 .0300597
704.955 .0300281
705.691 .0299965
706.427 .0299641
707.162 .0299318
707.897 .0298992
708.632 .0298665
709.367 .0298342
710.101 .0298022
710.835 .0297694
711.569 .0297364
712.303 .0297033
713.037 .0296707
713.770 .0296381
714.503 .0296063
715.236 .0295754
715.969 .0295460
716.702 .0295180
717.434 .0294913
718.166 .0294653
718.898 .0294403
719.629 .0294151
720.361 .0293906
721.092 .0293658
721.823 .0293409
722.554 .0293162
723.284 .0292924
724.014 .0292685
724.744 .0292454
725.474 .0292222
726.204 .0292002
726.933 .0291787
727.662 .0291569
728.391 .0291348
729.120 .0291130
729.849 .0290912
730.577 .0290696
731.305 .0290486
732.033 .0290294
732.760 .0290108
733.488 .0289934
734.215 .0289763
734.942 .0289599
735.669 .0289439
736.395 .0289287
737.122 .0289136
737.848 .0288992
738.573 .0288852
739.299 .0288722
740.024 .0288604
740.750 .0288498
741.474 .0288403
742.199 .0288322
742.924 .0288250
743.648 .0288195
744.372 .0288153
745.096 .0288134
745.819 .0288137
746.543 .0288162
747.266 .0288196
747.989 .0288240
748.711 .0288282
749.434 .0288319
750.156 .0288350
750.878 .0288374
751.599 .0288390
752.321 .0288410
753.042 .0288443
753.763 .0288494
754.484 .0288565
755.205 .0288657
755.925 .0288758
756.645 .0288861
757.365 .0288955
758.085 .0289034
758.804 .0289096
759.523 .0289141
760.242 .0289172
760.961 .0289190
761.679 .0289199
762.397 .0289194
763.115 .0289175
763.833 .0289138
764.551 .0289073
765.268 .0288979
765.985 .0288853
766.702 .0288704
767.418 .0288539
768.134 .0288362
768.850 .0288179
769.566 .0287997
770.282 .0287815
770.997 .0287642
771.712 .0287480
772.427 .0287330
773.142 .0287193
773.856 .0287074
774.570 .0286971
775.284 .0286882
775.998 .0286804
776.711 .0286742
777.424 .0286685
778.137 .0286631
778.849 .0286567
779.562 .0286491
780.274 .0286406
780.986 .0286311
781.697 .0286203
782.409 .0286087
783.120 .0285962
783.831 .0285835
784.541 .0285704
785.252 .0285578
785.962 .0285447
786.671 .0285316
787.381 .0285184
788.090 .0285047
788.799 .0284897
789.508 .0284737
790.217 .0284566
790.925 .0284387
791.633 .0284205
792.341 .0284013
793.048 .0283818
793.755 .0283620
794.462 .0283416
795.169 .0283201
795.875 .0282974
796.581 .0282739
797.287 .0282488
797.993 .0282231
798.698 .0281969
799.403 .0281703
800.108 .0281446
800.812 .0281197
801.517 .0280957
802.221 .0280731
802.924 .0280517
803.628 .0280311
804.331 .0280121
805.034 .0279944
805.736 .0279776
806.439 .0279621
807.141 .0279474
807.843 .0279327
808.544 .0279175
809.245 .0279021
809.946 .0278856
810.647 .0278690
811.347 .0278526
812.047 .0278354
812.747 .0278183
813.447 .0278008
814.146 .0277822
814.845 .0277629
815.543 .0277423
816.242 .0277201
816.940 .0276965
817.638 .0276716
818.335 .0276462
819.032 .0276207
819.729 .0275960
820.426 .0275715
821.122 .0275471
821.818 .0275230
822.514 .0274985
823.209 .0274738
823.905 .0274493
824.599 .0274244
825.294 .0274000
825.988 .0273762
826.682 .0273525
827.376 .0273291
828.069 .0273065
828.762 .0272840
829.455 .0272618
830.147 .0272396
830.840 .0272176
831.531 .0271960
832.223 .0271759
832.914 .0271568
833.605 .0271387
834.296 .0271227
834.986 .0271079
835.676 .0270938
836.366 .0270813
837.055 .0270696
837.744 .0270585
838.433 .0270477
839.121 .0270375
839.809 .0270274
840.497 .0270181
841.185 .0270092
841.872 .0270006
842.559 .0269926
843.245 .0269849
843.932 .0269774
844.617 .0269704
845.303 .0269641
845.988 .0269579
846.673 .0269514
847.358 .0269454
848.042 .0269392
848.726 .0269333
849.410 .0269283
850.093 .0269246
850.776 .0269216
851.459 .0269192
852.141 .0269171
852.823 .0269149
853.505 .0269123
854.186 .0269089
854.867 .0269044
855.548 .0268987
856.228 .0268920
856.908 .0268843
857.588 .0268767
858.267 .0268693
858.946 .0268615
859.625 .0268538
860.303 .0268457
860.981 .0268370
861.659 .0268277
862.336 .0268184
863.013 .0268100
863.690 .0268019
864.366 .0267950
865.042 .0267891
865.718 .0267848
866.393 .0267823
867.068 .0267809
867.743 .0267807
868.417 .0267809
869.091 .0267806
869.765 .0267799
870.438 .0267784
871.111 .0267762
871.783 .0267731
872.456 .0267691
873.127 .0267641
873.799 .0267585
874.470 .0267522
875.141 .0267457
875.811 .0267393
876.481 .0267332
877.151 .0267269
877.820 .0267210
878.489 .0267157
879.158 .0267106
879.826 .0267060
880.494 .0267021
881.162 .0266984
881.829 .0266953
882.496 .0266923
883.163 .0266893
883.829 .0266865
884.495 .0266833
885.160 .0266799
885.825 .0266760
886.490 .0266726
887.154 .0266697
887.818 .0266679
888.482 .0266675
889.145 .0266684
889.808 .0266707
890.471 .0266744
891.133 .0266784
891.795 .0266823
892.456 .0266861
893.117 .0266900
893.778 .0266937
894.439 .0266983
895.099 .0267033
895.758 .0267095
896.417 .0267170
897.076 .0267249
897.735 .0267329
898.393 .0267410
899.051 .0267485
899.708 .0267544
900.365 .0267587
901.022 .0267619
901.678 .0267634
902.334 .0267645
902.990 .0267648
903.645 .0267643
904.300 .0267630
904.954 .0267606
905.608 .0267567
906.262 .0267518
906.915 .0267463
907.568 .0267398
908.221 .0267329
908.873 .0267258
909.525 .0267179
910.176 .0267093
910.828 .0266998
911.478 .0266892
912.129 .0266768
912.778 .0266635
913.428 .0266487
914.077 .0266340
914.726 .0266194
915.375 .0266057
916.023 .0265934
916.670 .0265826
917.318 .0265722
917.964 .0265610
918.611 .0265485
919.257 .0265348
919.903 .0265188
920.548 .0265014
921.193 .0264829
921.838 .0264652
922.482 .0264481
923.126 .0264325
923.770 .0264183
924.413 .0264060
925.056 .0263946
925.698 .0263833
926.340 .0263709
926.982 .0263583
927.623 .0263450
928.264 .0263319
928.904 .0263188
929.544 .0263068
930.184 .0262950
930.823 .0262833
931.462 .0262704
932.101 .0262560
932.739 .0262390
933.377 .0262194
934.014 .0261973
934.651 .0261736
935.288 .0261486
935.924 .0261234
936.560 .0260993
937.196 .0260771
937.831 .0260565
938.466 .0260371
939.100 .0260177
939.734 .0259982
940.368 .0259775
941.001 .0259564
941.634 .0259345
942.266 .0259130
942.899 .0258920
943.530 .0258716
944.162 .0258520
944.793 .0258328
945.423 .0258138
946.053 .0257939
946.683 .0257727
947.313 .0257499
947.942 .0257244
948.571 .0256975
949.199 .0256693
949.827 .0256413
950.455 .0256137
951.082 .0255875
951.709 .0255622
952.335 .0255382
952.961 .0255157
953.587 .0254934
954.212 .0254717
954.837 .0254506
955.462 .0254290
956.086 .0254071
956.710 .0253848
957.334 .0253622
957.957 .0253395
958.579 .0253171
959.202 .0252938
959.824 .0252691
960.445 .0252430
961.067 .0252150
961.688 .0251858
962.308 .0251560
962.928 .0251258
963.548 .0250950
964.168 .0250648
964.787 .0250349
965.406 .0250058
966.024 .0249786
966.642 .0249521
967.260 .0249269
967.877 .0249033
968.494 .0248800
969.110 .0248579
969.727 .0248369
970.342 .0248172
970.958 .0247986
971.573 .0247817
972.188 .0247655
972.802 .0247499
973.416 .0247352
974.030 .0247211
974.643 .0247068
975.256 .0246932
975.869 .0246794
976.481 .0246655
977.093 .0246527
977.705 .0246409
978.316 .0246296
978.927 .0246202
979.538 .0246111
980.148 .0246017
980.758 .0245923
981.367 .0245825
981.977 .0245722
982.586 .0245623
983.194 .0245529
983.802 .0245436
984.410 .0245346
985.018 .0245268
985.625 .0245183
986.232 .0245098
986.838 .0245004
987.445 .0244894
988.050 .0244779
988.656 .0244661
989.261 .0244539
989.866 .0244423
990.471 .0244325
991.075 .0244242
991.679 .0244167
992.282 .0244110
992.886 .0244057
993.489 .0244009
994.091 .0243962
994.694 .0243911
995.296 .0243860
995.897 .0243811
996.499 .0243761
997.100 .0243713
997.701 .0243665
998.301 .0243611
998.901 .0243547
999.501 .0243479
1000.101 .0243396
1000.700 .0243298
1001.299 .0243190
1001.898 .0243081
1002.496 .0242970
1003.094 .0242870
1003.692 .0242776
1004.289 .0242706
1004.887 .0242655
1005.484 .0242614
1006.080 .0242585
1006.677 .0242568
1007.273 .0242553
1007.868 .0242542
1008.464 .0242528
1009.059 .0242521
1009.654 .0242517
1010.249 .0242530
1010.843 .0242557
1011.437 .0242602
1012.031 .0242661
1012.625 .0242730
1013.218 .0242803
1013.811 .0242881
1014.404 .0242950
1014.997 .0243026
1015.589 .0243102
1016.181 .0243182
1016.773 .0243266
1017.365 .0243359
1017.956 .0243459
1018.547 .0243565
1019.138 .0243656
1019.728 .0243738
1020.319 .0243799
1020.909 .0243845
1021.499 .0243868
1022.088 .0243881
1022.678 .0243876
1023.267 .0243860
1023.856 .0243829
1024.445 .0243782
1025.033 .0243720
1025.621 .0243653
1026.209 .0243586
1026.797 .0243522
1027.385 .0243464
1027.972 .0243426
1028.560 .0243421
1029.147 .0243444
1029.734 .0243501
1030.320 .0243583
1030.907 .0243678
1031.493 .0243771
1032.079 .0243854
1032.665 .0243920
1033.250 .0243975
1033.836 .0244016
1034.421 .0244055
1035.006 .0244092
1035.591 .0244145
1036.176 .0244195
1036.761 .0244252
1037.345 .0244314
1037.929 .0244354
1038.514 .0244371
1039.097 .0244374
1039.681 .0244364
1040.265 .0244360
1040.848 .0244369
1041.432 .0244416
1042.015 .0244501
1042.598 .0244619
1043.181 .0244761
1043.764 .0244913
1044.346 .0245086
1044.929 .0245253
1045.511 .0245405
1046.094 .0245558
1046.676 .0245704
1047.258 .0245844
1047.840 .0245979
1048.422 .0246096
1049.003 .0246201
1049.585 .0246277
1050.166 .0246332
1050.748 .0246364
1051.329 .0246383
1051.910 .0246405
1052.491 .0246447
1053.072 .0246513
1053.653 .0246604
1054.234 .0246687
1054.815 .0246772
1055.396 .0246833
1055.976 .0246860
1056.557 .0246844
1057.138 .0246797
1057.718 .0246747
1058.298 .0246700
1058.879 .0246668
1059.459 .0246672
1060.039 .0246711
1060.620 .0246782
1061.200 .0246849
1061.780 .0246898
1062.360 .0246910
1062.940 .0246880
1063.520 .0246809
1064.101 .0246709
1064.681 .0246592
1065.261 .0246483
1065.841 .0246392
1066.421 .0246333
1067.001 .0246314
1067.581 .0246324
1068.161 .0246368
1068.741 .0246428
1069.321 .0246480
1069.901 .0246510
1070.482 .0246523
1071.062 .0246520
1071.642 .0246509
1072.222 .0246513
1072.803 .0246535
1073.383 .0246604
1073.963 .0246724
1074.544 .0246890
1075.124 .0247099
1075.705 .0247334
1076.286 .0247592
1076.866 .0247820
1077.447 .0248027
1078.028 .0248194
1078.609 .0248340
1079.190 .0248484
1079.771 .0248623
1080.352 .0248767
1080.934 .0248907
1081.515 .0249043
1082.097 .0249178
1082.679 .0249292
1083.260 .0249387
1083.842 .0249439
1084.424 .0249459
1085.007 .0249418
1085.589 .0249325
1086.172 .0249160
1086.754 .0248960
1087.337 .0248745
1087.920 .0248518
1088.503 .0248280
1089.087 .0248025
1089.670 .0247786
1090.254 .0247541
1090.838 .0247286
1091.422 .0246989
1092.006 .0246630
1092.590 .0246246
1093.175 .0245807
1093.760 .0245364
1094.345 .0244968
1094.930 .0244663
1095.516 .0244482
1096.102 .0244405
1096.688 .0244456
1097.274 .0244576
1097.860 .0244779
1098.447 .0245004
1099.034 .0245220
1099.622 .0245437
1100.209 .0245634
1100.797 .0245820
1101.385 .0246035
1101.973 .0246313
1102.562 .0246633
1103.151 .0247006
1103.740 .0247414
1104.330 .0247796
1104.920 .0248136
1105.510 .0248423
1106.101 .0248642
1106.691 .0248795
1107.283 .0248912
1107.874 .0248970
1108.466 .0249022
1109.058 .0249136
1109.651 .0249251
1110.244 .0249399
1110.837 .0249576
1111.431 .0249773
1112.025 .0249937
1112.620 .0250096
1113.215 .0250229
1113.810 .0250321
1114.406 .0250466
1115.002 .0250596
1115.599 .0250685
1116.196 .0250831
1116.793 .0250975
1117.391 .0251098
1117.989 .0251195
1118.588 .0251254
1119.187 .0251240
1119.787 .0251151
1120.387 .0251006
1120.988 .0250757
1121.589 .0250472
1122.190 .0250195
1122.793 .0249896
1123.395 .0249654
1123.998 .0249529
1124.602 .0249422
1125.206 .0249412
1125.811 .0249493
1126.416 .0249569
1127.022 .0249615
1127.628 .0249632
1128.235 .0249624
1128.843 .0249561
1129.451 .0249472
1130.059 .0249416
1130.669 .0249399
1131.278 .0249564
1131.889 .0249860
1132.500 .0250258
1133.112 .0250792
1133.724 .0251341
1134.337 .0251837
1134.950 .0252249
1135.564 .0252530
1136.179 .0252684
1136.795 .0252750
1137.411 .0252804
1138.028 .0252873
1138.645 .0253065
1139.263 .0253427
1139.882 .0253836
1140.502 .0254245
1141.122 .0254628
1141.743 .0254855
1142.365 .0254957
1142.987 .0254984
1143.611 .0253863
1144.235 .0254604
1144.859 .0253516
1145.485 .0253836
