Measurement Sequence started on: 10-20-44-796
Integration time: 35
Scans to Average: 2 
>>>>>Begin Spectral Data<<<<<
432.953 .0338586
433.882 .0373839
434.810 .0369070
435.737 .0346252
436.662 .0346814
437.586 .0346915
438.509 .0344185
439.431 .0340750
440.351 .0337939
441.269 .0336163
442.187 .0334614
443.103 .0333285
444.018 .0332314
444.932 .0331627
445.844 .0330899
446.756 .0329944
447.666 .0329000
448.575 .0327976
449.482 .0327004
450.388 .0326247
451.294 .0325694
452.198 .0325422
453.100 .0325393
454.002 .0325565
454.902 .0325799
455.801 .0326042
456.699 .0326300
457.596 .0326554
458.492 .0326745
459.387 .0326877
460.280 .0326987
461.172 .0326983
462.064 .0326918
462.954 .0326713
463.843 .0326307
464.730 .0325839
465.617 .0325288
466.503 .0324715
467.387 .0324151
468.271 .0323634
469.153 .0323203
470.035 .0322820
470.915 .0322502
471.794 .0322151
472.673 .0321768
473.550 .0321406
474.426 .0321037
475.301 .0320712
476.175 .0320484
477.048 .0320327
477.920 .0320268
478.791 .0320308
479.661 .0320395
480.530 .0320493
481.398 .0320543
482.266 .0320505
483.132 .0320369
483.997 .0320089
484.861 .0319728
485.724 .0319297
486.587 .0318880
487.448 .0318502
488.308 .0318141
489.168 .0317835
490.026 .0317564
490.884 .0317307
491.741 .0317048
492.597 .0316767
493.452 .0316450
494.306 .0316078
495.159 .0315675
496.011 .0315243
496.862 .0314786
497.713 .0314317
498.562 .0313816
499.411 .0313277
500.259 .0312709
501.106 .0312076
501.952 .0311375
502.798 .0310645
503.642 .0309865
504.486 .0308994
505.329 .0308064
506.171 .0307067
507.012 .0306000
507.852 .0304876
508.692 .0303681
509.531 .0302446
510.369 .0301199
511.206 .0299968
512.043 .0298727
512.878 .0297492
513.713 .0296284
514.547 .0295024
515.381 .0293698
516.213 .0292278
517.045 .0290736
517.876 .0289043
518.706 .0287228
519.536 .0285342
520.365 .0283356
521.193 .0281350
522.020 .0279365
522.847 .0277374
523.673 .0275347
524.498 .0273257
525.323 .0271111
526.146 .0268915
526.969 .0266731
527.792 .0264517
528.614 .0262359
529.435 .0260362
530.255 .0258494
531.075 .0256712
531.894 .0255149
532.712 .0253803
533.530 .0252613
534.347 .0251655
535.163 .0250902
535.979 .0250367
536.794 .0250106
537.608 .0250026
538.422 .0250119
539.235 .0250339
540.048 .0250675
540.860 .0251005
541.671 .0251374
542.481 .0251745
543.292 .0252098
544.101 .0252484
544.910 .0252962
545.718 .0253473
546.526 .0254093
547.333 .0254798
548.139 .0255574
548.945 .0256375
549.750 .0257175
550.555 .0257935
551.359 .0258695
552.162 .0259390
552.965 .0260114
553.768 .0260834
554.569 .0261630
555.371 .0262492
556.171 .0263440
556.972 .0264440
557.771 .0265443
558.570 .0266422
559.369 .0267356
560.167 .0268208
560.964 .0268962
561.761 .0269640
562.558 .0270281
563.354 .0270897
564.149 .0271503
564.944 .0272121
565.738 .0272791
566.532 .0273485
567.325 .0274181
568.118 .0274852
568.910 .0275479
569.702 .0276054
570.494 .0276577
571.285 .0277078
572.075 .0277583
572.865 .0278085
573.654 .0278614
574.443 .0279164
575.232 .0279728
576.020 .0280277
576.807 .0280825
577.594 .0281375
578.381 .0281932
579.167 .0282492
579.952 .0283055
580.738 .0283657
581.522 .0284301
582.307 .0284939
583.091 .0285569
583.874 .0286182
584.657 .0286768
585.440 .0287295
586.222 .0287767
587.004 .0288200
587.785 .0288599
588.566 .0288983
589.346 .0289349
590.126 .0289696
590.906 .0290030
591.685 .0290341
592.464 .0290622
593.242 .0290871
594.020 .0291083
594.797 .0291260
595.575 .0291402
596.351 .0291507
597.128 .0291568
597.904 .0291578
598.679 .0291545
599.454 .0291474
600.229 .0291360
601.004 .0291226
601.778 .0291083
602.551 .0290938
603.325 .0290800
604.097 .0290670
604.870 .0290554
605.642 .0290444
606.414 .0290342
607.185 .0290236
607.956 .0290133
608.727 .0290040
609.497 .0289950
610.267 .0289865
611.037 .0289790
611.806 .0289714
612.575 .0289641
613.344 .0289571
614.112 .0289501
614.880 .0289417
615.647 .0289329
616.414 .0289224
617.181 .0289099
617.948 .0288955
618.714 .0288793
619.480 .0288608
620.245 .0288413
621.011 .0288203
621.775 .0287982
622.540 .0287767
623.304 .0287562
624.068 .0287374
624.832 .0287204
625.595 .0287051
626.358 .0286908
627.120 .0286774
627.883 .0286643
628.645 .0286504
629.406 .0286357
630.168 .0286204
630.929 .0286040
631.689 .0285873
632.450 .0285698
633.210 .0285521
633.970 .0285342
634.729 .0285161
635.489 .0284970
636.248 .0284775
637.006 .0284571
637.765 .0284360
638.523 .0284138
639.280 .0283912
640.038 .0283680
640.795 .0283451
641.552 .0283228
642.309 .0283011
643.065 .0282810
643.821 .0282623
644.577 .0282449
645.332 .0282296
646.088 .0282155
646.843 .0282024
647.597 .0281902
648.352 .0281793
649.106 .0281691
649.860 .0281592
650.613 .0281499
651.367 .0281414
652.120 .0281337
652.872 .0281262
653.625 .0281183
654.377 .0281106
655.129 .0281033
655.881 .0280952
656.632 .0280863
657.384 .0280769
658.135 .0280667
658.885 .0280554
659.636 .0280428
660.386 .0280292
661.136 .0280147
661.885 .0279995
662.635 .0279844
663.384 .0279695
664.133 .0279551
664.881 .0279407
665.630 .0279264
666.378 .0279129
667.126 .0278995
667.874 .0278857
668.621 .0278721
669.368 .0278588
670.115 .0278459
670.862 .0278327
671.608 .0278208
672.354 .0278103
673.100 .0278008
673.846 .0277925
674.591 .0277849
675.337 .0277783
676.082 .0277729
676.826 .0277677
677.571 .0277630
678.315 .0277582
679.059 .0277529
679.803 .0277467
680.547 .0277397
681.290 .0277327
682.033 .0277248
682.776 .0277164
683.518 .0277080
684.261 .0276989
685.003 .0276899
685.745 .0276808
686.487 .0276717
687.228 .0276626
687.969 .0276526
688.710 .0276419
689.451 .0276302
690.192 .0276181
690.932 .0276052
691.672 .0275918
692.412 .0275785
693.152 .0275658
693.891 .0275527
694.630 .0275399
695.369 .0275270
696.108 .0275139
696.846 .0274999
697.585 .0274840
698.323 .0274664
699.061 .0274473
699.798 .0274272
700.536 .0274065
701.273 .0273853
702.010 .0273651
702.746 .0273453
703.483 .0273265
704.219 .0273090
704.955 .0272924
705.691 .0272765
706.427 .0272608
707.162 .0272453
707.897 .0272298
708.632 .0272142
709.367 .0271987
710.101 .0271834
710.835 .0271686
711.569 .0271532
712.303 .0271368
713.037 .0271200
713.770 .0271018
714.503 .0270818
715.236 .0270603
715.969 .0270378
716.702 .0270142
717.434 .0269899
718.166 .0269656
718.898 .0269412
719.629 .0269172
720.361 .0268937
721.092 .0268703
721.823 .0268475
722.554 .0268250
723.284 .0268026
724.014 .0267801
724.744 .0267577
725.474 .0267350
726.204 .0267125
726.933 .0266901
727.662 .0266685
728.391 .0266470
729.120 .0266261
729.849 .0266060
730.577 .0265861
731.305 .0265663
732.033 .0265465
732.760 .0265262
733.488 .0265055
734.215 .0264846
734.942 .0264641
735.669 .0264440
736.395 .0264255
737.122 .0264084
737.848 .0263930
738.573 .0263795
739.299 .0263672
740.024 .0263556
740.750 .0263446
741.474 .0263336
742.199 .0263221
742.924 .0263104
743.648 .0262991
744.372 .0262881
745.096 .0262783
745.819 .0262698
746.543 .0262625
747.266 .0262563
747.989 .0262514
748.711 .0262469
749.434 .0262427
750.156 .0262393
750.878 .0262357
751.599 .0262328
752.321 .0262302
753.042 .0262283
753.763 .0262269
754.484 .0262266
755.205 .0262268
755.925 .0262270
756.645 .0262275
757.365 .0262279
758.085 .0262275
758.804 .0262262
759.523 .0262232
760.242 .0262185
760.961 .0262118
761.679 .0262036
762.397 .0261929
763.115 .0261807
763.833 .0261667
764.551 .0261513
765.268 .0261347
765.985 .0261172
766.702 .0260989
767.418 .0260802
768.134 .0260615
768.850 .0260427
769.566 .0260235
770.282 .0260050
770.997 .0259870
771.712 .0259698
772.427 .0259534
773.142 .0259382
773.856 .0259239
774.570 .0259111
775.284 .0258990
775.998 .0258880
776.711 .0258781
777.424 .0258686
778.137 .0258594
778.849 .0258499
779.562 .0258402
780.274 .0258302
780.986 .0258197
781.697 .0258096
782.409 .0257997
783.120 .0257907
783.831 .0257825
784.541 .0257754
785.252 .0257693
785.962 .0257638
786.671 .0257587
787.381 .0257538
788.090 .0257488
788.799 .0257434
789.508 .0257378
790.217 .0257321
790.925 .0257264
791.633 .0257206
792.341 .0257138
793.048 .0257062
793.755 .0256974
794.462 .0256867
795.169 .0256742
795.875 .0256602
796.581 .0256454
797.287 .0256296
797.993 .0256131
798.698 .0255967
799.403 .0255804
800.108 .0255645
800.812 .0255489
801.517 .0255332
802.221 .0255183
802.924 .0255037
803.628 .0254897
804.331 .0254770
805.034 .0254655
805.736 .0254553
806.439 .0254460
807.141 .0254377
807.843 .0254300
808.544 .0254222
809.245 .0254143
809.946 .0254063
810.647 .0253982
811.347 .0253896
812.047 .0253805
812.747 .0253713
813.447 .0253618
814.146 .0253516
814.845 .0253408
815.543 .0253295
816.242 .0253176
816.940 .0253051
817.638 .0252917
818.335 .0252782
819.032 .0252644
819.729 .0252502
820.426 .0252358
821.122 .0252211
821.818 .0252060
822.514 .0251902
823.209 .0251741
823.905 .0251574
824.599 .0251401
825.294 .0251224
825.988 .0251039
826.682 .0250853
827.376 .0250661
828.069 .0250467
828.762 .0250271
829.455 .0250073
830.147 .0249873
830.840 .0249672
831.531 .0249471
832.223 .0249270
832.914 .0249068
833.605 .0248867
834.296 .0248668
834.986 .0248473
835.676 .0248279
836.366 .0248089
837.055 .0247905
837.744 .0247727
838.433 .0247551
839.121 .0247378
839.809 .0247207
840.497 .0247041
841.185 .0246883
841.872 .0246729
842.559 .0246583
843.245 .0246446
843.932 .0246318
844.617 .0246200
845.303 .0246089
845.988 .0245988
846.673 .0245889
847.358 .0245798
848.042 .0245712
848.726 .0245628
849.410 .0245550
850.093 .0245481
850.776 .0245419
851.459 .0245364
852.141 .0245312
852.823 .0245260
853.505 .0245215
854.186 .0245167
854.867 .0245117
855.548 .0245064
856.228 .0245011
856.908 .0244959
857.588 .0244905
858.267 .0244851
858.946 .0244794
859.625 .0244735
860.303 .0244670
860.981 .0244595
861.659 .0244514
862.336 .0244423
863.013 .0244326
863.690 .0244225
864.366 .0244119
865.042 .0244010
865.718 .0243899
866.393 .0243786
867.068 .0243671
867.743 .0243551
868.417 .0243425
869.091 .0243293
869.765 .0243153
870.438 .0243008
871.111 .0242860
871.783 .0242711
872.456 .0242566
873.127 .0242424
873.799 .0242291
874.470 .0242162
875.141 .0242037
875.811 .0241919
876.481 .0241802
877.151 .0241686
877.820 .0241570
878.489 .0241458
879.158 .0241354
879.826 .0241258
880.494 .0241177
881.162 .0241116
881.829 .0241074
882.496 .0241044
883.163 .0241025
883.829 .0241019
884.495 .0241017
885.160 .0241022
885.825 .0241028
886.490 .0241039
887.154 .0241055
887.818 .0241075
888.482 .0241096
889.145 .0241123
889.808 .0241153
890.471 .0241181
891.133 .0241210
891.795 .0241238
892.456 .0241261
893.117 .0241284
893.778 .0241308
894.439 .0241328
895.099 .0241337
895.758 .0241339
896.417 .0241328
897.076 .0241305
897.735 .0241270
898.393 .0241226
899.051 .0241182
899.708 .0241141
900.365 .0241102
901.022 .0241064
901.678 .0241033
902.334 .0241001
902.990 .0240967
903.645 .0240928
904.300 .0240883
904.954 .0240829
905.608 .0240769
906.262 .0240707
906.915 .0240646
907.568 .0240586
908.221 .0240534
908.873 .0240491
909.525 .0240456
910.176 .0240425
910.828 .0240403
911.478 .0240386
912.129 .0240369
912.778 .0240346
913.428 .0240313
914.077 .0240267
914.726 .0240210
915.375 .0240143
916.023 .0240071
916.670 .0240002
917.318 .0239939
917.964 .0239883
918.611 .0239836
919.257 .0239798
919.903 .0239759
920.548 .0239722
921.193 .0239685
921.838 .0239643
922.482 .0239594
923.126 .0239544
923.770 .0239494
924.413 .0239454
925.056 .0239424
925.698 .0239406
926.340 .0239397
926.982 .0239400
927.623 .0239407
928.264 .0239415
928.904 .0239417
929.544 .0239413
930.184 .0239403
930.823 .0239379
931.462 .0239341
932.101 .0239286
932.739 .0239218
933.377 .0239139
934.014 .0239043
934.651 .0238934
935.288 .0238811
935.924 .0238680
936.560 .0238539
937.196 .0238392
937.831 .0238240
938.466 .0238085
939.100 .0237927
939.734 .0237764
940.368 .0237601
941.001 .0237433
941.634 .0237265
942.266 .0237101
942.899 .0236941
943.530 .0236778
944.162 .0236614
944.793 .0236453
945.423 .0236289
946.053 .0236116
946.683 .0235936
947.313 .0235741
947.942 .0235538
948.571 .0235321
949.199 .0235093
949.827 .0234861
950.455 .0234633
951.082 .0234406
951.709 .0234179
952.335 .0233959
952.961 .0233740
953.587 .0233522
954.212 .0233310
954.837 .0233100
955.462 .0232896
956.086 .0232701
956.710 .0232520
957.334 .0232350
957.957 .0232195
958.579 .0232050
959.202 .0231912
959.824 .0231778
960.445 .0231639
961.067 .0231502
961.688 .0231368
962.308 .0231236
962.928 .0231105
963.548 .0230974
964.168 .0230842
964.787 .0230705
965.406 .0230566
966.024 .0230423
966.642 .0230281
967.260 .0230138
967.877 .0229991
968.494 .0229846
969.110 .0229702
969.727 .0229561
970.342 .0229419
970.958 .0229278
971.573 .0229135
972.188 .0228987
972.802 .0228840
973.416 .0228696
974.030 .0228559
974.643 .0228429
975.256 .0228307
975.869 .0228192
976.481 .0228083
977.093 .0227982
977.705 .0227891
978.316 .0227811
978.927 .0227740
979.538 .0227673
980.148 .0227607
980.758 .0227546
981.367 .0227491
981.977 .0227436
982.586 .0227382
983.194 .0227331
983.802 .0227276
984.410 .0227219
985.018 .0227160
985.625 .0227100
986.232 .0227037
986.838 .0226968
987.445 .0226884
988.050 .0226786
988.656 .0226681
989.261 .0226568
989.866 .0226449
990.471 .0226333
991.075 .0226222
991.679 .0226112
992.282 .0226007
992.886 .0225903
993.489 .0225799
994.091 .0225696
994.694 .0225587
995.296 .0225470
995.897 .0225345
996.499 .0225217
997.100 .0225088
997.701 .0224961
998.301 .0224842
998.901 .0224733
999.501 .0224631
1000.101 .0224545
1000.700 .0224470
1001.299 .0224404
1001.898 .0224349
1002.496 .0224299
1003.094 .0224249
1003.692 .0224199
1004.289 .0224154
1004.887 .0224113
1005.484 .0224082
1006.080 .0224068
1006.677 .0224060
1007.273 .0224062
1007.868 .0224074
1008.464 .0224085
1009.059 .0224094
1009.654 .0224098
1010.249 .0224089
1010.843 .0224066
1011.437 .0224027
1012.031 .0223971
1012.625 .0223895
1013.218 .0223812
1013.811 .0223717
1014.404 .0223619
1014.997 .0223529
1015.589 .0223445
1016.181 .0223369
1016.773 .0223309
1017.365 .0223262
1017.956 .0223222
1018.547 .0223189
1019.138 .0223152
1019.728 .0223113
1020.319 .0223079
1020.909 .0223051
1021.499 .0223030
1022.088 .0223031
1022.678 .0223055
1023.267 .0223100
1023.856 .0223171
1024.445 .0223257
1025.033 .0223341
1025.621 .0223428
1026.209 .0223503
1026.797 .0223559
1027.385 .0223602
1027.972 .0223636
1028.560 .0223668
1029.147 .0223706
1029.734 .0223750
1030.320 .0223795
1030.907 .0223845
1031.493 .0223898
1032.079 .0223942
1032.665 .0223978
1033.250 .0224003
1033.836 .0224011
1034.421 .0224008
1035.006 .0223996
1035.591 .0223965
1036.176 .0223925
1036.761 .0223882
1037.345 .0223836
1037.929 .0223799
1038.514 .0223771
1039.097 .0223760
1039.681 .0223777
1040.265 .0223820
1040.848 .0223887
1041.432 .0223969
1042.015 .0224071
1042.598 .0224186
1043.181 .0224310
1043.764 .0224442
1044.346 .0224580
1044.929 .0224732
1045.511 .0224894
1046.094 .0225063
1046.676 .0225237
1047.258 .0225407
1047.840 .0225563
1048.422 .0225699
1049.003 .0225811
1049.585 .0225893
1050.166 .0225949
1050.748 .0225983
1051.329 .0225996
1051.910 .0225989
1052.491 .0225963
1053.072 .0225923
1053.653 .0225876
1054.234 .0225819
1054.815 .0225756
1055.396 .0225703
1055.976 .0225664
1056.557 .0225638
1057.138 .0225630
1057.718 .0225640
1058.298 .0225656
1058.879 .0225663
1059.459 .0225654
1060.039 .0225621
1060.620 .0225560
1061.200 .0225470
1061.780 .0225356
1062.360 .0225238
1062.940 .0225129
1063.520 .0225018
1064.101 .0224921
1064.681 .0224834
1065.261 .0224757
1065.841 .0224668
1066.421 .0224580
1067.001 .0224488
1067.581 .0224399
1068.161 .0224322
1068.741 .0224275
1069.321 .0224269
1069.901 .0224311
1070.482 .0224394
1071.062 .0224522
1071.642 .0224676
1072.222 .0224847
1072.803 .0225002
1073.383 .0225158
1073.963 .0225289
1074.544 .0225401
1075.124 .0225487
1075.705 .0225567
1076.286 .0225646
1076.866 .0225725
1077.447 .0225799
1078.028 .0225882
1078.609 .0225964
1079.190 .0226049
1079.771 .0226125
1080.352 .0226196
1080.934 .0226256
1081.515 .0226310
1082.097 .0226356
1082.679 .0226412
1083.260 .0226470
1083.842 .0226552
1084.424 .0226649
1085.007 .0226766
1085.589 .0226890
1086.172 .0227001
1086.754 .0227095
1087.337 .0227166
1087.920 .0227203
1088.503 .0227199
1089.087 .0227150
1089.670 .0227065
1090.254 .0226938
1090.838 .0226789
1091.422 .0226608
1092.006 .0226391
1092.590 .0226161
1093.175 .0225919
1093.760 .0225679
1094.345 .0225468
1094.930 .0225295
1095.516 .0225167
1096.102 .0225099
1096.688 .0225078
1097.274 .0225096
1097.860 .0225149
1098.447 .0225241
1099.034 .0225351
1099.622 .0225482
1100.209 .0225651
1100.797 .0225836
1101.385 .0226055
1101.973 .0226302
1102.562 .0226544
1103.151 .0226778
1103.740 .0226961
1104.330 .0227091
1104.920 .0227151
1105.510 .0227160
1106.101 .0227129
1106.691 .0227071
1107.283 .0227012
1107.874 .0226965
1108.466 .0226935
1109.058 .0226926
1109.651 .0226926
1110.244 .0226929
1110.837 .0226938
1111.431 .0226948
1112.025 .0226968
1112.620 .0227007
1113.215 .0227067
1113.810 .0227180
1114.406 .0227318
1115.002 .0227475
1115.599 .0227638
1116.196 .0227781
1116.793 .0227878
1117.391 .0227903
1117.989 .0227859
1118.588 .0227752
1119.187 .0227604
1119.787 .0227422
1120.387 .0227239
1120.988 .0227080
1121.589 .0226967
1122.190 .0226886
1122.793 .0226852
1123.395 .0226861
1123.998 .0226878
1124.602 .0226911
1125.206 .0226941
1125.811 .0226978
1126.416 .0227059
1127.022 .0227167
1127.628 .0227318
1128.235 .0227495
1128.843 .0227704
1129.451 .0227918
1130.059 .0228143
1130.669 .0228345
1131.278 .0228537
1131.889 .0228696
1132.500 .0228829
1133.112 .0228920
1133.724 .0229000
1134.337 .0229078
1134.950 .0229156
1135.564 .0229282
1136.179 .0229437
1136.795 .0229633
1137.411 .0229913
1138.028 .0230244
1138.645 .0230659
1139.263 .0231129
1139.882 .0231593
1140.502 .0232172
1141.122 .0232838
1141.743 .0233598
1142.365 .0234406
1142.987 .0233256
1143.611 .0237067
1144.235 .0238362
1144.859 .0238997
1145.485 .0238954
