Measurement Sequence started on: 10-20-44-796
Integration time: 35
Scans to Average: 2 
>>>>>Begin Spectral Data<<<<<
432.953 .0396876
433.882 .0411060
434.810 .0413659
435.737 .0402183
436.662 .0392914
437.586 .0398449
438.509 .0397164
439.431 .0395686
440.351 .0394369
441.269 .0393513
442.187 .0392758
443.103 .0391864
444.018 .0390836
444.932 .0389872
445.844 .0388942
446.756 .0388035
447.666 .0387171
448.575 .0386299
449.482 .0385539
450.388 .0384920
451.294 .0384323
452.198 .0383877
453.100 .0383484
454.002 .0383213
454.902 .0382935
455.801 .0382666
456.699 .0382374
457.596 .0382060
458.492 .0381725
459.387 .0381326
460.280 .0380903
461.172 .0380475
462.064 .0380050
462.954 .0379617
463.843 .0379081
464.730 .0378458
465.617 .0377683
466.503 .0376741
467.387 .0375631
468.271 .0374382
469.153 .0373028
470.035 .0371654
470.915 .0370345
471.794 .0369123
472.673 .0368025
473.550 .0367113
474.426 .0366376
475.301 .0365774
476.175 .0365320
477.048 .0364898
477.920 .0364480
478.791 .0364087
479.661 .0363706
480.530 .0363325
481.398 .0362972
482.266 .0362702
483.132 .0362518
483.997 .0362400
484.861 .0362363
485.724 .0362371
486.587 .0362402
487.448 .0362435
488.308 .0362402
489.168 .0362302
490.026 .0362140
490.884 .0361914
491.741 .0361651
492.597 .0361393
493.452 .0361138
494.306 .0360890
495.159 .0360680
496.011 .0360529
496.862 .0360367
497.713 .0360188
498.562 .0359963
499.411 .0359676
500.259 .0359293
501.106 .0358823
501.952 .0358281
502.798 .0357708
503.642 .0357098
504.486 .0356457
505.329 .0355760
506.171 .0355010
507.012 .0354163
507.852 .0353213
508.692 .0352161
509.531 .0351011
510.369 .0349793
511.206 .0348544
512.043 .0347303
512.878 .0346120
513.713 .0344940
514.547 .0343785
515.381 .0342610
516.213 .0341367
517.045 .0339988
517.876 .0338485
518.706 .0336897
519.536 .0335249
520.365 .0333601
521.193 .0332024
522.020 .0330537
522.847 .0329124
523.673 .0327730
524.498 .0326252
525.323 .0324620
526.146 .0322809
526.969 .0320764
527.792 .0318618
528.614 .0316431
529.435 .0314278
530.255 .0312183
531.075 .0310213
531.894 .0308402
532.712 .0306657
533.530 .0305042
534.347 .0303532
535.163 .0302131
535.979 .0300902
536.794 .0299910
537.608 .0299198
538.422 .0298843
539.235 .0298753
540.048 .0298840
540.860 .0299043
541.671 .0299230
542.481 .0299351
543.292 .0299420
544.101 .0299486
544.910 .0299603
545.718 .0299734
546.526 .0299988
547.333 .0300331
548.139 .0300841
548.945 .0301431
549.750 .0302038
550.555 .0302630
551.359 .0303141
552.162 .0303537
552.965 .0303879
553.768 .0304214
554.569 .0304597
555.371 .0305061
556.171 .0305606
556.972 .0306246
557.771 .0306950
558.570 .0307695
559.369 .0308498
560.167 .0309267
560.964 .0309994
561.761 .0310620
562.558 .0311164
563.354 .0311705
564.149 .0312228
564.944 .0312769
565.738 .0313340
566.532 .0313988
567.325 .0314662
568.118 .0315339
568.910 .0316020
569.702 .0316698
570.494 .0317333
571.285 .0317916
572.075 .0318412
572.865 .0318856
573.654 .0319285
574.443 .0319700
575.232 .0320117
576.020 .0320581
576.807 .0321072
577.594 .0321600
578.381 .0322142
579.167 .0322707
579.952 .0323271
580.738 .0323843
581.522 .0324415
582.307 .0324977
583.091 .0325545
583.874 .0326142
584.657 .0326737
585.440 .0327338
586.222 .0327910
587.004 .0328452
587.785 .0328938
588.566 .0329368
589.346 .0329722
590.126 .0329996
590.906 .0330195
591.685 .0330337
592.464 .0330417
593.242 .0330464
594.020 .0330483
594.797 .0330480
595.575 .0330457
596.351 .0330418
597.128 .0330345
597.904 .0330249
598.679 .0330134
599.454 .0330014
600.229 .0329885
601.004 .0329762
601.778 .0329642
602.551 .0329529
603.325 .0329421
604.097 .0329314
604.870 .0329200
605.642 .0329088
606.414 .0328968
607.185 .0328838
607.956 .0328705
608.727 .0328574
609.497 .0328438
610.267 .0328298
611.037 .0328151
611.806 .0327987
612.575 .0327806
613.344 .0327606
614.112 .0327387
614.880 .0327160
615.647 .0326924
616.414 .0326686
617.181 .0326450
617.948 .0326220
618.714 .0325992
619.480 .0325767
620.245 .0325546
621.011 .0325319
621.775 .0325084
622.540 .0324845
623.304 .0324604
624.068 .0324367
624.832 .0324139
625.595 .0323919
626.358 .0323708
627.120 .0323503
627.883 .0323286
628.645 .0323062
629.406 .0322820
630.168 .0322564
630.929 .0322288
631.689 .0321995
632.450 .0321686
633.210 .0321370
633.970 .0321053
634.729 .0320734
635.489 .0320409
636.248 .0320082
637.006 .0319746
637.765 .0319405
638.523 .0319055
639.280 .0318707
640.038 .0318367
640.795 .0318047
641.552 .0317745
642.309 .0317478
643.065 .0317244
643.821 .0317043
644.577 .0316865
645.332 .0316713
646.088 .0316569
646.843 .0316428
647.597 .0316283
648.352 .0316141
649.106 .0315999
649.860 .0315854
650.613 .0315702
651.367 .0315553
652.120 .0315404
652.872 .0315250
653.625 .0315086
654.377 .0314924
655.129 .0314753
655.881 .0314565
656.632 .0314368
657.384 .0314166
658.135 .0313959
658.885 .0313745
659.636 .0313530
660.386 .0313314
661.136 .0313093
661.885 .0312870
662.635 .0312647
663.384 .0312430
664.133 .0312214
664.881 .0311996
665.630 .0311786
666.378 .0311585
667.126 .0311388
667.874 .0311197
668.621 .0311014
669.368 .0310834
670.115 .0310654
670.862 .0310470
671.608 .0310291
672.354 .0310123
673.100 .0309960
673.846 .0309808
674.591 .0309668
675.337 .0309542
676.082 .0309417
676.826 .0309296
677.571 .0309175
678.315 .0309047
679.059 .0308913
679.803 .0308768
680.547 .0308612
681.290 .0308451
682.033 .0308280
682.776 .0308103
683.518 .0307917
684.261 .0307718
685.003 .0307507
685.745 .0307290
686.487 .0307064
687.228 .0306834
687.969 .0306603
688.710 .0306380
689.451 .0306163
690.192 .0305958
690.932 .0305765
691.672 .0305585
692.412 .0305416
693.152 .0305255
693.891 .0305095
694.630 .0304938
695.369 .0304780
696.108 .0304620
696.846 .0304460
697.585 .0304295
698.323 .0304130
699.061 .0303968
699.798 .0303806
700.536 .0303645
701.273 .0303480
702.010 .0303312
702.746 .0303135
703.483 .0302953
704.219 .0302764
704.955 .0302565
705.691 .0302361
706.427 .0302150
707.162 .0301937
707.897 .0301722
708.632 .0301508
709.367 .0301298
710.101 .0301091
710.835 .0300891
711.569 .0300692
712.303 .0300491
713.037 .0300289
713.770 .0300083
714.503 .0299864
715.236 .0299634
715.969 .0299394
716.702 .0299147
717.434 .0298903
718.166 .0298663
718.898 .0298433
719.629 .0298216
720.361 .0298014
721.092 .0297820
721.823 .0297625
722.554 .0297428
723.284 .0297223
724.014 .0297001
724.744 .0296772
725.474 .0296531
726.204 .0296295
726.933 .0296065
727.662 .0295845
728.391 .0295632
729.120 .0295427
729.849 .0295226
730.577 .0295025
731.305 .0294823
732.033 .0294620
732.760 .0294416
733.488 .0294220
734.215 .0294030
734.942 .0293850
735.669 .0293678
736.395 .0293520
737.122 .0293369
737.848 .0293228
738.573 .0293090
739.299 .0292963
740.024 .0292845
740.750 .0292737
741.474 .0292635
742.199 .0292537
742.924 .0292440
743.648 .0292338
744.372 .0292225
745.096 .0292101
745.819 .0291964
746.543 .0291820
747.266 .0291670
747.989 .0291522
748.711 .0291381
749.434 .0291246
750.156 .0291120
750.878 .0291003
751.599 .0290893
752.321 .0290788
753.042 .0290685
753.763 .0290583
754.484 .0290485
755.205 .0290391
755.925 .0290303
756.645 .0290218
757.365 .0290143
758.085 .0290069
758.804 .0289995
759.523 .0289915
760.242 .0289823
760.961 .0289720
761.679 .0289602
762.397 .0289459
763.115 .0289292
763.833 .0289101
764.551 .0288883
765.268 .0288642
765.985 .0288385
766.702 .0288121
767.418 .0287856
768.134 .0287602
768.850 .0287365
769.566 .0287145
770.282 .0286947
770.997 .0286770
771.712 .0286606
772.427 .0286454
773.142 .0286308
773.856 .0286168
774.570 .0286036
775.284 .0285920
775.998 .0285815
776.711 .0285726
777.424 .0285654
778.137 .0285588
778.849 .0285518
779.562 .0285438
780.274 .0285342
780.986 .0285225
781.697 .0285088
782.409 .0284930
783.120 .0284763
783.831 .0284599
784.541 .0284442
785.252 .0284296
785.962 .0284164
786.671 .0284042
787.381 .0283926
788.090 .0283810
788.799 .0283694
789.508 .0283572
790.217 .0283452
790.925 .0283331
791.633 .0283210
792.341 .0283089
793.048 .0282965
793.755 .0282840
794.462 .0282709
795.169 .0282566
795.875 .0282412
796.581 .0282246
797.287 .0282073
797.993 .0281896
798.698 .0281719
799.403 .0281546
800.108 .0281381
800.812 .0281222
801.517 .0281069
802.221 .0280921
802.924 .0280776
803.628 .0280636
804.331 .0280502
805.034 .0280377
805.736 .0280255
806.439 .0280142
807.141 .0280039
807.843 .0279944
808.544 .0279854
809.245 .0279761
809.946 .0279664
810.647 .0279565
811.347 .0279457
812.047 .0279346
812.747 .0279232
813.447 .0279120
814.146 .0279006
814.845 .0278894
815.543 .0278781
816.242 .0278674
816.940 .0278573
817.638 .0278477
818.335 .0278385
819.032 .0278302
819.729 .0278222
820.426 .0278145
821.122 .0278066
821.818 .0277981
822.514 .0277885
823.209 .0277780
823.905 .0277660
824.599 .0277524
825.294 .0277376
825.988 .0277213
826.682 .0277041
827.376 .0276865
828.069 .0276681
828.762 .0276493
829.455 .0276304
830.147 .0276115
830.840 .0275921
831.531 .0275731
832.223 .0275544
832.914 .0275361
833.605 .0275188
834.296 .0275022
834.986 .0274862
835.676 .0274711
836.366 .0274571
837.055 .0274435
837.744 .0274311
838.433 .0274197
839.121 .0274089
839.809 .0273989
840.497 .0273897
841.185 .0273804
841.872 .0273712
842.559 .0273621
843.245 .0273525
843.932 .0273426
844.617 .0273324
845.303 .0273220
845.988 .0273120
846.673 .0273025
847.358 .0272932
848.042 .0272840
848.726 .0272748
849.410 .0272650
850.093 .0272543
850.776 .0272432
851.459 .0272310
852.141 .0272176
852.823 .0272034
853.505 .0271888
854.186 .0271735
854.867 .0271584
855.548 .0271430
856.228 .0271281
856.908 .0271136
857.588 .0270989
858.267 .0270841
858.946 .0270697
859.625 .0270554
860.303 .0270414
860.981 .0270278
861.659 .0270148
862.336 .0270022
863.013 .0269902
863.690 .0269788
864.366 .0269675
865.042 .0269564
865.718 .0269454
866.393 .0269342
867.068 .0269231
867.743 .0269112
868.417 .0268987
869.091 .0268859
869.765 .0268729
870.438 .0268596
871.111 .0268461
871.783 .0268330
872.456 .0268202
873.127 .0268076
873.799 .0267953
874.470 .0267832
875.141 .0267712
875.811 .0267595
876.481 .0267478
877.151 .0267363
877.820 .0267252
878.489 .0267143
879.158 .0267042
879.826 .0266944
880.494 .0266849
881.162 .0266754
881.829 .0266658
882.496 .0266558
883.163 .0266450
883.829 .0266340
884.495 .0266230
885.160 .0266124
885.825 .0266025
886.490 .0265935
887.154 .0265858
887.818 .0265789
888.482 .0265725
889.145 .0265671
889.808 .0265620
890.471 .0265569
891.133 .0265520
891.795 .0265473
892.456 .0265432
893.117 .0265399
893.778 .0265373
894.439 .0265357
895.099 .0265345
895.758 .0265335
896.417 .0265321
897.076 .0265308
897.735 .0265290
898.393 .0265269
899.051 .0265249
899.708 .0265223
900.365 .0265195
901.022 .0265164
901.678 .0265133
902.334 .0265102
902.990 .0265069
903.645 .0265030
904.300 .0264988
904.954 .0264946
905.608 .0264893
906.262 .0264833
906.915 .0264766
907.568 .0264683
908.221 .0264580
908.873 .0264458
909.525 .0264316
910.176 .0264157
910.828 .0263993
911.478 .0263822
912.129 .0263651
912.778 .0263479
913.428 .0263311
914.077 .0263145
914.726 .0262979
915.375 .0262814
916.023 .0262654
916.670 .0262504
917.318 .0262368
917.964 .0262241
918.611 .0262138
919.257 .0262054
919.903 .0261988
920.548 .0261933
921.193 .0261888
921.838 .0261848
922.482 .0261809
923.126 .0261767
923.770 .0261725
924.413 .0261678
925.056 .0261632
925.698 .0261581
926.340 .0261525
926.982 .0261458
927.623 .0261385
928.264 .0261299
928.904 .0261202
929.544 .0261095
930.184 .0260977
930.823 .0260851
931.462 .0260721
932.101 .0260583
932.739 .0260441
933.377 .0260296
934.014 .0260146
934.651 .0259994
935.288 .0259838
935.924 .0259678
936.560 .0259515
937.196 .0259352
937.831 .0259191
938.466 .0259026
939.100 .0258862
939.734 .0258698
940.368 .0258531
941.001 .0258367
941.634 .0258205
942.266 .0258049
942.899 .0257895
943.530 .0257743
944.162 .0257586
944.793 .0257425
945.423 .0257258
946.053 .0257082
946.683 .0256898
947.313 .0256713
947.942 .0256522
948.571 .0256325
949.199 .0256133
949.827 .0255944
950.455 .0255760
951.082 .0255584
951.709 .0255414
952.335 .0255250
952.961 .0255090
953.587 .0254937
954.212 .0254782
954.837 .0254634
955.462 .0254492
956.086 .0254354
956.710 .0254229
957.334 .0254113
957.957 .0254004
958.579 .0253905
959.202 .0253814
959.824 .0253721
960.445 .0253618
961.067 .0253507
961.688 .0253383
962.308 .0253250
962.928 .0253115
963.548 .0252974
964.168 .0252835
964.787 .0252704
965.406 .0252578
966.024 .0252458
966.642 .0252339
967.260 .0252219
967.877 .0252100
968.494 .0251977
969.110 .0251847
969.727 .0251710
970.342 .0251576
970.958 .0251445
971.573 .0251318
972.188 .0251193
972.802 .0251077
973.416 .0250970
974.030 .0250874
974.643 .0250781
975.256 .0250703
975.869 .0250631
976.481 .0250568
977.093 .0250512
977.705 .0250461
978.316 .0250416
978.927 .0250379
979.538 .0250346
980.148 .0250320
980.758 .0250298
981.367 .0250282
981.977 .0250271
982.586 .0250273
983.194 .0250273
983.802 .0250272
984.410 .0250259
985.018 .0250233
985.625 .0250181
986.232 .0250112
986.838 .0250022
987.445 .0249916
988.050 .0249800
988.656 .0249676
989.261 .0249547
989.866 .0249421
990.471 .0249294
991.075 .0249172
991.679 .0249050
992.282 .0248932
992.886 .0248816
993.489 .0248706
994.091 .0248601
994.694 .0248507
995.296 .0248425
995.897 .0248347
996.499 .0248271
997.100 .0248197
997.701 .0248132
998.301 .0248080
998.901 .0248044
999.501 .0248021
1000.101 .0248015
1000.700 .0248025
1001.299 .0248040
1001.898 .0248056
1002.496 .0248068
1003.094 .0248070
1003.692 .0248061
1004.289 .0248034
1004.887 .0247997
1005.484 .0247956
1006.080 .0247921
1006.677 .0247893
1007.273 .0247870
1007.868 .0247847
1008.464 .0247826
1009.059 .0247804
1009.654 .0247783
1010.249 .0247760
1010.843 .0247733
1011.437 .0247704
1012.031 .0247677
1012.625 .0247655
1013.218 .0247632
1013.811 .0247610
1014.404 .0247588
1014.997 .0247557
1015.589 .0247518
1016.181 .0247475
1016.773 .0247432
1017.365 .0247399
1017.956 .0247375
1018.547 .0247354
1019.138 .0247337
1019.728 .0247326
1020.319 .0247311
1020.909 .0247299
1021.499 .0247281
1022.088 .0247254
1022.678 .0247218
1023.267 .0247184
1023.856 .0247147
1024.445 .0247117
1025.033 .0247102
1025.621 .0247097
1026.209 .0247098
1026.797 .0247102
1027.385 .0247100
1027.972 .0247095
1028.560 .0247083
1029.147 .0247058
1029.734 .0247023
1030.320 .0246985
1030.907 .0246940
1031.493 .0246894
1032.079 .0246856
1032.665 .0246826
1033.250 .0246801
1033.836 .0246778
1034.421 .0246755
1035.006 .0246732
1035.591 .0246715
1036.176 .0246706
1036.761 .0246707
1037.345 .0246719
1037.929 .0246736
1038.514 .0246755
1039.097 .0246782
1039.681 .0246805
1040.265 .0246824
1040.848 .0246843
1041.432 .0246867
1042.015 .0246887
1042.598 .0246911
1043.181 .0246943
1043.764 .0246988
1044.346 .0247031
1044.929 .0247067
1045.511 .0247084
1046.094 .0247081
1046.676 .0247054
1047.258 .0247007
1047.840 .0246947
1048.422 .0246888
1049.003 .0246826
1049.585 .0246773
1050.166 .0246727
1050.748 .0246682
1051.329 .0246621
1051.910 .0246546
1052.491 .0246454
1053.072 .0246343
1053.653 .0246223
1054.234 .0246113
1054.815 .0246026
1055.396 .0245969
1055.976 .0245943
1056.557 .0245942
1057.138 .0245963
1057.718 .0245986
1058.298 .0246000
1058.879 .0246003
1059.459 .0245984
1060.039 .0245935
1060.620 .0245865
1061.200 .0245780
1061.780 .0245684
1062.360 .0245568
1062.940 .0245452
1063.520 .0245328
1064.101 .0245206
1064.681 .0245073
1065.261 .0244936
1065.841 .0244793
1066.421 .0244650
1067.001 .0244489
1067.581 .0244331
1068.161 .0244177
1068.741 .0244034
1069.321 .0243907
1069.901 .0243817
1070.482 .0243754
1071.062 .0243722
1071.642 .0243712
1072.222 .0243727
1072.803 .0243743
1073.383 .0243767
1073.963 .0243794
1074.544 .0243843
1075.124 .0243900
1075.705 .0243963
1076.286 .0244034
1076.866 .0244111
1077.447 .0244165
1078.028 .0244190
1078.609 .0244186
1079.190 .0244149
1079.771 .0244100
1080.352 .0244044
1080.934 .0244000
1081.515 .0243994
1082.097 .0244031
1082.679 .0244084
1083.260 .0244142
1083.842 .0244195
1084.424 .0244208
1085.007 .0244189
1085.589 .0244158
1086.172 .0244102
1086.754 .0244062
1087.337 .0244067
1087.920 .0244123
1088.503 .0244215
1089.087 .0244346
1089.670 .0244474
1090.254 .0244581
1090.838 .0244644
1091.422 .0244645
1092.006 .0244572
1092.590 .0244477
1093.175 .0244354
1093.760 .0244213
1094.345 .0244071
1094.930 .0243921
1095.516 .0243752
1096.102 .0243593
1096.688 .0243431
1097.274 .0243254
1097.860 .0243071
1098.447 .0242915
1099.034 .0242768
1099.622 .0242648
1100.209 .0242556
1100.797 .0242513
1101.385 .0242490
1101.973 .0242501
1102.562 .0242514
1103.151 .0242545
1103.740 .0242586
1104.330 .0242638
1104.920 .0242709
1105.510 .0242797
1106.101 .0242896
1106.691 .0242991
1107.283 .0243079
1107.874 .0243164
1108.466 .0243207
1109.058 .0243217
1109.651 .0243191
1110.244 .0243153
1110.837 .0243068
1111.431 .0242999
1112.025 .0242950
1112.620 .0242946
1113.215 .0242982
1113.810 .0243053
1114.406 .0243169
1115.002 .0243311
1115.599 .0243441
1116.196 .0243551
1116.793 .0243622
1117.391 .0243657
1117.989 .0243606
1118.588 .0243546
1119.187 .0243481
1119.787 .0243446
1120.387 .0243459
1120.988 .0243547
1121.589 .0243694
1122.190 .0243901
1122.793 .0244113
1123.395 .0244347
1123.998 .0244580
1124.602 .0244808
1125.206 .0245004
1125.811 .0245237
1126.416 .0245513
1127.022 .0245855
1127.628 .0246264
1128.235 .0246771
1128.843 .0247334
1129.451 .0247954
1130.059 .0248554
1130.669 .0249110
1131.278 .0249623
1131.889 .0250062
1132.500 .0250391
1133.112 .0250674
1133.724 .0250879
1134.337 .0251082
1134.950 .0251292
1135.564 .0251525
1136.179 .0251827
1136.795 .0252176
1137.411 .0252597
1138.028 .0253052
1138.645 .0253571
1139.263 .0254119
1139.882 .0254686
1140.502 .0255397
1141.122 .0256222
1141.743 .0257087
1142.365 .0257996
1142.987 .0257995
1143.611 .0261228
1144.235 .0263523
1144.859 .0261742
1145.485 .0261174
