Measurement Sequence started on: 10-20-44-796
Integration time: 35
Scans to Average: 2 
>>>>>Begin Spectral Data<<<<<
432.953 .0440375
433.882 .0446114
434.810 .0415186
435.737 .0402446
436.662 .0410230
437.586 .0411455
438.509 .0408058
439.431 .0404878
440.351 .0402737
441.269 .0401028
442.187 .0399336
443.103 .0397778
444.018 .0396881
444.932 .0396144
445.844 .0395416
446.756 .0394517
447.666 .0393524
448.575 .0392304
449.482 .0391103
450.388 .0389932
451.294 .0388909
452.198 .0388176
453.100 .0387791
454.002 .0387611
454.902 .0387565
455.801 .0387440
456.699 .0387162
457.596 .0386713
458.492 .0386124
459.387 .0385357
460.280 .0384551
461.172 .0383665
462.064 .0382803
462.954 .0381899
463.843 .0380999
464.730 .0380050
465.617 .0379150
466.503 .0378190
467.387 .0377167
468.271 .0376102
469.153 .0375067
470.035 .0374045
470.915 .0373146
471.794 .0372315
472.673 .0371556
473.550 .0370850
474.426 .0370216
475.301 .0369607
476.175 .0369102
477.048 .0368624
477.920 .0368227
478.791 .0367892
479.661 .0367649
480.530 .0367464
481.398 .0367343
482.266 .0367303
483.132 .0367283
483.997 .0367272
484.861 .0367273
485.724 .0367303
486.587 .0367341
487.448 .0367385
488.308 .0367432
489.168 .0367476
490.026 .0367468
490.884 .0367406
491.741 .0367290
492.597 .0367138
493.452 .0366926
494.306 .0366657
495.159 .0366289
496.011 .0365875
496.862 .0365346
497.713 .0364681
498.562 .0363839
499.411 .0362871
500.259 .0361746
501.106 .0360500
501.952 .0359191
502.798 .0357900
503.642 .0356638
504.486 .0355473
505.329 .0354365
506.171 .0353310
507.012 .0352275
507.852 .0351220
508.692 .0350125
509.531 .0348982
510.369 .0347812
511.206 .0346641
512.043 .0345556
512.878 .0344605
513.713 .0343744
514.547 .0342929
515.381 .0342166
516.213 .0341352
517.045 .0340391
517.876 .0339245
518.706 .0337914
519.536 .0336467
520.365 .0334953
521.193 .0333383
522.020 .0331816
522.847 .0330234
523.673 .0328666
524.498 .0326994
525.323 .0325231
526.146 .0323379
526.969 .0321460
527.792 .0319553
528.614 .0317707
529.435 .0316031
530.255 .0314562
531.075 .0313276
531.894 .0312153
532.712 .0311132
533.530 .0310104
534.347 .0309047
535.163 .0307923
535.979 .0306832
536.794 .0305831
537.608 .0304946
538.422 .0304266
539.235 .0303770
540.048 .0303458
540.860 .0303227
541.671 .0302996
542.481 .0302747
543.292 .0302402
544.101 .0302007
544.910 .0301627
545.718 .0301324
546.526 .0301238
547.333 .0301413
548.139 .0301921
548.945 .0302650
549.750 .0303483
550.555 .0304387
551.359 .0305326
552.162 .0306172
552.965 .0306958
553.768 .0307591
554.569 .0308232
555.371 .0308835
556.171 .0309450
556.972 .0310082
557.771 .0310779
558.570 .0311491
559.369 .0312179
560.167 .0312778
560.964 .0313328
561.761 .0313742
562.558 .0314104
563.354 .0314416
564.149 .0314676
564.944 .0314929
565.738 .0315249
566.532 .0315623
567.325 .0316114
568.118 .0316635
568.910 .0317240
569.702 .0317901
570.494 .0318600
571.285 .0319285
572.075 .0319974
572.865 .0320696
573.654 .0321411
574.443 .0322090
575.232 .0322754
576.020 .0323376
576.807 .0323961
577.594 .0324515
578.381 .0324992
579.167 .0325423
579.952 .0325835
580.738 .0326203
581.522 .0326575
582.307 .0326939
583.091 .0327309
583.874 .0327673
584.657 .0328031
585.440 .0328382
586.222 .0328705
587.004 .0329031
587.785 .0329325
588.566 .0329587
589.346 .0329814
590.126 .0329999
590.906 .0330145
591.685 .0330270
592.464 .0330359
593.242 .0330426
594.020 .0330475
594.797 .0330514
595.575 .0330535
596.351 .0330532
597.128 .0330504
597.904 .0330448
598.679 .0330359
599.454 .0330234
600.229 .0330080
601.004 .0329922
601.778 .0329757
602.551 .0329597
603.325 .0329449
604.097 .0329317
604.870 .0329194
605.642 .0329071
606.414 .0328937
607.185 .0328785
607.956 .0328610
608.727 .0328424
609.497 .0328227
610.267 .0328034
611.037 .0327848
611.806 .0327665
612.575 .0327497
613.344 .0327330
614.112 .0327150
614.880 .0326965
615.647 .0326763
616.414 .0326545
617.181 .0326317
617.948 .0326087
618.714 .0325865
619.480 .0325651
620.245 .0325453
621.011 .0325251
621.775 .0325043
622.540 .0324834
623.304 .0324604
624.068 .0324367
624.832 .0324123
625.595 .0323870
626.358 .0323625
627.120 .0323390
627.883 .0323171
628.645 .0322969
629.406 .0322783
630.168 .0322604
630.929 .0322421
631.689 .0322236
632.450 .0322045
633.210 .0321847
633.970 .0321650
634.729 .0321455
635.489 .0321260
636.248 .0321066
637.006 .0320875
637.765 .0320681
638.523 .0320481
639.280 .0320267
640.038 .0320041
640.795 .0319799
641.552 .0319549
642.309 .0319295
643.065 .0319042
643.821 .0318795
644.577 .0318551
645.332 .0318309
646.088 .0318065
646.843 .0317821
647.597 .0317569
648.352 .0317304
649.106 .0317040
649.860 .0316769
650.613 .0316498
651.367 .0316233
652.120 .0315987
652.872 .0315759
653.625 .0315543
654.377 .0315345
655.129 .0315158
655.881 .0314976
656.632 .0314796
657.384 .0314608
658.135 .0314420
658.885 .0314225
659.636 .0314020
660.386 .0313816
661.136 .0313612
661.885 .0313425
662.635 .0313252
663.384 .0313098
664.133 .0312962
664.881 .0312841
665.630 .0312724
666.378 .0312603
667.126 .0312474
667.874 .0312328
668.621 .0312162
669.368 .0311986
670.115 .0311797
670.862 .0311607
671.608 .0311432
672.354 .0311275
673.100 .0311135
673.846 .0311020
674.591 .0310913
675.337 .0310810
676.082 .0310708
676.826 .0310600
677.571 .0310482
678.315 .0310362
679.059 .0310243
679.803 .0310122
680.547 .0310015
681.290 .0309919
682.033 .0309824
682.776 .0309738
683.518 .0309646
684.261 .0309541
685.003 .0309418
685.745 .0309277
686.487 .0309112
687.228 .0308930
687.969 .0308730
688.710 .0308511
689.451 .0308280
690.192 .0308039
690.932 .0307780
691.672 .0307512
692.412 .0307233
693.152 .0306943
693.891 .0306645
694.630 .0306348
695.369 .0306052
696.108 .0305761
696.846 .0305477
697.585 .0305203
698.323 .0304940
699.061 .0304694
699.798 .0304455
700.536 .0304231
701.273 .0304020
702.010 .0303820
702.746 .0303628
703.483 .0303444
704.219 .0303264
704.955 .0303088
705.691 .0302907
706.427 .0302722
707.162 .0302527
707.897 .0302325
708.632 .0302114
709.367 .0301892
710.101 .0301663
710.835 .0301425
711.569 .0301181
712.303 .0300936
713.037 .0300695
713.770 .0300461
714.503 .0300235
715.236 .0300018
715.969 .0299812
716.702 .0299611
717.434 .0299415
718.166 .0299223
718.898 .0299034
719.629 .0298848
720.361 .0298667
721.092 .0298487
721.823 .0298312
722.554 .0298136
723.284 .0297958
724.014 .0297769
724.744 .0297566
725.474 .0297343
726.204 .0297104
726.933 .0296853
727.662 .0296591
728.391 .0296327
729.120 .0296073
729.849 .0295829
730.577 .0295600
731.305 .0295384
732.033 .0295182
732.760 .0294990
733.488 .0294810
734.215 .0294636
734.942 .0294472
735.669 .0294316
736.395 .0294168
737.122 .0294027
737.848 .0293896
738.573 .0293766
739.299 .0293635
740.024 .0293501
740.750 .0293360
741.474 .0293212
742.199 .0293058
742.924 .0292902
743.648 .0292743
744.372 .0292582
745.096 .0292421
745.819 .0292257
746.543 .0292093
747.266 .0291931
747.989 .0291774
748.711 .0291626
749.434 .0291485
750.156 .0291358
750.878 .0291247
751.599 .0291158
752.321 .0291085
753.042 .0291028
753.763 .0290985
754.484 .0290947
755.205 .0290910
755.925 .0290871
756.645 .0290826
757.365 .0290771
758.085 .0290703
758.804 .0290623
759.523 .0290530
760.242 .0290428
760.961 .0290314
761.679 .0290198
762.397 .0290070
763.115 .0289933
763.833 .0289779
764.551 .0289613
765.268 .0289430
765.985 .0289227
766.702 .0289011
767.418 .0288784
768.134 .0288557
768.850 .0288337
769.566 .0288125
770.282 .0287938
770.997 .0287769
771.712 .0287618
772.427 .0287474
773.142 .0287339
773.856 .0287197
774.570 .0287042
775.284 .0286875
775.998 .0286700
776.711 .0286522
777.424 .0286347
778.137 .0286179
778.849 .0286022
779.562 .0285877
780.274 .0285738
780.986 .0285597
781.697 .0285459
782.409 .0285313
783.120 .0285162
783.831 .0285011
784.541 .0284867
785.252 .0284737
785.962 .0284622
786.671 .0284524
787.381 .0284440
788.090 .0284369
788.799 .0284296
789.508 .0284215
790.217 .0284126
790.925 .0284025
791.633 .0283909
792.341 .0283781
793.048 .0283649
793.755 .0283511
794.462 .0283373
795.169 .0283234
795.875 .0283092
796.581 .0282952
797.287 .0282810
797.993 .0282669
798.698 .0282531
799.403 .0282398
800.108 .0282269
800.812 .0282149
801.517 .0282041
802.221 .0281940
802.924 .0281847
803.628 .0281764
804.331 .0281690
805.034 .0281624
805.736 .0281560
806.439 .0281495
807.141 .0281420
807.843 .0281337
808.544 .0281236
809.245 .0281113
809.946 .0280972
810.647 .0280821
811.347 .0280658
812.047 .0280487
812.747 .0280313
813.447 .0280136
814.146 .0279955
814.845 .0279779
815.543 .0279599
816.242 .0279418
816.940 .0279241
817.638 .0279067
818.335 .0278903
819.032 .0278758
819.729 .0278626
820.426 .0278507
821.122 .0278402
821.818 .0278303
822.514 .0278200
823.209 .0278098
823.905 .0277989
824.599 .0277871
825.294 .0277748
825.988 .0277618
826.682 .0277477
827.376 .0277336
828.069 .0277194
828.762 .0277042
829.455 .0276886
830.147 .0276719
830.840 .0276541
831.531 .0276362
832.223 .0276184
832.914 .0276008
833.605 .0275839
834.296 .0275684
834.986 .0275535
835.676 .0275392
836.366 .0275258
837.055 .0275124
837.744 .0274992
838.433 .0274862
839.121 .0274730
839.809 .0274595
840.497 .0274462
841.185 .0274328
841.872 .0274190
842.559 .0274051
843.245 .0273911
843.932 .0273771
844.617 .0273628
845.303 .0273491
845.988 .0273356
846.673 .0273230
847.358 .0273115
848.042 .0273006
848.726 .0272906
849.410 .0272810
850.093 .0272715
850.776 .0272619
851.459 .0272518
852.141 .0272412
852.823 .0272300
853.505 .0272185
854.186 .0272064
854.867 .0271939
855.548 .0271811
856.228 .0271685
856.908 .0271558
857.588 .0271432
858.267 .0271307
858.946 .0271179
859.625 .0271052
860.303 .0270924
860.981 .0270798
861.659 .0270673
862.336 .0270551
863.013 .0270432
863.690 .0270320
864.366 .0270213
865.042 .0270114
865.718 .0270026
866.393 .0269948
867.068 .0269870
867.743 .0269790
868.417 .0269700
869.091 .0269599
869.765 .0269487
870.438 .0269362
871.111 .0269222
871.783 .0269075
872.456 .0268921
873.127 .0268766
873.799 .0268617
874.470 .0268473
875.141 .0268332
875.811 .0268197
876.481 .0268061
877.151 .0267921
877.820 .0267779
878.489 .0267641
879.158 .0267503
879.826 .0267370
880.494 .0267241
881.162 .0267116
881.829 .0267003
882.496 .0266897
883.163 .0266797
883.829 .0266701
884.495 .0266606
885.160 .0266511
885.825 .0266419
886.490 .0266335
887.154 .0266257
887.818 .0266190
888.482 .0266136
889.145 .0266094
889.808 .0266063
890.471 .0266040
891.133 .0266019
891.795 .0265995
892.456 .0265965
893.117 .0265923
893.778 .0265874
894.439 .0265818
895.099 .0265759
895.758 .0265700
896.417 .0265642
897.076 .0265583
897.735 .0265525
898.393 .0265468
899.051 .0265409
899.708 .0265339
900.365 .0265257
901.022 .0265162
901.678 .0265061
902.334 .0264954
902.990 .0264847
903.645 .0264740
904.300 .0264642
904.954 .0264549
905.608 .0264460
906.262 .0264373
906.915 .0264289
907.568 .0264203
908.221 .0264117
908.873 .0264027
909.525 .0263934
910.176 .0263844
910.828 .0263762
911.478 .0263687
912.129 .0263613
912.778 .0263540
913.428 .0263467
914.077 .0263390
914.726 .0263306
915.375 .0263217
916.023 .0263128
916.670 .0263044
917.318 .0262966
917.964 .0262893
918.611 .0262827
919.257 .0262767
919.903 .0262712
920.548 .0262656
921.193 .0262599
921.838 .0262534
922.482 .0262463
923.126 .0262388
923.770 .0262312
924.413 .0262233
925.056 .0262155
925.698 .0262081
926.340 .0262005
926.982 .0261928
927.623 .0261849
928.264 .0261765
928.904 .0261679
929.544 .0261584
930.184 .0261482
930.823 .0261372
931.462 .0261257
932.101 .0261134
932.739 .0261008
933.377 .0260878
934.014 .0260746
934.651 .0260614
935.288 .0260483
935.924 .0260353
936.560 .0260225
937.196 .0260100
937.831 .0259971
938.466 .0259840
939.100 .0259705
939.734 .0259562
940.368 .0259419
941.001 .0259268
941.634 .0259110
942.266 .0258942
942.899 .0258767
943.530 .0258585
944.162 .0258395
944.793 .0258198
945.423 .0257992
946.053 .0257781
946.683 .0257565
947.313 .0257344
947.942 .0257121
948.571 .0256900
949.199 .0256676
949.827 .0256450
950.455 .0256226
951.082 .0256008
951.709 .0255800
952.335 .0255602
952.961 .0255415
953.587 .0255239
954.212 .0255071
954.837 .0254910
955.462 .0254757
956.086 .0254611
956.710 .0254470
957.334 .0254332
957.957 .0254201
958.579 .0254074
959.202 .0253954
959.824 .0253841
960.445 .0253734
961.067 .0253628
961.688 .0253523
962.308 .0253413
962.928 .0253307
963.548 .0253199
964.168 .0253094
964.787 .0252991
965.406 .0252897
966.024 .0252802
966.642 .0252704
967.260 .0252607
967.877 .0252510
968.494 .0252406
969.110 .0252297
969.727 .0252173
970.342 .0252044
970.958 .0251906
971.573 .0251766
972.188 .0251619
972.802 .0251479
973.416 .0251347
974.030 .0251223
974.643 .0251111
975.256 .0251019
975.869 .0250940
976.481 .0250878
977.093 .0250833
977.705 .0250801
978.316 .0250781
978.927 .0250770
979.538 .0250767
980.148 .0250771
980.758 .0250774
981.367 .0250778
981.977 .0250780
982.586 .0250784
983.194 .0250789
983.802 .0250790
984.410 .0250792
985.018 .0250789
985.625 .0250778
986.232 .0250756
986.838 .0250722
987.445 .0250676
988.050 .0250612
988.656 .0250534
989.261 .0250449
989.866 .0250351
990.471 .0250256
991.075 .0250158
991.679 .0250061
992.282 .0249967
992.886 .0249874
993.489 .0249782
994.091 .0249696
994.694 .0249613
995.296 .0249528
995.897 .0249442
996.499 .0249360
997.100 .0249279
997.701 .0249209
998.301 .0249156
998.901 .0249119
999.501 .0249101
1000.101 .0249106
1000.700 .0249121
1001.299 .0249149
1001.898 .0249186
1002.496 .0249223
1003.094 .0249253
1003.692 .0249275
1004.289 .0249290
1004.887 .0249295
1005.484 .0249300
1006.080 .0249299
1006.677 .0249292
1007.273 .0249284
1007.868 .0249273
1008.464 .0249260
1009.059 .0249244
1009.654 .0249227
1010.249 .0249215
1010.843 .0249202
1011.437 .0249193
1012.031 .0249178
1012.625 .0249162
1013.218 .0249146
1013.811 .0249125
1014.404 .0249098
1014.997 .0249074
1015.589 .0249057
1016.181 .0249054
1016.773 .0249057
1017.365 .0249078
1017.956 .0249104
1018.547 .0249134
1019.138 .0249154
1019.728 .0249163
1020.319 .0249158
1020.909 .0249142
1021.499 .0249110
1022.088 .0249070
1022.678 .0249025
1023.267 .0248981
1023.856 .0248932
1024.445 .0248879
1025.033 .0248810
1025.621 .0248727
1026.209 .0248623
1026.797 .0248501
1027.385 .0248358
1027.972 .0248210
1028.560 .0248058
1029.147 .0247914
1029.734 .0247784
1030.320 .0247670
1030.907 .0247579
1031.493 .0247515
1032.079 .0247469
1032.665 .0247439
1033.250 .0247421
1033.836 .0247416
1034.421 .0247414
1035.006 .0247419
1035.591 .0247427
1036.176 .0247438
1036.761 .0247456
1037.345 .0247471
1037.929 .0247483
1038.514 .0247492
1039.097 .0247497
1039.681 .0247507
1040.265 .0247512
1040.848 .0247522
1041.432 .0247537
1042.015 .0247566
1042.598 .0247604
1043.181 .0247649
1043.764 .0247697
1044.346 .0247740
1044.929 .0247780
1045.511 .0247807
1046.094 .0247820
1046.676 .0247829
1047.258 .0247835
1047.840 .0247841
1048.422 .0247849
1049.003 .0247853
1049.585 .0247845
1050.166 .0247817
1050.748 .0247762
1051.329 .0247678
1051.910 .0247567
1052.491 .0247435
1053.072 .0247292
1053.653 .0247139
1054.234 .0246988
1054.815 .0246842
1055.396 .0246713
1055.976 .0246595
1056.557 .0246485
1057.138 .0246392
1057.718 .0246300
1058.298 .0246218
1058.879 .0246159
1059.459 .0246105
1060.039 .0246076
1060.620 .0246051
1061.200 .0246033
1061.780 .0246009
1062.360 .0245985
1062.940 .0245962
1063.520 .0245937
1064.101 .0245913
1064.681 .0245890
1065.261 .0245846
1065.841 .0245791
1066.421 .0245717
1067.001 .0245618
1067.581 .0245493
1068.161 .0245348
1068.741 .0245173
1069.321 .0244996
1069.901 .0244827
1070.482 .0244674
1071.062 .0244545
1071.642 .0244442
1072.222 .0244362
1072.803 .0244279
1073.383 .0244210
1073.963 .0244152
1074.544 .0244094
1075.124 .0244052
1075.705 .0244016
1076.286 .0243997
1076.866 .0244006
1077.447 .0244028
1078.028 .0244073
1078.609 .0244145
1079.190 .0244249
1079.771 .0244359
1080.352 .0244493
1080.934 .0244632
1081.515 .0244792
1082.097 .0244950
1082.679 .0245126
1083.260 .0245300
1083.842 .0245483
1084.424 .0245674
1085.007 .0245855
1085.589 .0246030
1086.172 .0246186
1086.754 .0246299
1087.337 .0246378
1087.920 .0246390
1088.503 .0246359
1089.087 .0246262
1089.670 .0246123
1090.254 .0245949
1090.838 .0245750
1091.422 .0245537
1092.006 .0245333
1092.590 .0245139
1093.175 .0244961
1093.760 .0244797
1094.345 .0244646
1094.930 .0244503
1095.516 .0244379
1096.102 .0244264
1096.688 .0244152
1097.274 .0244074
1097.860 .0244032
1098.447 .0244012
1099.034 .0244018
1099.622 .0244053
1100.209 .0244098
1100.797 .0244153
1101.385 .0244196
1101.973 .0244205
1102.562 .0244197
1103.151 .0244154
1103.740 .0244061
1104.330 .0243948
1104.920 .0243842
1105.510 .0243755
1106.101 .0243705
1106.691 .0243724
1107.283 .0243779
1107.874 .0243889
1108.466 .0244038
1109.058 .0244191
1109.651 .0244346
1110.244 .0244494
1110.837 .0244607
1111.431 .0244698
1112.025 .0244813
1112.620 .0244932
1113.215 .0245079
1113.810 .0245261
1114.406 .0245458
1115.002 .0245638
1115.599 .0245784
1116.196 .0245873
1116.793 .0245892
1117.391 .0245885
1117.989 .0245834
1118.588 .0245747
1119.187 .0245665
1119.787 .0245589
1120.387 .0245516
1120.988 .0245441
1121.589 .0245363
1122.190 .0245247
1122.793 .0245096
1123.395 .0244938
1123.998 .0244784
1124.602 .0244651
1125.206 .0244592
1125.811 .0244623
1126.416 .0244756
1127.022 .0244979
1127.628 .0245251
1128.235 .0245541
1128.843 .0245807
1129.451 .0246068
1130.059 .0246269
1130.669 .0246470
1131.278 .0246752
1131.889 .0247094
1132.500 .0247553
1133.112 .0248126
1133.724 .0248796
1134.337 .0249557
1134.950 .0250309
1135.564 .0251034
1136.179 .0251701
1136.795 .0252308
1137.411 .0252853
1138.028 .0253344
1138.645 .0253894
1139.263 .0254489
1139.882 .0255055
1140.502 .0255627
1141.122 .0256177
1141.743 .0256838
1142.365 .0257124
1142.987 .0257100
1143.611 .0257460
1144.235 .0258457
1144.859 .0262087
1145.485 .0251306
