Measurement Sequence started on: 10-20-44-796
Integration time: 35
Scans to Average: 2 
>>>>>Begin Spectral Data<<<<<
432.953 .0376683
433.882 .0303720
434.810 .0351193
435.737 .0356461
436.662 .0352616
437.586 .0348161
438.509 .0347400
439.431 .0348211
440.351 .0347318
441.269 .0346391
442.187 .0345760
443.103 .0345260
444.018 .0344962
444.932 .0344600
445.844 .0344088
446.756 .0343681
447.666 .0343203
448.575 .0342705
449.482 .0342167
450.388 .0341677
451.294 .0341165
452.198 .0340592
453.100 .0339995
454.002 .0339534
454.902 .0339159
455.801 .0338869
456.699 .0338699
457.596 .0338556
458.492 .0338390
459.387 .0338237
460.280 .0338046
461.172 .0337724
462.064 .0337275
462.954 .0336754
463.843 .0336148
464.730 .0335573
465.617 .0335044
466.503 .0334577
467.387 .0334232
468.271 .0333982
469.153 .0333820
470.035 .0333700
470.915 .0333618
471.794 .0333508
472.673 .0333368
473.550 .0333200
474.426 .0332986
475.301 .0332741
476.175 .0332503
477.048 .0332300
477.920 .0332140
478.791 .0332008
479.661 .0331919
480.530 .0331849
481.398 .0331792
482.266 .0331714
483.132 .0331635
483.997 .0331483
484.861 .0331291
485.724 .0331074
486.587 .0330828
487.448 .0330539
488.308 .0330215
489.168 .0329882
490.026 .0329562
490.884 .0329236
491.741 .0328911
492.597 .0328584
493.452 .0328272
494.306 .0327929
495.159 .0327562
496.011 .0327153
496.862 .0326709
497.713 .0326182
498.562 .0325580
499.411 .0324903
500.259 .0324163
501.106 .0323381
501.952 .0322571
502.798 .0321774
503.642 .0320975
504.486 .0320155
505.329 .0319376
506.171 .0318607
507.012 .0317850
507.852 .0317097
508.692 .0316351
509.531 .0315606
510.369 .0314845
511.206 .0314112
512.043 .0313388
512.878 .0312701
513.713 .0312050
514.547 .0311386
515.381 .0310739
516.213 .0310072
517.045 .0309290
517.876 .0308361
518.706 .0307271
519.536 .0305928
520.365 .0304389
521.193 .0302692
522.020 .0300914
522.847 .0299107
523.673 .0297266
524.498 .0295406
525.323 .0293499
526.146 .0291570
526.969 .0289584
527.792 .0287474
528.614 .0285329
529.435 .0283106
530.255 .0281007
531.075 .0279068
531.894 .0277405
532.712 .0276073
533.530 .0275048
534.347 .0274185
535.163 .0273384
535.979 .0272564
536.794 .0271734
537.608 .0270852
538.422 .0269960
539.235 .0269022
540.048 .0268176
540.860 .0267447
541.671 .0266931
542.481 .0266609
543.292 .0266536
544.101 .0266555
544.910 .0266711
545.718 .0266935
546.526 .0267222
547.333 .0267608
548.139 .0268096
548.945 .0268690
549.750 .0269341
550.555 .0270008
551.359 .0270730
552.162 .0271509
552.965 .0272417
553.768 .0273355
554.569 .0274334
555.371 .0275373
556.171 .0276412
556.972 .0277441
557.771 .0278405
558.570 .0279325
559.369 .0280191
560.167 .0280972
560.964 .0281673
561.761 .0282323
562.558 .0282957
563.354 .0283645
564.149 .0284349
564.944 .0285080
565.738 .0285822
566.532 .0286554
567.325 .0287263
568.118 .0287960
568.910 .0288649
569.702 .0289385
570.494 .0290164
571.285 .0291013
572.075 .0291903
572.865 .0292833
573.654 .0293789
574.443 .0294749
575.232 .0295678
576.020 .0296569
576.807 .0297400
577.594 .0298194
578.381 .0298943
579.167 .0299675
579.952 .0300380
580.738 .0301082
581.522 .0301762
582.307 .0302415
583.091 .0303021
583.874 .0303595
584.657 .0304134
585.440 .0304631
586.222 .0305093
587.004 .0305515
587.785 .0305894
588.566 .0306249
589.346 .0306554
590.126 .0306825
590.906 .0307044
591.685 .0307226
592.464 .0307352
593.242 .0307443
594.020 .0307492
594.797 .0307512
595.575 .0307513
596.351 .0307497
597.128 .0307460
597.904 .0307409
598.679 .0307342
599.454 .0307273
600.229 .0307193
601.004 .0307121
601.778 .0307050
602.551 .0307001
603.325 .0306961
604.097 .0306938
604.870 .0306922
605.642 .0306908
606.414 .0306885
607.185 .0306842
607.956 .0306782
608.727 .0306717
609.497 .0306642
610.267 .0306568
611.037 .0306493
611.806 .0306425
612.575 .0306348
613.344 .0306270
614.112 .0306178
614.880 .0306065
615.647 .0305930
616.414 .0305772
617.181 .0305599
617.948 .0305419
618.714 .0305246
619.480 .0305089
620.245 .0304954
621.011 .0304835
621.775 .0304713
622.540 .0304597
623.304 .0304473
624.068 .0304338
624.832 .0304186
625.595 .0304024
626.358 .0303869
627.120 .0303721
627.883 .0303582
628.645 .0303455
629.406 .0303349
630.168 .0303249
630.929 .0303146
631.689 .0303040
632.450 .0302917
633.210 .0302788
633.970 .0302651
634.729 .0302509
635.489 .0302359
636.248 .0302210
637.006 .0302057
637.765 .0301899
638.523 .0301731
639.280 .0301538
640.038 .0301327
640.795 .0301105
641.552 .0300868
642.309 .0300624
643.065 .0300374
643.821 .0300131
644.577 .0299885
645.332 .0299640
646.088 .0299393
646.843 .0299146
647.597 .0298900
648.352 .0298658
649.106 .0298422
649.860 .0298200
650.613 .0297995
651.367 .0297820
652.120 .0297670
652.872 .0297542
653.625 .0297425
654.377 .0297325
655.129 .0297229
655.881 .0297139
656.632 .0297047
657.384 .0296953
658.135 .0296859
658.885 .0296761
659.636 .0296659
660.386 .0296551
661.136 .0296436
661.885 .0296312
662.635 .0296171
663.384 .0296027
664.133 .0295863
664.881 .0295688
665.630 .0295506
666.378 .0295321
667.126 .0295132
667.874 .0294935
668.621 .0294735
669.368 .0294530
670.115 .0294322
670.862 .0294113
671.608 .0293899
672.354 .0293700
673.100 .0293515
673.846 .0293351
674.591 .0293206
675.337 .0293091
676.082 .0292997
676.826 .0292919
677.571 .0292857
678.315 .0292800
679.059 .0292745
679.803 .0292688
680.547 .0292628
681.290 .0292560
682.033 .0292487
682.776 .0292410
683.518 .0292325
684.261 .0292240
685.003 .0292151
685.745 .0292058
686.487 .0291961
687.228 .0291860
687.969 .0291752
688.710 .0291628
689.451 .0291499
690.192 .0291359
690.932 .0291209
691.672 .0291057
692.412 .0290905
693.152 .0290759
693.891 .0290621
694.630 .0290492
695.369 .0290373
696.108 .0290260
696.846 .0290152
697.585 .0290035
698.323 .0289908
699.061 .0289771
699.798 .0289622
700.536 .0289468
701.273 .0289312
702.010 .0289158
702.746 .0289008
703.483 .0288863
704.219 .0288717
704.955 .0288569
705.691 .0288414
706.427 .0288251
707.162 .0288078
707.897 .0287897
708.632 .0287713
709.367 .0287535
710.101 .0287364
710.835 .0287198
711.569 .0287036
712.303 .0286875
713.037 .0286705
713.770 .0286529
714.503 .0286341
715.236 .0286143
715.969 .0285937
716.702 .0285730
717.434 .0285520
718.166 .0285312
718.898 .0285110
719.629 .0284909
720.361 .0284714
721.092 .0284518
721.823 .0284316
722.554 .0284106
723.284 .0283889
724.014 .0283660
724.744 .0283417
725.474 .0283167
726.204 .0282910
726.933 .0282649
727.662 .0282387
728.391 .0282127
729.120 .0281872
729.849 .0281626
730.577 .0281386
731.305 .0281146
732.033 .0280912
732.760 .0280679
733.488 .0280445
734.215 .0280213
734.942 .0279986
735.669 .0279764
736.395 .0279556
737.122 .0279359
737.848 .0279172
738.573 .0278998
739.299 .0278833
740.024 .0278673
740.750 .0278517
741.474 .0278359
742.199 .0278196
742.924 .0278025
743.648 .0277854
744.372 .0277672
745.096 .0277489
745.819 .0277307
746.543 .0277121
747.266 .0276936
747.989 .0276754
748.711 .0276576
749.434 .0276408
750.156 .0276251
750.878 .0276102
751.599 .0275964
752.321 .0275834
753.042 .0275714
753.763 .0275602
754.484 .0275497
755.205 .0275402
755.925 .0275308
756.645 .0275216
757.365 .0275126
758.085 .0275033
758.804 .0274935
759.523 .0274828
760.242 .0274710
760.961 .0274576
761.679 .0274432
762.397 .0274270
763.115 .0274092
763.833 .0273905
764.551 .0273708
765.268 .0273500
765.985 .0273282
766.702 .0273060
767.418 .0272830
768.134 .0272601
768.850 .0272375
769.566 .0272148
770.282 .0271925
770.997 .0271710
771.712 .0271504
772.427 .0271313
773.142 .0271135
773.856 .0270969
774.570 .0270819
775.284 .0270680
775.998 .0270542
776.711 .0270405
777.424 .0270273
778.137 .0270141
778.849 .0270007
779.562 .0269877
780.274 .0269754
780.986 .0269638
781.697 .0269539
782.409 .0269450
783.120 .0269373
783.831 .0269313
784.541 .0269258
785.252 .0269207
785.962 .0269160
786.671 .0269110
787.381 .0269057
788.090 .0269002
788.799 .0268943
789.508 .0268869
790.217 .0268786
790.925 .0268697
791.633 .0268598
792.341 .0268490
793.048 .0268373
793.755 .0268249
794.462 .0268121
795.169 .0267991
795.875 .0267856
796.581 .0267724
797.287 .0267600
797.993 .0267472
798.698 .0267349
799.403 .0267228
800.108 .0267113
800.812 .0267001
801.517 .0266895
802.221 .0266795
802.924 .0266701
803.628 .0266616
804.331 .0266538
805.034 .0266470
805.736 .0266410
806.439 .0266355
807.141 .0266302
807.843 .0266248
808.544 .0266188
809.245 .0266118
809.946 .0266040
810.647 .0265950
811.347 .0265855
812.047 .0265751
812.747 .0265643
813.447 .0265533
814.146 .0265425
814.845 .0265320
815.543 .0265219
816.242 .0265124
816.940 .0265028
817.638 .0264933
818.335 .0264836
819.032 .0264731
819.729 .0264622
820.426 .0264504
821.122 .0264380
821.818 .0264250
822.514 .0264119
823.209 .0263988
823.905 .0263862
824.599 .0263743
825.294 .0263626
825.988 .0263509
826.682 .0263388
827.376 .0263256
828.069 .0263116
828.762 .0262963
829.455 .0262794
830.147 .0262614
830.840 .0262426
831.531 .0262231
832.223 .0262040
832.914 .0261847
833.605 .0261657
834.296 .0261464
834.986 .0261271
835.676 .0261076
836.366 .0260881
837.055 .0260690
837.744 .0260504
838.433 .0260321
839.121 .0260148
839.809 .0259975
840.497 .0259809
841.185 .0259650
841.872 .0259494
842.559 .0259338
843.245 .0259186
843.932 .0259037
844.617 .0258888
845.303 .0258742
845.988 .0258596
846.673 .0258449
847.358 .0258302
848.042 .0258152
848.726 .0258000
849.410 .0257851
850.093 .0257702
850.776 .0257549
851.459 .0257395
852.141 .0257238
852.823 .0257071
853.505 .0256899
854.186 .0256717
854.867 .0256529
855.548 .0256332
856.228 .0256131
856.908 .0255929
857.588 .0255734
858.267 .0255543
858.946 .0255355
859.625 .0255173
860.303 .0254999
860.981 .0254828
861.659 .0254661
862.336 .0254498
863.013 .0254340
863.690 .0254184
864.366 .0254029
865.042 .0253874
865.718 .0253727
866.393 .0253583
867.068 .0253441
867.743 .0253304
868.417 .0253169
869.091 .0253036
869.765 .0252902
870.438 .0252768
871.111 .0252627
871.783 .0252476
872.456 .0252314
873.127 .0252141
873.799 .0251960
874.470 .0251775
875.141 .0251592
875.811 .0251419
876.481 .0251256
877.151 .0251099
877.820 .0250949
878.489 .0250807
879.158 .0250668
879.826 .0250530
880.494 .0250389
881.162 .0250247
881.829 .0250107
882.496 .0249967
883.163 .0249827
883.829 .0249692
884.495 .0249564
885.160 .0249441
885.825 .0249327
886.490 .0249215
887.154 .0249108
887.818 .0249009
888.482 .0248914
889.145 .0248819
889.808 .0248723
890.471 .0248622
891.133 .0248515
891.795 .0248398
892.456 .0248278
893.117 .0248150
893.778 .0248022
894.439 .0247894
895.099 .0247767
895.758 .0247643
896.417 .0247524
897.076 .0247406
897.735 .0247292
898.393 .0247176
899.051 .0247060
899.708 .0246942
900.365 .0246826
901.022 .0246719
901.678 .0246615
902.334 .0246521
902.990 .0246439
903.645 .0246365
904.300 .0246300
904.954 .0246242
905.608 .0246193
906.262 .0246146
906.915 .0246104
907.568 .0246060
908.221 .0246014
908.873 .0245969
909.525 .0245920
910.176 .0245866
910.828 .0245808
911.478 .0245746
912.129 .0245676
912.778 .0245604
913.428 .0245532
914.077 .0245451
914.726 .0245368
915.375 .0245279
916.023 .0245185
916.670 .0245086
917.318 .0244988
917.964 .0244891
918.611 .0244794
919.257 .0244700
919.903 .0244609
920.548 .0244521
921.193 .0244442
921.838 .0244371
922.482 .0244306
923.126 .0244252
923.770 .0244207
924.413 .0244170
925.056 .0244148
925.698 .0244141
926.340 .0244148
926.982 .0244165
927.623 .0244191
928.264 .0244220
928.904 .0244241
929.544 .0244259
930.184 .0244259
930.823 .0244245
931.462 .0244212
932.101 .0244160
932.739 .0244089
933.377 .0244005
934.014 .0243909
934.651 .0243806
935.288 .0243694
935.924 .0243580
936.560 .0243459
937.196 .0243336
937.831 .0243211
938.466 .0243079
939.100 .0242941
939.734 .0242800
940.368 .0242651
941.001 .0242503
941.634 .0242354
942.266 .0242211
942.899 .0242071
943.530 .0241936
944.162 .0241806
944.793 .0241675
945.423 .0241540
946.053 .0241403
946.683 .0241255
947.313 .0241100
947.942 .0240933
948.571 .0240759
949.199 .0240581
949.827 .0240401
950.455 .0240220
951.082 .0240041
951.709 .0239865
952.335 .0239693
952.961 .0239526
953.587 .0239371
954.212 .0239228
954.837 .0239098
955.462 .0238979
956.086 .0238875
956.710 .0238785
957.334 .0238708
957.957 .0238636
958.579 .0238574
959.202 .0238517
959.824 .0238464
960.445 .0238415
961.067 .0238377
961.688 .0238351
962.308 .0238339
962.928 .0238336
963.548 .0238336
964.168 .0238331
964.787 .0238317
965.406 .0238287
966.024 .0238240
966.642 .0238175
967.260 .0238097
967.877 .0238011
968.494 .0237924
969.110 .0237841
969.727 .0237764
970.342 .0237695
970.958 .0237631
971.573 .0237567
972.188 .0237498
972.802 .0237423
973.416 .0237350
974.030 .0237275
974.643 .0237203
975.256 .0237140
975.869 .0237085
976.481 .0237045
977.093 .0237020
977.705 .0237006
978.316 .0237002
978.927 .0237006
979.538 .0237012
980.148 .0237012
980.758 .0237007
981.367 .0236997
981.977 .0236984
982.586 .0236971
983.194 .0236961
983.802 .0236955
984.410 .0236957
985.018 .0236966
985.625 .0236982
986.232 .0237003
986.838 .0237028
987.445 .0237050
988.050 .0237068
988.656 .0237077
989.261 .0237079
989.866 .0237068
990.471 .0237045
991.075 .0237012
991.679 .0236971
992.282 .0236919
992.886 .0236862
993.489 .0236806
994.091 .0236750
994.694 .0236700
995.296 .0236653
995.897 .0236604
996.499 .0236562
997.100 .0236518
997.701 .0236481
998.301 .0236453
998.901 .0236434
999.501 .0236423
1000.101 .0236424
1000.700 .0236442
1001.299 .0236459
1001.898 .0236480
1002.496 .0236495
1003.094 .0236498
1003.692 .0236487
1004.289 .0236453
1004.887 .0236402
1005.484 .0236344
1006.080 .0236280
1006.677 .0236208
1007.273 .0236133
1007.868 .0236059
1008.464 .0235981
1009.059 .0235902
1009.654 .0235822
1010.249 .0235742
1010.843 .0235667
1011.437 .0235611
1012.031 .0235565
1012.625 .0235545
1013.218 .0235549
1013.811 .0235571
1014.404 .0235610
1014.997 .0235651
1015.589 .0235689
1016.181 .0235716
1016.773 .0235731
1017.365 .0235734
1017.956 .0235714
1018.547 .0235685
1019.138 .0235642
1019.728 .0235597
1020.319 .0235545
1020.909 .0235489
1021.499 .0235430
1022.088 .0235373
1022.678 .0235310
1023.267 .0235245
1023.856 .0235176
1024.445 .0235108
1025.033 .0235043
1025.621 .0234976
1026.209 .0234908
1026.797 .0234847
1027.385 .0234789
1027.972 .0234735
1028.560 .0234680
1029.147 .0234633
1029.734 .0234590
1030.320 .0234553
1030.907 .0234515
1031.493 .0234477
1032.079 .0234443
1032.665 .0234414
1033.250 .0234388
1033.836 .0234370
1034.421 .0234356
1035.006 .0234352
1035.591 .0234357
1036.176 .0234372
1036.761 .0234389
1037.345 .0234411
1037.929 .0234426
1038.514 .0234437
1039.097 .0234436
1039.681 .0234420
1040.265 .0234386
1040.848 .0234349
1041.432 .0234293
1042.015 .0234224
1042.598 .0234139
1043.181 .0234049
1043.764 .0233948
1044.346 .0233844
1044.929 .0233729
1045.511 .0233614
1046.094 .0233494
1046.676 .0233372
1047.258 .0233240
1047.840 .0233113
1048.422 .0232986
1049.003 .0232860
1049.585 .0232736
1050.166 .0232623
1050.748 .0232519
1051.329 .0232435
1051.910 .0232368
1052.491 .0232325
1053.072 .0232299
1053.653 .0232285
1054.234 .0232275
1054.815 .0232267
1055.396 .0232252
1055.976 .0232221
1056.557 .0232167
1057.138 .0232108
1057.718 .0232037
1058.298 .0231961
1058.879 .0231875
1059.459 .0231794
1060.039 .0231712
1060.620 .0231619
1061.200 .0231507
1061.780 .0231369
1062.360 .0231198
1062.940 .0230997
1063.520 .0230770
1064.101 .0230533
1064.681 .0230302
1065.261 .0230091
1065.841 .0229904
1066.421 .0229767
1067.001 .0229656
1067.581 .0229564
1068.161 .0229489
1068.741 .0229435
1069.321 .0229387
1069.901 .0229346
1070.482 .0229318
1071.062 .0229296
1071.642 .0229286
1072.222 .0229275
1072.803 .0229252
1073.383 .0229227
1073.963 .0229186
1074.544 .0229115
1075.124 .0229014
1075.705 .0228906
1076.286 .0228781
1076.866 .0228662
1077.447 .0228553
1078.028 .0228428
1078.609 .0228307
1079.190 .0228161
1079.771 .0228005
1080.352 .0227836
1080.934 .0227677
1081.515 .0227535
1082.097 .0227424
1082.679 .0227360
1083.260 .0227332
1083.842 .0227353
1084.424 .0227425
1085.007 .0227509
1085.589 .0227595
1086.172 .0227657
1086.754 .0227686
1087.337 .0227682
1087.920 .0227679
1088.503 .0227662
1089.087 .0227658
1089.670 .0227657
1090.254 .0227654
1090.838 .0227635
1091.422 .0227608
1092.006 .0227572
1092.590 .0227506
1093.175 .0227426
1093.760 .0227312
1094.345 .0227159
1094.930 .0227008
1095.516 .0226860
1096.102 .0226726
1096.688 .0226624
1097.274 .0226561
1097.860 .0226524
1098.447 .0226519
1099.034 .0226546
1099.622 .0226582
1100.209 .0226620
1100.797 .0226652
1101.385 .0226637
1101.973 .0226574
1102.562 .0226474
1103.151 .0226319
1103.740 .0226143
1104.330 .0225952
1104.920 .0225756
1105.510 .0225566
1106.101 .0225400
1106.691 .0225243
1107.283 .0225100
1107.874 .0224963
1108.466 .0224799
1109.058 .0224612
1109.651 .0224405
1110.244 .0224176
1110.837 .0223954
1111.431 .0223757
1112.025 .0223595
1112.620 .0223494
1113.215 .0223483
1113.810 .0223517
1114.406 .0223610
1115.002 .0223742
1115.599 .0223873
1116.196 .0223974
1116.793 .0224037
1117.391 .0224066
1117.989 .0224073
1118.588 .0224095
1119.187 .0224128
1119.787 .0224186
1120.387 .0224303
1120.988 .0224446
1121.589 .0224601
1122.190 .0224763
1122.793 .0224916
1123.395 .0225022
1123.998 .0225104
1124.602 .0225172
1125.206 .0225223
1125.811 .0225287
1126.416 .0225370
1127.022 .0225456
1127.628 .0225511
1128.235 .0225540
1128.843 .0225540
1129.451 .0225525
1130.059 .0225516
1130.669 .0225516
1131.278 .0225547
1131.889 .0225646
1132.500 .0225800
1133.112 .0226026
1133.724 .0226326
1134.337 .0226695
1134.950 .0227106
1135.564 .0227556
1136.179 .0228048
1136.795 .0228608
1137.411 .0229258
1138.028 .0230012
1138.645 .0230865
1139.263 .0231812
1139.882 .0232845
1140.502 .0233919
1141.122 .0235001
1141.743 .0236110
1142.365 .0237316
1142.987 .0238644
1143.611 .0239158
1144.235 .0239434
1144.859 .0241916
1145.485 .0245907
