Measurement Sequence started on: 10-20-44-796
Integration time: 35
Scans to Average: 2 
>>>>>Begin Spectral Data<<<<<
432.953 .0206571
433.882 .0319035
434.810 .0345251
435.737 .0330964
436.662 .0357620
437.586 .0343243
438.509 .0349660
439.431 .0351110
440.351 .0351369
441.269 .0351821
442.187 .0351541
443.103 .0351392
444.018 .0351410
444.932 .0351355
445.844 .0351183
446.756 .0350640
447.666 .0350025
448.575 .0349297
449.482 .0348693
450.388 .0348244
451.294 .0347941
452.198 .0347866
453.100 .0347930
454.002 .0348117
454.902 .0348243
455.801 .0348244
456.699 .0348078
457.596 .0347751
458.492 .0347275
459.387 .0346743
460.280 .0346190
461.172 .0345675
462.064 .0345224
462.954 .0344787
463.843 .0344316
464.730 .0343781
465.617 .0343182
466.503 .0342510
467.387 .0341749
468.271 .0340961
469.153 .0340145
470.035 .0339383
470.915 .0338707
471.794 .0338107
472.673 .0337615
473.550 .0337197
474.426 .0336853
475.301 .0336580
476.175 .0336358
477.048 .0336223
477.920 .0336158
478.791 .0336179
479.661 .0336278
480.530 .0336463
481.398 .0336683
482.266 .0336947
483.132 .0337227
483.997 .0337484
484.861 .0337666
485.724 .0337820
486.587 .0337913
487.448 .0337956
488.308 .0337983
489.168 .0338001
490.026 .0337994
490.884 .0337997
491.741 .0337938
492.597 .0337858
493.452 .0337716
494.306 .0337504
495.159 .0337174
496.011 .0336818
496.862 .0336415
497.713 .0335964
498.562 .0335503
499.411 .0335069
500.259 .0334640
501.106 .0334227
501.952 .0333781
502.798 .0333281
503.642 .0332683
504.486 .0331997
505.329 .0331180
506.171 .0330287
507.012 .0329319
507.852 .0328332
508.692 .0327339
509.531 .0326365
510.369 .0325379
511.206 .0324377
512.043 .0323355
512.878 .0322270
513.713 .0321064
514.547 .0319735
515.381 .0318315
516.213 .0316834
517.045 .0315300
517.876 .0313770
518.706 .0312264
519.536 .0310831
520.365 .0309468
521.193 .0308184
522.020 .0306925
522.847 .0305698
523.673 .0304454
524.498 .0303156
525.323 .0301792
526.146 .0300385
526.969 .0298982
527.792 .0297626
528.614 .0296310
529.435 .0295091
530.255 .0293974
531.075 .0292991
531.894 .0292101
532.712 .0291269
533.530 .0290433
534.347 .0289596
535.163 .0288672
535.979 .0287715
536.794 .0286776
537.608 .0285937
538.422 .0285213
539.235 .0284683
540.048 .0284344
540.860 .0284164
541.671 .0284131
542.481 .0284192
543.292 .0284208
544.101 .0284158
544.910 .0284002
545.718 .0283762
546.526 .0283482
547.333 .0283223
548.139 .0283029
548.945 .0282929
549.750 .0282927
550.555 .0282987
551.359 .0283072
552.162 .0283208
552.965 .0283319
553.768 .0283404
554.569 .0283484
555.371 .0283569
556.171 .0283694
556.972 .0283897
557.771 .0284196
558.570 .0284581
559.369 .0285027
560.167 .0285533
560.964 .0286044
561.761 .0286562
562.558 .0287070
563.354 .0287634
564.149 .0288214
564.944 .0288870
565.738 .0289554
566.532 .0290316
567.325 .0291099
568.118 .0291922
568.910 .0292743
569.702 .0293570
570.494 .0294450
571.285 .0295347
572.075 .0296265
572.865 .0297232
573.654 .0298181
574.443 .0299128
575.232 .0300017
576.020 .0300852
576.807 .0301559
577.594 .0302196
578.381 .0302747
579.167 .0303217
579.952 .0303639
580.738 .0304022
581.522 .0304389
582.307 .0304747
583.091 .0305091
583.874 .0305411
584.657 .0305723
585.440 .0306013
586.222 .0306260
587.004 .0306486
587.785 .0306694
588.566 .0306882
589.346 .0307067
590.126 .0307242
590.906 .0307401
591.685 .0307547
592.464 .0307674
593.242 .0307769
594.020 .0307840
594.797 .0307881
595.575 .0307889
596.351 .0307866
597.128 .0307818
597.904 .0307731
598.679 .0307627
599.454 .0307497
600.229 .0307359
601.004 .0307211
601.778 .0307066
602.551 .0306916
603.325 .0306763
604.097 .0306612
604.870 .0306455
605.642 .0306293
606.414 .0306138
607.185 .0305987
607.956 .0305849
608.727 .0305729
609.497 .0305630
610.267 .0305543
611.037 .0305472
611.806 .0305407
612.575 .0305340
613.344 .0305264
614.112 .0305170
614.880 .0305047
615.647 .0304895
616.414 .0304723
617.181 .0304527
617.948 .0304315
618.714 .0304097
619.480 .0303875
620.245 .0303642
621.011 .0303403
621.775 .0303160
622.540 .0302912
623.304 .0302672
624.068 .0302445
624.832 .0302226
625.595 .0302034
626.358 .0301861
627.120 .0301714
627.883 .0301589
628.645 .0301485
629.406 .0301387
630.168 .0301293
630.929 .0301202
631.689 .0301103
632.450 .0300987
633.210 .0300872
633.970 .0300736
634.729 .0300585
635.489 .0300408
636.248 .0300206
637.006 .0299981
637.765 .0299732
638.523 .0299462
639.280 .0299177
640.038 .0298887
640.795 .0298601
641.552 .0298323
642.309 .0298074
643.065 .0297850
643.821 .0297654
644.577 .0297485
645.332 .0297342
646.088 .0297214
646.843 .0297097
647.597 .0296985
648.352 .0296886
649.106 .0296794
649.860 .0296693
650.613 .0296587
651.367 .0296473
652.120 .0296349
652.872 .0296212
653.625 .0296060
654.377 .0295904
655.129 .0295743
655.881 .0295584
656.632 .0295421
657.384 .0295263
658.135 .0295111
658.885 .0294957
659.636 .0294811
660.386 .0294673
661.136 .0294535
661.885 .0294404
662.635 .0294282
663.384 .0294174
664.133 .0294075
664.881 .0293983
665.630 .0293895
666.378 .0293809
667.126 .0293707
667.874 .0293574
668.621 .0293412
669.368 .0293228
670.115 .0293012
670.862 .0292771
671.608 .0292522
672.354 .0292274
673.100 .0292033
673.846 .0291806
674.591 .0291591
675.337 .0291393
676.082 .0291203
676.826 .0291009
677.571 .0290814
678.315 .0290620
679.059 .0290428
679.803 .0290243
680.547 .0290072
681.290 .0289916
682.033 .0289767
682.776 .0289623
683.518 .0289477
684.261 .0289319
685.003 .0289145
685.745 .0288951
686.487 .0288739
687.228 .0288511
687.969 .0288270
688.710 .0288028
689.451 .0287789
690.192 .0287556
690.932 .0287325
691.672 .0287093
692.412 .0286861
693.152 .0286627
693.891 .0286389
694.630 .0286150
695.369 .0285919
696.108 .0285694
696.846 .0285474
697.585 .0285257
698.323 .0285044
699.061 .0284834
699.798 .0284621
700.536 .0284405
701.273 .0284184
702.010 .0283960
702.746 .0283735
703.483 .0283509
704.219 .0283286
704.955 .0283065
705.691 .0282850
706.427 .0282635
707.162 .0282425
707.897 .0282218
708.632 .0282016
709.367 .0281817
710.101 .0281622
710.835 .0281425
711.569 .0281221
712.303 .0281014
713.037 .0280807
713.770 .0280601
714.503 .0280405
715.236 .0280219
715.969 .0280050
716.702 .0279895
717.434 .0279758
718.166 .0279630
718.898 .0279508
719.629 .0279388
720.361 .0279261
721.092 .0279124
721.823 .0278983
722.554 .0278835
723.284 .0278688
724.014 .0278540
724.744 .0278394
725.474 .0278242
726.204 .0278080
726.933 .0277906
727.662 .0277709
728.391 .0277498
729.120 .0277272
729.849 .0277031
730.577 .0276788
731.305 .0276549
732.033 .0276318
732.760 .0276092
733.488 .0275880
734.215 .0275675
734.942 .0275472
735.669 .0275271
736.395 .0275069
737.122 .0274870
737.848 .0274680
738.573 .0274498
739.299 .0274326
740.024 .0274168
740.750 .0274018
741.474 .0273870
742.199 .0273730
742.924 .0273594
743.648 .0273461
744.372 .0273333
745.096 .0273217
745.819 .0273112
746.543 .0273020
747.266 .0272944
747.989 .0272885
748.711 .0272842
749.434 .0272810
750.156 .0272786
750.878 .0272773
751.599 .0272769
752.321 .0272777
753.042 .0272793
753.763 .0272817
754.484 .0272845
755.205 .0272870
755.925 .0272886
756.645 .0272895
757.365 .0272891
758.085 .0272875
758.804 .0272846
759.523 .0272807
760.242 .0272753
760.961 .0272690
761.679 .0272616
762.397 .0272523
763.115 .0272418
763.833 .0272294
764.551 .0272150
765.268 .0271990
765.985 .0271816
766.702 .0271628
767.418 .0271432
768.134 .0271234
768.850 .0271029
769.566 .0270827
770.282 .0270630
770.997 .0270435
771.712 .0270246
772.427 .0270066
773.142 .0269894
773.856 .0269726
774.570 .0269567
775.284 .0269413
775.998 .0269261
776.711 .0269121
777.424 .0268986
778.137 .0268859
778.849 .0268743
779.562 .0268641
780.274 .0268544
780.986 .0268457
781.697 .0268379
782.409 .0268305
783.120 .0268235
783.831 .0268168
784.541 .0268100
785.252 .0268031
785.962 .0267967
786.671 .0267900
787.381 .0267825
788.090 .0267752
788.799 .0267666
789.508 .0267574
790.217 .0267475
790.925 .0267366
791.633 .0267248
792.341 .0267128
793.048 .0267000
793.755 .0266860
794.462 .0266714
795.169 .0266562
795.875 .0266404
796.581 .0266249
797.287 .0266095
797.993 .0265946
798.698 .0265811
799.403 .0265695
800.108 .0265591
800.812 .0265500
801.517 .0265420
802.221 .0265346
802.924 .0265275
803.628 .0265203
804.331 .0265124
805.034 .0265043
805.736 .0264958
806.439 .0264861
807.141 .0264755
807.843 .0264643
808.544 .0264521
809.245 .0264387
809.946 .0264242
810.647 .0264085
811.347 .0263919
812.047 .0263744
812.747 .0263564
813.447 .0263379
814.146 .0263195
814.845 .0263012
815.543 .0262836
816.242 .0262671
816.940 .0262517
817.638 .0262375
818.335 .0262251
819.032 .0262140
819.729 .0262042
820.426 .0261951
821.122 .0261864
821.818 .0261774
822.514 .0261677
823.209 .0261570
823.905 .0261456
824.599 .0261334
825.294 .0261206
825.988 .0261069
826.682 .0260927
827.376 .0260776
828.069 .0260614
828.762 .0260439
829.455 .0260250
830.147 .0260047
830.840 .0259833
831.531 .0259613
832.223 .0259398
832.914 .0259194
833.605 .0258999
834.296 .0258815
834.986 .0258642
835.676 .0258475
836.366 .0258311
837.055 .0258142
837.744 .0257971
838.433 .0257792
839.121 .0257610
839.809 .0257426
840.497 .0257246
841.185 .0257078
841.872 .0256922
842.559 .0256781
843.245 .0256654
843.932 .0256536
844.617 .0256425
845.303 .0256320
845.988 .0256218
846.673 .0256112
847.358 .0256001
848.042 .0255887
848.726 .0255772
849.410 .0255655
850.093 .0255539
850.776 .0255427
851.459 .0255319
852.141 .0255211
852.823 .0255100
853.505 .0254984
854.186 .0254861
854.867 .0254728
855.548 .0254581
856.228 .0254422
856.908 .0254254
857.588 .0254079
858.267 .0253906
858.946 .0253742
859.625 .0253587
860.303 .0253442
860.981 .0253308
861.659 .0253188
862.336 .0253071
863.013 .0252958
863.690 .0252844
864.366 .0252730
865.042 .0252614
865.718 .0252495
866.393 .0252375
867.068 .0252260
867.743 .0252152
868.417 .0252054
869.091 .0251961
869.765 .0251874
870.438 .0251788
871.111 .0251698
871.783 .0251603
872.456 .0251500
873.127 .0251383
873.799 .0251260
874.470 .0251128
875.141 .0250997
875.811 .0250864
876.481 .0250738
877.151 .0250622
877.820 .0250517
878.489 .0250417
879.158 .0250320
879.826 .0250223
880.494 .0250129
881.162 .0250034
881.829 .0249942
882.496 .0249849
883.163 .0249763
883.829 .0249681
884.495 .0249604
885.160 .0249538
885.825 .0249483
886.490 .0249438
887.154 .0249405
887.818 .0249378
888.482 .0249352
889.145 .0249324
889.808 .0249294
890.471 .0249256
891.133 .0249210
891.795 .0249152
892.456 .0249079
893.117 .0248997
893.778 .0248915
894.439 .0248829
895.099 .0248749
895.758 .0248678
896.417 .0248612
897.076 .0248551
897.735 .0248493
898.393 .0248438
899.051 .0248380
899.708 .0248323
900.365 .0248259
901.022 .0248191
901.678 .0248126
902.334 .0248060
902.990 .0248002
903.645 .0247960
904.300 .0247928
904.954 .0247902
905.608 .0247884
906.262 .0247872
906.915 .0247859
907.568 .0247843
908.221 .0247823
908.873 .0247794
909.525 .0247758
910.176 .0247715
910.828 .0247663
911.478 .0247616
912.129 .0247571
912.778 .0247523
913.428 .0247478
914.077 .0247431
914.726 .0247378
915.375 .0247316
916.023 .0247251
916.670 .0247178
917.318 .0247099
917.964 .0247015
918.611 .0246927
919.257 .0246838
919.903 .0246749
920.548 .0246656
921.193 .0246562
921.838 .0246472
922.482 .0246379
923.126 .0246291
923.770 .0246211
924.413 .0246137
925.056 .0246071
925.698 .0246011
926.340 .0245957
926.982 .0245902
927.623 .0245847
928.264 .0245789
928.904 .0245728
929.544 .0245668
930.184 .0245606
930.823 .0245543
931.462 .0245483
932.101 .0245421
932.739 .0245358
933.377 .0245283
934.014 .0245192
934.651 .0245087
935.288 .0244963
935.924 .0244829
936.560 .0244692
937.196 .0244556
937.831 .0244431
938.466 .0244317
939.100 .0244211
939.734 .0244109
940.368 .0244009
941.001 .0243911
941.634 .0243811
942.266 .0243715
942.899 .0243623
943.530 .0243542
944.162 .0243478
944.793 .0243429
945.423 .0243389
946.053 .0243354
946.683 .0243312
947.313 .0243255
947.942 .0243178
948.571 .0243080
949.199 .0242959
949.827 .0242824
950.455 .0242683
951.082 .0242540
951.709 .0242400
952.335 .0242266
952.961 .0242130
953.587 .0241992
954.212 .0241843
954.837 .0241682
955.462 .0241508
956.086 .0241328
956.710 .0241149
957.334 .0240981
957.957 .0240831
958.579 .0240706
959.202 .0240606
959.824 .0240537
960.445 .0240486
961.067 .0240454
961.688 .0240433
962.308 .0240420
962.928 .0240411
963.548 .0240405
964.168 .0240395
964.787 .0240384
965.406 .0240370
966.024 .0240357
966.642 .0240339
967.260 .0240321
967.877 .0240299
968.494 .0240271
969.110 .0240239
969.727 .0240197
970.342 .0240140
970.958 .0240075
971.573 .0240000
972.188 .0239913
972.802 .0239814
973.416 .0239709
974.030 .0239598
974.643 .0239489
975.256 .0239386
975.869 .0239295
976.481 .0239214
977.093 .0239150
977.705 .0239100
978.316 .0239069
978.927 .0239052
979.538 .0239041
980.148 .0239034
980.758 .0239025
981.367 .0239018
981.977 .0239001
982.586 .0238982
983.194 .0238964
983.802 .0238944
984.410 .0238925
985.018 .0238905
985.625 .0238887
986.232 .0238869
986.838 .0238849
987.445 .0238820
988.050 .0238777
988.656 .0238720
989.261 .0238649
989.866 .0238561
990.471 .0238465
991.075 .0238368
991.679 .0238267
992.282 .0238178
992.886 .0238102
993.489 .0238041
994.091 .0238000
994.694 .0237974
995.296 .0237963
995.897 .0237956
996.499 .0237955
997.100 .0237956
997.701 .0237963
998.301 .0237981
998.901 .0238007
999.501 .0238042
1000.101 .0238095
1000.700 .0238156
1001.299 .0238224
1001.898 .0238296
1002.496 .0238368
1003.094 .0238429
1003.692 .0238479
1004.289 .0238516
1004.887 .0238543
1005.484 .0238558
1006.080 .0238563
1006.677 .0238552
1007.273 .0238529
1007.868 .0238494
1008.464 .0238447
1009.059 .0238389
1009.654 .0238325
1010.249 .0238255
1010.843 .0238186
1011.437 .0238120
1012.031 .0238058
1012.625 .0238007
1013.218 .0237965
1013.811 .0237935
1014.404 .0237911
1014.997 .0237890
1015.589 .0237875
1016.181 .0237864
1016.773 .0237856
1017.365 .0237853
1017.956 .0237852
1018.547 .0237855
1019.138 .0237860
1019.728 .0237869
1020.319 .0237873
1020.909 .0237877
1021.499 .0237877
1022.088 .0237869
1022.678 .0237847
1023.267 .0237815
1023.856 .0237767
1024.445 .0237714
1025.033 .0237650
1025.621 .0237585
1026.209 .0237522
1026.797 .0237469
1027.385 .0237417
1027.972 .0237380
1028.560 .0237353
1029.147 .0237335
1029.734 .0237330
1030.320 .0237335
1030.907 .0237338
1031.493 .0237344
1032.079 .0237342
1032.665 .0237334
1033.250 .0237316
1033.836 .0237295
1034.421 .0237262
1035.006 .0237230
1035.591 .0237198
1036.176 .0237160
1036.761 .0237123
1037.345 .0237086
1037.929 .0237036
1038.514 .0236979
1039.097 .0236914
1039.681 .0236830
1040.265 .0236736
1040.848 .0236644
1041.432 .0236548
1042.015 .0236456
1042.598 .0236364
1043.181 .0236273
1043.764 .0236179
1044.346 .0236087
1044.929 .0235997
1045.511 .0235910
1046.094 .0235839
1046.676 .0235778
1047.258 .0235724
1047.840 .0235689
1048.422 .0235669
1049.003 .0235658
1049.585 .0235653
1050.166 .0235654
1050.748 .0235653
1051.329 .0235647
1051.910 .0235646
1052.491 .0235647
1053.072 .0235650
1053.653 .0235662
1054.234 .0235676
1054.815 .0235683
1055.396 .0235685
1055.976 .0235674
1056.557 .0235636
1057.138 .0235590
1057.718 .0235521
1058.298 .0235436
1058.879 .0235345
1059.459 .0235259
1060.039 .0235179
1060.620 .0235103
1061.200 .0235034
1061.780 .0234953
1062.360 .0234865
1062.940 .0234775
1063.520 .0234660
1064.101 .0234543
1064.681 .0234425
1065.261 .0234310
1065.841 .0234205
1066.421 .0234116
1067.001 .0234036
1067.581 .0233959
1068.161 .0233876
1068.741 .0233775
1069.321 .0233660
1069.901 .0233535
1070.482 .0233398
1071.062 .0233259
1071.642 .0233126
1072.222 .0233011
1072.803 .0232908
1073.383 .0232837
1073.963 .0232791
1074.544 .0232762
1075.124 .0232736
1075.705 .0232711
1076.286 .0232683
1076.866 .0232654
1077.447 .0232614
1078.028 .0232569
1078.609 .0232514
1079.190 .0232454
1079.771 .0232386
1080.352 .0232317
1080.934 .0232238
1081.515 .0232155
1082.097 .0232071
1082.679 .0231988
1083.260 .0231900
1083.842 .0231822
1084.424 .0231754
1085.007 .0231703
1085.589 .0231655
1086.172 .0231597
1086.754 .0231532
1087.337 .0231490
1087.920 .0231462
1088.503 .0231442
1089.087 .0231448
1089.670 .0231472
1090.254 .0231497
1090.838 .0231530
1091.422 .0231556
1092.006 .0231573
1092.590 .0231568
1093.175 .0231548
1093.760 .0231488
1094.345 .0231410
1094.930 .0231318
1095.516 .0231223
1096.102 .0231155
1096.688 .0231092
1097.274 .0231025
1097.860 .0230946
1098.447 .0230869
1099.034 .0230780
1099.622 .0230669
1100.209 .0230556
1100.797 .0230434
1101.385 .0230324
1101.973 .0230227
1102.562 .0230148
1103.151 .0230103
1103.740 .0230077
1104.330 .0230050
1104.920 .0230011
1105.510 .0229946
1106.101 .0229848
1106.691 .0229746
1107.283 .0229643
1107.874 .0229558
1108.466 .0229495
1109.058 .0229467
1109.651 .0229483
1110.244 .0229522
1110.837 .0229619
1111.431 .0229708
1112.025 .0229817
1112.620 .0229936
1113.215 .0230043
1113.810 .0230149
1114.406 .0230269
1115.002 .0230385
1115.599 .0230497
1116.196 .0230590
1116.793 .0230661
1117.391 .0230668
1117.989 .0230656
1118.588 .0230601
1119.187 .0230513
1119.787 .0230384
1120.387 .0230260
1120.988 .0230085
1121.589 .0229927
1122.190 .0229724
1122.793 .0229509
1123.395 .0229289
1123.998 .0229082
1124.602 .0228880
1125.206 .0228727
1125.811 .0228631
1126.416 .0228615
1127.022 .0228651
1127.628 .0228781
1128.235 .0228933
1128.843 .0229146
1129.451 .0229348
1130.059 .0229575
1130.669 .0229784
1131.278 .0229998
1131.889 .0230200
1132.500 .0230394
1133.112 .0230567
1133.724 .0230714
1134.337 .0230839
1134.950 .0230926
1135.564 .0230981
1136.179 .0231062
1136.795 .0231162
1137.411 .0231333
1138.028 .0231572
1138.645 .0231885
1139.263 .0232272
1139.882 .0232728
1140.502 .0233299
1141.122 .0233967
1141.743 .0234963
1142.365 .0236043
1142.987 .0235426
1143.611 .0238220
1144.235 .0239650
1144.859 .0246160
1145.485 .0242821
