Measurement Sequence started on: 10-20-44-796
Integration time: 35
Scans to Average: 2 
>>>>>Begin Spectral Data<<<<<
432.953 .0372507
433.882 .0337587
434.810 .0333814
435.737 .0351927
436.662 .0334528
437.586 .0346706
438.509 .0346429
439.431 .0347092
440.351 .0347452
441.269 .0347158
442.187 .0347178
443.103 .0346780
444.018 .0346484
444.932 .0346233
445.844 .0345894
446.756 .0345466
447.666 .0344902
448.575 .0344192
449.482 .0343489
450.388 .0342978
451.294 .0342595
452.198 .0342441
453.100 .0342378
454.002 .0342474
454.902 .0342675
455.801 .0342921
456.699 .0343111
457.596 .0343214
458.492 .0343219
459.387 .0343180
460.280 .0343102
461.172 .0343011
462.064 .0342867
462.954 .0342685
463.843 .0342458
464.730 .0342135
465.617 .0341735
466.503 .0341259
467.387 .0340727
468.271 .0340141
469.153 .0339560
470.035 .0338966
470.915 .0338439
471.794 .0337932
472.673 .0337463
473.550 .0337018
474.426 .0336599
475.301 .0336154
476.175 .0335708
477.048 .0335244
477.920 .0334773
478.791 .0334312
479.661 .0333915
480.530 .0333554
481.398 .0333273
482.266 .0333047
483.132 .0332908
483.997 .0332785
484.861 .0332699
485.724 .0332615
486.587 .0332538
487.448 .0332477
488.308 .0332400
489.168 .0332341
490.026 .0332293
490.884 .0332262
491.741 .0332222
492.597 .0332142
493.452 .0332033
494.306 .0331857
495.159 .0331630
496.011 .0331346
496.862 .0331010
497.713 .0330613
498.562 .0330141
499.411 .0329602
500.259 .0328961
501.106 .0328226
501.952 .0327394
502.798 .0326504
503.642 .0325549
504.486 .0324557
505.329 .0323565
506.171 .0322630
507.012 .0321739
507.852 .0320881
508.692 .0320001
509.531 .0319076
510.369 .0318084
511.206 .0317026
512.043 .0315856
512.878 .0314602
513.713 .0313297
514.547 .0311955
515.381 .0310599
516.213 .0309204
517.045 .0307778
517.876 .0306291
518.706 .0304732
519.536 .0303072
520.365 .0301299
521.193 .0299510
522.020 .0297744
522.847 .0296016
523.673 .0294377
524.498 .0292847
525.323 .0291395
526.146 .0290038
526.969 .0288804
527.792 .0287616
528.614 .0286505
529.435 .0285549
530.255 .0284734
531.075 .0283984
531.894 .0283337
532.712 .0282775
533.530 .0282198
534.347 .0281583
535.163 .0280833
535.979 .0280025
536.794 .0279273
537.608 .0278597
538.422 .0278018
539.235 .0277714
540.048 .0277680
540.860 .0277819
541.671 .0277995
542.481 .0278190
543.292 .0278268
544.101 .0278238
544.910 .0278101
545.718 .0277923
546.526 .0277817
547.333 .0277915
548.139 .0278178
548.945 .0278674
549.750 .0279322
550.555 .0280084
551.359 .0280791
552.162 .0281388
552.965 .0281755
553.768 .0281945
554.569 .0282072
555.371 .0282196
556.171 .0282380
556.972 .0282710
557.771 .0283205
558.570 .0283839
559.369 .0284568
560.167 .0285348
560.964 .0286097
561.761 .0286790
562.558 .0287407
563.354 .0287932
564.149 .0288406
564.944 .0288891
565.738 .0289430
566.532 .0290017
567.325 .0290679
568.118 .0291354
568.910 .0292075
569.702 .0292759
570.494 .0293412
571.285 .0293994
572.075 .0294507
572.865 .0294951
573.654 .0295314
574.443 .0295638
575.232 .0295957
576.020 .0296287
576.807 .0296679
577.594 .0297097
578.381 .0297597
579.167 .0298118
579.952 .0298667
580.738 .0299230
581.522 .0299803
582.307 .0300367
583.091 .0300942
583.874 .0301527
584.657 .0302097
585.440 .0302653
586.222 .0303183
587.004 .0303674
587.785 .0304114
588.566 .0304508
589.346 .0304839
590.126 .0305110
590.906 .0305337
591.685 .0305519
592.464 .0305662
593.242 .0305785
594.020 .0305875
594.797 .0305934
595.575 .0305970
596.351 .0305979
597.128 .0305963
597.904 .0305934
598.679 .0305900
599.454 .0305864
600.229 .0305826
601.004 .0305791
601.778 .0305751
602.551 .0305710
603.325 .0305658
604.097 .0305593
604.870 .0305516
605.642 .0305430
606.414 .0305333
607.185 .0305223
607.956 .0305104
608.727 .0304976
609.497 .0304849
610.267 .0304714
611.037 .0304576
611.806 .0304445
612.575 .0304315
613.344 .0304194
614.112 .0304079
614.880 .0303966
615.647 .0303854
616.414 .0303740
617.181 .0303622
617.948 .0303488
618.714 .0303345
619.480 .0303189
620.245 .0303020
621.011 .0302849
621.775 .0302671
622.540 .0302484
623.304 .0302293
624.068 .0302104
624.832 .0301907
625.595 .0301711
626.358 .0301514
627.120 .0301319
627.883 .0301124
628.645 .0300933
629.406 .0300744
630.168 .0300560
630.929 .0300387
631.689 .0300220
632.450 .0300062
633.210 .0299918
633.970 .0299773
634.729 .0299628
635.489 .0299477
636.248 .0299317
637.006 .0299140
637.765 .0298948
638.523 .0298744
639.280 .0298529
640.038 .0298309
640.795 .0298091
641.552 .0297880
642.309 .0297679
643.065 .0297484
643.821 .0297293
644.577 .0297102
645.332 .0296907
646.088 .0296702
646.843 .0296490
647.597 .0296273
648.352 .0296047
649.106 .0295821
649.860 .0295595
650.613 .0295377
651.367 .0295171
652.120 .0294973
652.872 .0294788
653.625 .0294614
654.377 .0294444
655.129 .0294277
655.881 .0294108
656.632 .0293937
657.384 .0293755
658.135 .0293565
658.885 .0293371
659.636 .0293172
660.386 .0292974
661.136 .0292783
661.885 .0292605
662.635 .0292447
663.384 .0292301
664.133 .0292161
664.881 .0292027
665.630 .0291888
666.378 .0291749
667.126 .0291600
667.874 .0291444
668.621 .0291289
669.368 .0291140
670.115 .0291002
670.862 .0290872
671.608 .0290759
672.354 .0290658
673.100 .0290555
673.846 .0290451
674.591 .0290332
675.337 .0290200
676.082 .0290059
676.826 .0289909
677.571 .0289762
678.315 .0289621
679.059 .0289485
679.803 .0289360
680.547 .0289247
681.290 .0289133
682.033 .0289009
682.776 .0288869
683.518 .0288716
684.261 .0288546
685.003 .0288364
685.745 .0288176
686.487 .0287995
687.228 .0287826
687.969 .0287660
688.710 .0287501
689.451 .0287344
690.192 .0287179
690.932 .0287000
691.672 .0286807
692.412 .0286597
693.152 .0286376
693.891 .0286150
694.630 .0285930
695.369 .0285722
696.108 .0285524
696.846 .0285329
697.585 .0285142
698.323 .0284961
699.061 .0284771
699.798 .0284571
700.536 .0284368
701.273 .0284160
702.010 .0283950
702.746 .0283742
703.483 .0283542
704.219 .0283350
704.955 .0283170
705.691 .0282991
706.427 .0282815
707.162 .0282643
707.897 .0282468
708.632 .0282296
709.367 .0282129
710.101 .0281965
710.835 .0281801
711.569 .0281641
712.303 .0281475
713.037 .0281306
713.770 .0281133
714.503 .0280949
715.236 .0280762
715.969 .0280570
716.702 .0280379
717.434 .0280190
718.166 .0280005
718.898 .0279820
719.629 .0279636
720.361 .0279460
721.092 .0279281
721.823 .0279106
722.554 .0278936
723.284 .0278777
724.014 .0278624
724.744 .0278478
725.474 .0278336
726.204 .0278194
726.933 .0278052
727.662 .0277904
728.391 .0277748
729.120 .0277584
729.849 .0277412
730.577 .0277237
731.305 .0277056
732.033 .0276874
732.760 .0276682
733.488 .0276489
734.215 .0276291
734.942 .0276087
735.669 .0275877
736.395 .0275668
737.122 .0275470
737.848 .0275277
738.573 .0275090
739.299 .0274917
740.024 .0274754
740.750 .0274605
741.474 .0274468
742.199 .0274338
742.924 .0274215
743.648 .0274101
744.372 .0273998
745.096 .0273907
745.819 .0273829
746.543 .0273760
747.266 .0273698
747.989 .0273646
748.711 .0273600
749.434 .0273555
750.156 .0273517
750.878 .0273488
751.599 .0273456
752.321 .0273425
753.042 .0273396
753.763 .0273368
754.484 .0273347
755.205 .0273331
755.925 .0273318
756.645 .0273303
757.365 .0273283
758.085 .0273254
758.804 .0273212
759.523 .0273154
760.242 .0273075
760.961 .0272977
761.679 .0272867
762.397 .0272743
763.115 .0272612
763.833 .0272478
764.551 .0272340
765.268 .0272193
765.985 .0272030
766.702 .0271850
767.418 .0271656
768.134 .0271448
768.850 .0271230
769.566 .0271009
770.282 .0270790
770.997 .0270580
771.712 .0270382
772.427 .0270193
773.142 .0270014
773.856 .0269840
774.570 .0269671
775.284 .0269501
775.998 .0269336
776.711 .0269176
777.424 .0269020
778.137 .0268872
778.849 .0268732
779.562 .0268595
780.274 .0268462
780.986 .0268328
781.697 .0268191
782.409 .0268049
783.120 .0267912
783.831 .0267778
784.541 .0267652
785.252 .0267537
785.962 .0267429
786.671 .0267322
787.381 .0267217
788.090 .0267105
788.799 .0266985
789.508 .0266855
790.217 .0266720
790.925 .0266580
791.633 .0266442
792.341 .0266304
793.048 .0266170
793.755 .0266041
794.462 .0265914
795.169 .0265781
795.875 .0265645
796.581 .0265504
797.287 .0265362
797.993 .0265221
798.698 .0265091
799.403 .0264971
800.108 .0264864
800.812 .0264771
801.517 .0264691
802.221 .0264620
802.924 .0264556
803.628 .0264496
804.331 .0264440
805.034 .0264384
805.736 .0264328
806.439 .0264271
807.141 .0264214
807.843 .0264152
808.544 .0264082
809.245 .0263995
809.946 .0263890
810.647 .0263766
811.347 .0263623
812.047 .0263462
812.747 .0263290
813.447 .0263112
814.146 .0262929
814.845 .0262749
815.543 .0262572
816.242 .0262395
816.940 .0262226
817.638 .0262054
818.335 .0261884
819.032 .0261715
819.729 .0261546
820.426 .0261382
821.122 .0261228
821.818 .0261082
822.514 .0260941
823.209 .0260806
823.905 .0260675
824.599 .0260541
825.294 .0260402
825.988 .0260256
826.682 .0260100
827.376 .0259935
828.069 .0259759
828.762 .0259571
829.455 .0259379
830.147 .0259183
830.840 .0258986
831.531 .0258795
832.223 .0258606
832.914 .0258420
833.605 .0258232
834.296 .0258048
834.986 .0257871
835.676 .0257700
836.366 .0257536
837.055 .0257384
837.744 .0257244
838.433 .0257114
839.121 .0256995
839.809 .0256890
840.497 .0256795
841.185 .0256711
841.872 .0256633
842.559 .0256563
843.245 .0256502
843.932 .0256454
844.617 .0256412
845.303 .0256378
845.988 .0256339
846.673 .0256291
847.358 .0256235
848.042 .0256169
848.726 .0256086
849.410 .0255991
850.093 .0255884
850.776 .0255770
851.459 .0255649
852.141 .0255528
852.823 .0255406
853.505 .0255286
854.186 .0255165
854.867 .0255037
855.548 .0254906
856.228 .0254777
856.908 .0254651
857.588 .0254532
858.267 .0254424
858.946 .0254325
859.625 .0254235
860.303 .0254159
860.981 .0254088
861.659 .0254020
862.336 .0253951
863.013 .0253877
863.690 .0253797
864.366 .0253713
865.042 .0253623
865.718 .0253527
866.393 .0253428
867.068 .0253321
867.743 .0253205
868.417 .0253081
869.091 .0252951
869.765 .0252816
870.438 .0252679
871.111 .0252544
871.783 .0252410
872.456 .0252284
873.127 .0252164
873.799 .0252053
874.470 .0251949
875.141 .0251849
875.811 .0251752
876.481 .0251657
877.151 .0251564
877.820 .0251474
878.489 .0251391
879.158 .0251315
879.826 .0251249
880.494 .0251190
881.162 .0251133
881.829 .0251080
882.496 .0251025
883.163 .0250965
883.829 .0250898
884.495 .0250827
885.160 .0250753
885.825 .0250677
886.490 .0250605
887.154 .0250536
887.818 .0250473
888.482 .0250418
889.145 .0250363
889.808 .0250311
890.471 .0250254
891.133 .0250196
891.795 .0250140
892.456 .0250084
893.117 .0250033
893.778 .0249985
894.439 .0249943
895.099 .0249906
895.758 .0249871
896.417 .0249840
897.076 .0249806
897.735 .0249772
898.393 .0249734
899.051 .0249690
899.708 .0249643
900.365 .0249594
901.022 .0249548
901.678 .0249506
902.334 .0249467
902.990 .0249432
903.645 .0249403
904.300 .0249378
904.954 .0249354
905.608 .0249329
906.262 .0249303
906.915 .0249278
907.568 .0249249
908.221 .0249224
908.873 .0249204
909.525 .0249190
910.176 .0249182
910.828 .0249174
911.478 .0249169
912.129 .0249161
912.778 .0249148
913.428 .0249127
914.077 .0249097
914.726 .0249056
915.375 .0249004
916.023 .0248945
916.670 .0248879
917.318 .0248801
917.964 .0248715
918.611 .0248617
919.257 .0248512
919.903 .0248398
920.548 .0248281
921.193 .0248166
921.838 .0248059
922.482 .0247958
923.126 .0247861
923.770 .0247773
924.413 .0247688
925.056 .0247604
925.698 .0247518
926.340 .0247433
926.982 .0247349
927.623 .0247270
928.264 .0247199
928.904 .0247134
929.544 .0247077
930.184 .0247023
930.823 .0246966
931.462 .0246907
932.101 .0246839
932.739 .0246759
933.377 .0246663
934.014 .0246557
934.651 .0246441
935.288 .0246318
935.924 .0246198
936.560 .0246081
937.196 .0245972
937.831 .0245870
938.466 .0245772
939.100 .0245676
939.734 .0245581
940.368 .0245478
941.001 .0245363
941.634 .0245239
942.266 .0245105
942.899 .0244961
943.530 .0244816
944.162 .0244672
944.793 .0244529
945.423 .0244386
946.053 .0244245
946.683 .0244098
947.313 .0243951
947.942 .0243793
948.571 .0243626
949.199 .0243451
949.827 .0243271
950.455 .0243088
951.082 .0242917
951.709 .0242758
952.335 .0242617
952.961 .0242492
953.587 .0242388
954.212 .0242295
954.837 .0242215
955.462 .0242138
956.086 .0242071
956.710 .0242008
957.334 .0241945
957.957 .0241879
958.579 .0241819
959.202 .0241760
959.824 .0241702
960.445 .0241648
961.067 .0241596
961.688 .0241543
962.308 .0241491
962.928 .0241431
963.548 .0241363
964.168 .0241280
964.787 .0241182
965.406 .0241067
966.024 .0240946
966.642 .0240814
967.260 .0240678
967.877 .0240545
968.494 .0240414
969.110 .0240273
969.727 .0240125
970.342 .0239971
970.958 .0239805
971.573 .0239633
972.188 .0239460
972.802 .0239293
973.416 .0239143
974.030 .0239011
974.643 .0238903
975.256 .0238818
975.869 .0238753
976.481 .0238692
977.093 .0238634
977.705 .0238580
978.316 .0238522
978.927 .0238465
979.538 .0238409
980.148 .0238353
980.758 .0238297
981.367 .0238242
981.977 .0238185
982.586 .0238129
983.194 .0238068
983.802 .0237996
984.410 .0237911
985.018 .0237811
985.625 .0237700
986.232 .0237584
986.838 .0237472
987.445 .0237366
988.050 .0237270
988.656 .0237189
989.261 .0237123
989.866 .0237076
990.471 .0237043
991.075 .0237019
991.679 .0237004
992.282 .0236987
992.886 .0236971
993.489 .0236964
994.091 .0236966
994.694 .0236982
995.296 .0237014
995.897 .0237059
996.499 .0237108
997.100 .0237157
997.701 .0237201
998.301 .0237231
998.901 .0237249
999.501 .0237257
1000.101 .0237249
1000.700 .0237242
1001.299 .0237236
1001.898 .0237235
1002.496 .0237245
1003.094 .0237261
1003.692 .0237274
1004.289 .0237279
1004.887 .0237277
1005.484 .0237259
1006.080 .0237228
1006.677 .0237191
1007.273 .0237148
1007.868 .0237104
1008.464 .0237067
1009.059 .0237031
1009.654 .0236999
1010.249 .0236977
1010.843 .0236958
1011.437 .0236937
1012.031 .0236914
1012.625 .0236882
1013.218 .0236834
1013.811 .0236769
1014.404 .0236691
1014.997 .0236593
1015.589 .0236486
1016.181 .0236369
1016.773 .0236250
1017.365 .0236131
1017.956 .0236015
1018.547 .0235901
1019.138 .0235793
1019.728 .0235698
1020.319 .0235611
1020.909 .0235536
1021.499 .0235478
1022.088 .0235435
1022.678 .0235414
1023.267 .0235406
1023.856 .0235410
1024.445 .0235415
1025.033 .0235425
1025.621 .0235431
1026.209 .0235436
1026.797 .0235439
1027.385 .0235449
1027.972 .0235467
1028.560 .0235495
1029.147 .0235528
1029.734 .0235563
1030.320 .0235598
1030.907 .0235624
1031.493 .0235641
1032.079 .0235646
1032.665 .0235638
1033.250 .0235632
1033.836 .0235627
1034.421 .0235639
1035.006 .0235663
1035.591 .0235697
1036.176 .0235736
1036.761 .0235773
1037.345 .0235800
1037.929 .0235806
1038.514 .0235793
1039.097 .0235771
1039.681 .0235739
1040.265 .0235708
1040.848 .0235690
1041.432 .0235675
1042.015 .0235673
1042.598 .0235676
1043.181 .0235679
1043.764 .0235679
1044.346 .0235664
1044.929 .0235636
1045.511 .0235598
1046.094 .0235546
1046.676 .0235485
1047.258 .0235412
1047.840 .0235350
1048.422 .0235283
1049.003 .0235206
1049.585 .0235118
1050.166 .0235019
1050.748 .0234907
1051.329 .0234797
1051.910 .0234680
1052.491 .0234578
1053.072 .0234488
1053.653 .0234424
1054.234 .0234388
1054.815 .0234383
1055.396 .0234396
1055.976 .0234421
1056.557 .0234452
1057.138 .0234485
1057.718 .0234499
1058.298 .0234515
1058.879 .0234531
1059.459 .0234550
1060.039 .0234566
1060.620 .0234568
1061.200 .0234548
1061.780 .0234512
1062.360 .0234440
1062.940 .0234333
1063.520 .0234193
1064.101 .0234025
1064.681 .0233824
1065.261 .0233622
1065.841 .0233412
1066.421 .0233204
1067.001 .0232992
1067.581 .0232784
1068.161 .0232566
1068.741 .0232349
1069.321 .0232127
1069.901 .0231909
1070.482 .0231702
1071.062 .0231517
1071.642 .0231343
1072.222 .0231197
1072.803 .0231067
1073.383 .0230954
1073.963 .0230841
1074.544 .0230738
1075.124 .0230627
1075.705 .0230537
1076.286 .0230460
1076.866 .0230421
1077.447 .0230407
1078.028 .0230425
1078.609 .0230478
1079.190 .0230557
1079.771 .0230655
1080.352 .0230748
1080.934 .0230829
1081.515 .0230906
1082.097 .0230962
1082.679 .0231015
1083.260 .0231055
1083.842 .0231113
1084.424 .0231173
1085.007 .0231231
1085.589 .0231289
1086.172 .0231342
1086.754 .0231374
1087.337 .0231382
1087.920 .0231372
1088.503 .0231325
1089.087 .0231249
1089.670 .0231152
1090.254 .0231039
1090.838 .0230927
1091.422 .0230817
1092.006 .0230729
1092.590 .0230659
1093.175 .0230641
1093.760 .0230630
1094.345 .0230644
1094.930 .0230680
1095.516 .0230718
1096.102 .0230754
1096.688 .0230786
1097.274 .0230826
1097.860 .0230856
1098.447 .0230886
1099.034 .0230936
1099.622 .0230981
1100.209 .0231056
1100.797 .0231122
1101.385 .0231186
1101.973 .0231226
1102.562 .0231241
1103.151 .0231210
1103.740 .0231149
1104.330 .0231069
1104.920 .0230975
1105.510 .0230873
1106.101 .0230774
1106.691 .0230680
1107.283 .0230585
1107.874 .0230496
1108.466 .0230386
1109.058 .0230243
1109.651 .0230075
1110.244 .0229878
1110.837 .0229650
1111.431 .0229392
1112.025 .0229131
1112.620 .0228893
1113.215 .0228649
1113.810 .0228449
1114.406 .0228263
1115.002 .0228115
1115.599 .0227987
1116.196 .0227872
1116.793 .0227757
1117.391 .0227647
1117.989 .0227516
1118.588 .0227416
1119.187 .0227326
1119.787 .0227304
1120.387 .0227318
1120.988 .0227403
1121.589 .0227536
1122.190 .0227695
1122.793 .0227848
1123.395 .0228012
1123.998 .0228181
1124.602 .0228365
1125.206 .0228553
1125.811 .0228809
1126.416 .0229108
1127.022 .0229461
1127.628 .0229849
1128.235 .0230276
1128.843 .0230698
1129.451 .0231093
1130.059 .0231435
1130.669 .0231751
1131.278 .0232086
1131.889 .0232433
1132.500 .0232816
1133.112 .0233294
1133.724 .0233854
1134.337 .0234471
1134.950 .0235126
1135.564 .0235786
1136.179 .0236425
1136.795 .0237064
1137.411 .0237659
1138.028 .0238226
1138.645 .0238826
1139.263 .0239517
1139.882 .0240215
1140.502 .0240996
1141.122 .0241730
1141.743 .0242398
1142.365 .0243049
1142.987 .0243809
1143.611 .0245394
1144.235 .0243441
1144.859 .0243571
1145.485 .0245716
