Measurement Sequence started on: 10-20-44-796
Integration time: 35
Scans to Average: 2 
>>>>>Begin Spectral Data<<<<<
432.953 .0369359
433.882 .0456548
434.810 .0452911
435.737 .0424998
436.662 .0441085
437.586 .0420233
438.509 .0416100
439.431 .0409177
440.351 .0402873
441.269 .0397710
442.187 .0392739
443.103 .0388735
444.018 .0385592
444.932 .0382869
445.844 .0380421
446.756 .0378469
447.666 .0377019
448.575 .0375752
449.482 .0374671
450.388 .0373897
451.294 .0373327
452.198 .0372903
453.100 .0372747
454.002 .0372655
454.902 .0372552
455.801 .0372513
456.699 .0372497
457.596 .0372566
458.492 .0372689
459.387 .0372776
460.280 .0372854
461.172 .0372966
462.064 .0372971
462.954 .0372874
463.843 .0372766
464.730 .0372650
465.617 .0372483
466.503 .0372195
467.387 .0371782
468.271 .0371256
469.153 .0370724
470.035 .0370171
470.915 .0369671
471.794 .0369250
472.673 .0368874
473.550 .0368539
474.426 .0368224
475.301 .0367911
476.175 .0367530
477.048 .0367058
477.920 .0366520
478.791 .0365840
479.661 .0365107
480.530 .0364394
481.398 .0363718
482.266 .0363133
483.132 .0362639
483.997 .0362176
484.861 .0361741
485.724 .0361342
486.587 .0360924
487.448 .0360463
488.308 .0360010
489.168 .0359573
490.026 .0359114
490.884 .0358715
491.741 .0358370
492.597 .0358065
493.452 .0357831
494.306 .0357610
495.159 .0357359
496.011 .0357095
496.862 .0356795
497.713 .0356410
498.562 .0355937
499.411 .0355348
500.259 .0354610
501.106 .0353757
501.952 .0352846
502.798 .0351875
503.642 .0350827
504.486 .0349744
505.329 .0348609
506.171 .0347392
507.012 .0346052
507.852 .0344550
508.692 .0342923
509.531 .0341127
510.369 .0339259
511.206 .0337397
512.043 .0335634
512.878 .0334030
513.713 .0332594
514.547 .0331296
515.381 .0330104
516.213 .0328925
517.045 .0327732
517.876 .0326521
518.706 .0325363
519.536 .0324260
520.365 .0323306
521.193 .0322614
522.020 .0322227
522.847 .0322077
523.673 .0322068
524.498 .0322036
525.323 .0321805
526.146 .0321387
526.969 .0320814
527.792 .0320063
528.614 .0319184
529.435 .0318248
530.255 .0317278
531.075 .0316232
531.894 .0315110
532.712 .0313843
533.530 .0312452
534.347 .0310998
535.163 .0309420
535.979 .0307943
536.794 .0306680
537.608 .0305774
538.422 .0305199
539.235 .0304955
540.048 .0304860
540.860 .0304768
541.671 .0304734
542.481 .0304649
543.292 .0304572
544.101 .0304519
544.910 .0304474
545.718 .0304571
546.526 .0304762
547.333 .0305035
548.139 .0305355
548.945 .0305739
549.750 .0306060
550.555 .0306245
551.359 .0306382
552.162 .0306496
552.965 .0306628
553.768 .0306873
554.569 .0307232
555.371 .0307611
556.171 .0308003
556.972 .0308330
557.771 .0308582
558.570 .0308769
559.369 .0308863
560.167 .0308886
560.964 .0308867
561.761 .0308894
562.558 .0308963
563.354 .0309138
564.149 .0309443
564.944 .0309821
565.738 .0310273
566.532 .0310763
567.325 .0311253
568.118 .0311723
568.910 .0312210
569.702 .0312748
570.494 .0313351
571.285 .0313977
572.075 .0314667
572.865 .0315446
573.654 .0316304
574.443 .0317217
575.232 .0318145
576.020 .0319040
576.807 .0319876
577.594 .0320623
578.381 .0321294
579.167 .0321909
579.952 .0322535
580.738 .0323139
581.522 .0323737
582.307 .0324311
583.091 .0324826
583.874 .0325283
584.657 .0325679
585.440 .0325983
586.222 .0326186
587.004 .0326325
587.785 .0326434
588.566 .0326518
589.346 .0326613
590.126 .0326709
590.906 .0326793
591.685 .0326871
592.464 .0326902
593.242 .0326899
594.020 .0326866
594.797 .0326819
595.575 .0326758
596.351 .0326700
597.128 .0326662
597.904 .0326628
598.679 .0326606
599.454 .0326581
600.229 .0326527
601.004 .0326441
601.778 .0326313
602.551 .0326154
603.325 .0325958
604.097 .0325742
604.870 .0325508
605.642 .0325288
606.414 .0325068
607.185 .0324848
607.956 .0324633
608.727 .0324427
609.497 .0324224
610.267 .0324009
611.037 .0323787
611.806 .0323560
612.575 .0323330
613.344 .0323092
614.112 .0322845
614.880 .0322609
615.647 .0322371
616.414 .0322140
617.181 .0321917
617.948 .0321705
618.714 .0321496
619.480 .0321295
620.245 .0321103
621.011 .0320904
621.775 .0320695
622.540 .0320467
623.304 .0320226
624.068 .0319980
624.832 .0319719
625.595 .0319448
626.358 .0319182
627.120 .0318927
627.883 .0318673
628.645 .0318429
629.406 .0318201
630.168 .0317989
630.929 .0317779
631.689 .0317563
632.450 .0317341
633.210 .0317113
633.970 .0316880
634.729 .0316640
635.489 .0316407
636.248 .0316188
637.006 .0315982
637.765 .0315796
638.523 .0315619
639.280 .0315454
640.038 .0315290
640.795 .0315121
641.552 .0314940
642.309 .0314748
643.065 .0314543
643.821 .0314336
644.577 .0314142
645.332 .0313964
646.088 .0313811
646.843 .0313689
647.597 .0313586
648.352 .0313494
649.106 .0313401
649.860 .0313298
650.613 .0313180
651.367 .0313052
652.120 .0312909
652.872 .0312758
653.625 .0312609
654.377 .0312465
655.129 .0312331
655.881 .0312203
656.632 .0312073
657.384 .0311932
658.135 .0311780
658.885 .0311604
659.636 .0311405
660.386 .0311195
661.136 .0310980
661.885 .0310760
662.635 .0310542
663.384 .0310332
664.133 .0310133
664.881 .0309950
665.630 .0309779
666.378 .0309624
667.126 .0309479
667.874 .0309339
668.621 .0309200
669.368 .0309060
670.115 .0308919
670.862 .0308760
671.608 .0308592
672.354 .0308410
673.100 .0308217
673.846 .0308023
674.591 .0307824
675.337 .0307635
676.082 .0307458
676.826 .0307300
677.571 .0307149
678.315 .0307006
679.059 .0306869
679.803 .0306732
680.547 .0306588
681.290 .0306434
682.033 .0306264
682.776 .0306084
683.518 .0305895
684.261 .0305693
685.003 .0305484
685.745 .0305272
686.487 .0305054
687.228 .0304836
687.969 .0304606
688.710 .0304370
689.451 .0304123
690.192 .0303863
690.932 .0303592
691.672 .0303300
692.412 .0302997
693.152 .0302689
693.891 .0302385
694.630 .0302092
695.369 .0301812
696.108 .0301554
696.846 .0301320
697.585 .0301101
698.323 .0300901
699.061 .0300708
699.798 .0300517
700.536 .0300330
701.273 .0300139
702.010 .0299943
702.746 .0299749
703.483 .0299554
704.219 .0299362
704.955 .0299173
705.691 .0298988
706.427 .0298807
707.162 .0298632
707.897 .0298467
708.632 .0298305
709.367 .0298149
710.101 .0298001
710.835 .0297854
711.569 .0297709
712.303 .0297569
713.037 .0297428
713.770 .0297288
714.503 .0297148
715.236 .0297010
715.969 .0296874
716.702 .0296744
717.434 .0296617
718.166 .0296487
718.898 .0296344
719.629 .0296192
720.361 .0296019
721.092 .0295827
721.823 .0295613
722.554 .0295379
723.284 .0295124
724.014 .0294852
724.744 .0294570
725.474 .0294279
726.204 .0293984
726.933 .0293692
727.662 .0293400
728.391 .0293115
729.120 .0292833
729.849 .0292562
730.577 .0292302
731.305 .0292057
732.033 .0291821
732.760 .0291594
733.488 .0291376
734.215 .0291169
734.942 .0290966
735.669 .0290767
736.395 .0290575
737.122 .0290387
737.848 .0290203
738.573 .0290020
739.299 .0289837
740.024 .0289649
740.750 .0289459
741.474 .0289268
742.199 .0289077
742.924 .0288883
743.648 .0288694
744.372 .0288505
745.096 .0288326
745.819 .0288152
746.543 .0287987
747.266 .0287837
747.989 .0287703
748.711 .0287585
749.434 .0287487
750.156 .0287406
750.878 .0287351
751.599 .0287317
752.321 .0287301
753.042 .0287293
753.763 .0287294
754.484 .0287296
755.205 .0287304
755.925 .0287316
756.645 .0287332
757.365 .0287343
758.085 .0287351
758.804 .0287346
759.523 .0287322
760.242 .0287276
760.961 .0287205
761.679 .0287104
762.397 .0286976
763.115 .0286819
763.833 .0286636
764.551 .0286434
765.268 .0286222
765.985 .0285993
766.702 .0285749
767.418 .0285495
768.134 .0285231
768.850 .0284959
769.566 .0284687
770.282 .0284420
770.997 .0284164
771.712 .0283926
772.427 .0283706
773.142 .0283510
773.856 .0283336
774.570 .0283181
775.284 .0283037
775.998 .0282904
776.711 .0282778
777.424 .0282651
778.137 .0282523
778.849 .0282393
779.562 .0282260
780.274 .0282124
780.986 .0281982
781.697 .0281845
782.409 .0281709
783.120 .0281580
783.831 .0281455
784.541 .0281340
785.252 .0281230
785.962 .0281128
786.671 .0281032
787.381 .0280937
788.090 .0280839
788.799 .0280745
789.508 .0280653
790.217 .0280565
790.925 .0280477
791.633 .0280393
792.341 .0280305
793.048 .0280211
793.755 .0280098
794.462 .0279965
795.169 .0279817
795.875 .0279651
796.581 .0279469
797.287 .0279280
797.993 .0279088
798.698 .0278902
799.403 .0278722
800.108 .0278550
800.812 .0278378
801.517 .0278205
802.221 .0278024
802.924 .0277837
803.628 .0277649
804.331 .0277467
805.034 .0277299
805.736 .0277154
806.439 .0277034
807.141 .0276932
807.843 .0276846
808.544 .0276766
809.245 .0276682
809.946 .0276588
810.647 .0276474
811.347 .0276355
812.047 .0276224
812.747 .0276096
813.447 .0275973
814.146 .0275865
814.845 .0275771
815.543 .0275681
816.242 .0275587
816.940 .0275484
817.638 .0275367
818.335 .0275234
819.032 .0275080
819.729 .0274915
820.426 .0274734
821.122 .0274545
821.818 .0274344
822.514 .0274138
823.209 .0273924
823.905 .0273706
824.599 .0273478
825.294 .0273243
825.988 .0272997
826.682 .0272745
827.376 .0272494
828.069 .0272250
828.762 .0272011
829.455 .0271780
830.147 .0271562
830.840 .0271357
831.531 .0271165
832.223 .0270991
832.914 .0270829
833.605 .0270683
834.296 .0270539
834.986 .0270399
835.676 .0270256
836.366 .0270114
837.055 .0269965
837.744 .0269810
838.433 .0269650
839.121 .0269490
839.809 .0269330
840.497 .0269176
841.185 .0269029
841.872 .0268884
842.559 .0268742
843.245 .0268593
843.932 .0268432
844.617 .0268260
845.303 .0268076
845.988 .0267884
846.673 .0267688
847.358 .0267497
848.042 .0267319
848.726 .0267156
849.410 .0267016
850.093 .0266889
850.776 .0266771
851.459 .0266659
852.141 .0266549
852.823 .0266432
853.505 .0266319
854.186 .0266201
854.867 .0266084
855.548 .0265971
856.228 .0265860
856.908 .0265752
857.588 .0265650
858.267 .0265551
858.946 .0265447
859.625 .0265340
860.303 .0265236
860.981 .0265128
861.659 .0265022
862.336 .0264916
863.013 .0264804
863.690 .0264686
864.366 .0264558
865.042 .0264418
865.718 .0264281
866.393 .0264152
867.068 .0264027
867.743 .0263917
868.417 .0263826
869.091 .0263749
869.765 .0263675
870.438 .0263604
871.111 .0263521
871.783 .0263419
872.456 .0263298
873.127 .0263159
873.799 .0263007
874.470 .0262854
875.141 .0262703
875.811 .0262560
876.481 .0262421
877.151 .0262282
877.820 .0262136
878.489 .0261991
879.158 .0261835
879.826 .0261664
880.494 .0261482
881.162 .0261306
881.829 .0261139
882.496 .0260988
883.163 .0260860
883.829 .0260765
884.495 .0260695
885.160 .0260653
885.825 .0260624
886.490 .0260614
887.154 .0260612
887.818 .0260614
888.482 .0260613
889.145 .0260612
889.808 .0260613
890.471 .0260622
891.133 .0260636
891.795 .0260658
892.456 .0260679
893.117 .0260700
893.778 .0260712
894.439 .0260715
895.099 .0260696
895.758 .0260655
896.417 .0260591
897.076 .0260508
897.735 .0260404
898.393 .0260297
899.051 .0260187
899.708 .0260081
900.365 .0259980
901.022 .0259886
901.678 .0259795
902.334 .0259714
902.990 .0259642
903.645 .0259572
904.300 .0259508
904.954 .0259451
905.608 .0259391
906.262 .0259336
906.915 .0259286
907.568 .0259230
908.221 .0259177
908.873 .0259126
909.525 .0259071
910.176 .0259022
910.828 .0258972
911.478 .0258918
912.129 .0258853
912.778 .0258782
913.428 .0258694
914.077 .0258590
914.726 .0258484
915.375 .0258366
916.023 .0258249
916.670 .0258143
917.318 .0258043
917.964 .0257953
918.611 .0257871
919.257 .0257791
919.903 .0257703
920.548 .0257613
921.193 .0257511
921.838 .0257405
922.482 .0257302
923.126 .0257206
923.770 .0257116
924.413 .0257036
925.056 .0256969
925.698 .0256905
926.340 .0256845
926.982 .0256782
927.623 .0256712
928.264 .0256642
928.904 .0256559
929.544 .0256472
930.184 .0256381
930.823 .0256287
931.462 .0256182
932.101 .0256072
932.739 .0255962
933.377 .0255846
934.014 .0255722
934.651 .0255593
935.288 .0255464
935.924 .0255333
936.560 .0255199
937.196 .0255062
937.831 .0254925
938.466 .0254786
939.100 .0254641
939.734 .0254499
940.368 .0254363
941.001 .0254235
941.634 .0254112
942.266 .0253995
942.899 .0253882
943.530 .0253762
944.162 .0253639
944.793 .0253511
945.423 .0253370
946.053 .0253209
946.683 .0253035
947.313 .0252848
947.942 .0252646
948.571 .0252430
949.199 .0252200
949.827 .0251964
950.455 .0251721
951.082 .0251473
951.709 .0251224
952.335 .0250983
952.961 .0250750
953.587 .0250520
954.212 .0250302
954.837 .0250090
955.462 .0249885
956.086 .0249692
956.710 .0249512
957.334 .0249350
957.957 .0249208
958.579 .0249089
959.202 .0248985
959.824 .0248896
960.445 .0248815
961.067 .0248736
961.688 .0248662
962.308 .0248587
962.928 .0248509
963.548 .0248432
964.168 .0248353
964.787 .0248262
965.406 .0248166
966.024 .0248060
966.642 .0247942
967.260 .0247813
967.877 .0247678
968.494 .0247541
969.110 .0247408
969.727 .0247287
970.342 .0247183
970.958 .0247089
971.573 .0247016
972.188 .0246944
972.802 .0246878
973.416 .0246817
974.030 .0246752
974.643 .0246691
975.256 .0246635
975.869 .0246590
976.481 .0246553
977.093 .0246523
977.705 .0246507
978.316 .0246489
978.927 .0246474
979.538 .0246455
980.148 .0246415
980.758 .0246364
981.367 .0246296
981.977 .0246210
982.586 .0246115
983.194 .0246012
983.802 .0245910
984.410 .0245815
985.018 .0245727
985.625 .0245647
986.232 .0245572
986.838 .0245506
987.445 .0245437
988.050 .0245359
988.656 .0245267
989.261 .0245158
989.866 .0245033
990.471 .0244902
991.075 .0244766
991.679 .0244631
992.282 .0244501
992.886 .0244383
993.489 .0244277
994.091 .0244175
994.694 .0244076
995.296 .0243984
995.897 .0243889
996.499 .0243791
997.100 .0243687
997.701 .0243594
998.301 .0243516
998.901 .0243455
999.501 .0243404
1000.101 .0243368
1000.700 .0243348
1001.299 .0243331
1001.898 .0243318
1002.496 .0243304
1003.094 .0243284
1003.692 .0243256
1004.289 .0243219
1004.887 .0243174
1005.484 .0243124
1006.080 .0243076
1006.677 .0243032
1007.273 .0242990
1007.868 .0242951
1008.464 .0242912
1009.059 .0242880
1009.654 .0242855
1010.249 .0242835
1010.843 .0242819
1011.437 .0242816
1012.031 .0242824
1012.625 .0242844
1013.218 .0242873
1013.811 .0242922
1014.404 .0242982
1014.997 .0243053
1015.589 .0243127
1016.181 .0243208
1016.773 .0243290
1017.365 .0243381
1017.956 .0243474
1018.547 .0243563
1019.138 .0243653
1019.728 .0243740
1020.319 .0243820
1020.909 .0243886
1021.499 .0243928
1022.088 .0243952
1022.678 .0243952
1023.267 .0243932
1023.856 .0243886
1024.445 .0243828
1025.033 .0243765
1025.621 .0243694
1026.209 .0243620
1026.797 .0243542
1027.385 .0243464
1027.972 .0243386
1028.560 .0243307
1029.147 .0243218
1029.734 .0243128
1030.320 .0243035
1030.907 .0242932
1031.493 .0242832
1032.079 .0242722
1032.665 .0242615
1033.250 .0242506
1033.836 .0242404
1034.421 .0242306
1035.006 .0242212
1035.591 .0242132
1036.176 .0242059
1036.761 .0242001
1037.345 .0241953
1037.929 .0241899
1038.514 .0241852
1039.097 .0241803
1039.681 .0241757
1040.265 .0241706
1040.848 .0241663
1041.432 .0241630
1042.015 .0241617
1042.598 .0241612
1043.181 .0241612
1043.764 .0241608
1044.346 .0241594
1044.929 .0241566
1045.511 .0241507
1046.094 .0241426
1046.676 .0241325
1047.258 .0241221
1047.840 .0241122
1048.422 .0241031
1049.003 .0240970
1049.585 .0240932
1050.166 .0240919
1050.748 .0240925
1051.329 .0240942
1051.910 .0240973
1052.491 .0241018
1053.072 .0241080
1053.653 .0241151
1054.234 .0241232
1054.815 .0241317
1055.396 .0241392
1055.976 .0241450
1056.557 .0241490
1057.138 .0241504
1057.718 .0241492
1058.298 .0241460
1058.879 .0241408
1059.459 .0241347
1060.039 .0241281
1060.620 .0241217
1061.200 .0241132
1061.780 .0241036
1062.360 .0240922
1062.940 .0240801
1063.520 .0240672
1064.101 .0240551
1064.681 .0240434
1065.261 .0240333
1065.841 .0240242
1066.421 .0240137
1067.001 .0240015
1067.581 .0239875
1068.161 .0239713
1068.741 .0239527
1069.321 .0239321
1069.901 .0239136
1070.482 .0238965
1071.062 .0238838
1071.642 .0238726
1072.222 .0238633
1072.803 .0238548
1073.383 .0238454
1073.963 .0238348
1074.544 .0238220
1075.124 .0238078
1075.705 .0237941
1076.286 .0237820
1076.866 .0237724
1077.447 .0237655
1078.028 .0237632
1078.609 .0237628
1079.190 .0237638
1079.771 .0237627
1080.352 .0237589
1080.934 .0237528
1081.515 .0237467
1082.097 .0237398
1082.679 .0237336
1083.260 .0237300
1083.842 .0237298
1084.424 .0237329
1085.007 .0237395
1085.589 .0237477
1086.172 .0237581
1086.754 .0237703
1087.337 .0237843
1087.920 .0237958
1088.503 .0238096
1089.087 .0238242
1089.670 .0238409
1090.254 .0238578
1090.838 .0238721
1091.422 .0238827
1092.006 .0238897
1092.590 .0238920
1093.175 .0238904
1093.760 .0238847
1094.345 .0238788
1094.930 .0238721
1095.516 .0238672
1096.102 .0238626
1096.688 .0238588
1097.274 .0238579
1097.860 .0238591
1098.447 .0238584
1099.034 .0238564
1099.622 .0238497
1100.209 .0238398
1100.797 .0238282
1101.385 .0238144
1101.973 .0238001
1102.562 .0237901
1103.151 .0237850
1103.740 .0237842
1104.330 .0237902
1104.920 .0238024
1105.510 .0238180
1106.101 .0238380
1106.691 .0238552
1107.283 .0238672
1107.874 .0238748
1108.466 .0238786
1109.058 .0238789
1109.651 .0238820
1110.244 .0238900
1110.837 .0239015
1111.431 .0239180
1112.025 .0239416
1112.620 .0239662
1113.215 .0239903
1113.810 .0240118
1114.406 .0240283
1115.002 .0240410
1115.599 .0240498
1116.196 .0240540
1116.793 .0240593
1117.391 .0240653
1117.989 .0240735
1118.588 .0240816
1119.187 .0240901
1119.787 .0240960
1120.387 .0240981
1120.988 .0240970
1121.589 .0240939
1122.190 .0240826
1122.793 .0240640
1123.395 .0240436
1123.998 .0240202
1124.602 .0239915
1125.206 .0239616
1125.811 .0239348
1126.416 .0239124
1127.022 .0238961
1127.628 .0238867
1128.235 .0238845
1128.843 .0238951
1129.451 .0239143
1130.059 .0239396
1130.669 .0239736
1131.278 .0240205
1131.889 .0240730
1132.500 .0241326
1133.112 .0242020
1133.724 .0242686
1134.337 .0243395
1134.950 .0244093
1135.564 .0244746
1136.179 .0245370
1136.795 .0245998
1137.411 .0246657
1138.028 .0247330
1138.645 .0248058
1139.263 .0248810
1139.882 .0249476
1140.502 .0250234
1141.122 .0250989
1141.743 .0251893
1142.365 .0253145
1142.987 .0250545
1143.611 .0254251
1144.235 .0256666
1144.859 .0260781
1145.485 .0267313
