Measurement Sequence started on: 10-20-44-796
Integration time: 35
Scans to Average: 2 
>>>>>Begin Spectral Data<<<<<
432.953 .0388093
433.882 .0297040
434.810 .0290328
435.737 .0294985
436.662 .0302101
437.586 .0310233
438.509 .0309888
439.431 .0312543
440.351 .0314918
441.269 .0316676
442.187 .0317983
443.103 .0319024
444.018 .0319753
444.932 .0320448
445.844 .0321099
446.756 .0321568
447.666 .0321863
448.575 .0321904
449.482 .0321833
450.388 .0321637
451.294 .0321477
452.198 .0321277
453.100 .0321157
454.002 .0321146
454.902 .0321142
455.801 .0321071
456.699 .0321037
457.596 .0320936
458.492 .0320842
459.387 .0320703
460.280 .0320620
461.172 .0320520
462.064 .0320504
462.954 .0320461
463.843 .0320409
464.730 .0320317
465.617 .0320201
466.503 .0319989
467.387 .0319708
468.271 .0319389
469.153 .0319068
470.035 .0318779
470.915 .0318529
471.794 .0318285
472.673 .0318071
473.550 .0317833
474.426 .0317600
475.301 .0317372
476.175 .0317185
477.048 .0317036
477.920 .0316930
478.791 .0316876
479.661 .0316857
480.530 .0316837
481.398 .0316787
482.266 .0316713
483.132 .0316581
483.997 .0316361
484.861 .0316063
485.724 .0315784
486.587 .0315517
487.448 .0315248
488.308 .0314989
489.168 .0314739
490.026 .0314444
490.884 .0314068
491.741 .0313582
492.597 .0313007
493.452 .0312332
494.306 .0311582
495.159 .0310783
496.011 .0310024
496.862 .0309323
497.713 .0308698
498.562 .0308152
499.411 .0307702
500.259 .0307250
501.106 .0306780
501.952 .0306264
502.798 .0305703
503.642 .0305063
504.486 .0304377
505.329 .0303659
506.171 .0302965
507.012 .0302274
507.852 .0301637
508.692 .0301038
509.531 .0300469
510.369 .0299850
511.206 .0299173
512.043 .0298347
512.878 .0297368
513.713 .0296212
514.547 .0294943
515.381 .0293590
516.213 .0292216
517.045 .0290824
517.876 .0289465
518.706 .0288115
519.536 .0286753
520.365 .0285325
521.193 .0283858
522.020 .0282230
522.847 .0280479
523.673 .0278598
524.498 .0276650
525.323 .0274642
526.146 .0272691
526.969 .0270806
527.792 .0269005
528.614 .0267242
529.435 .0265586
530.255 .0264038
531.075 .0262644
531.894 .0261337
532.712 .0260138
533.530 .0259032
534.347 .0258015
535.163 .0257022
535.979 .0256181
536.794 .0255485
537.608 .0254992
538.422 .0254654
539.235 .0254508
540.048 .0254557
540.860 .0254767
541.671 .0255099
542.481 .0255514
543.292 .0255890
544.101 .0256193
544.910 .0256334
545.718 .0256409
546.526 .0256404
547.333 .0256420
548.139 .0256514
548.945 .0256779
549.750 .0257216
550.555 .0257830
551.359 .0258600
552.162 .0259525
552.965 .0260498
553.768 .0261434
554.569 .0262286
555.371 .0263054
556.171 .0263788
556.972 .0264546
557.771 .0265347
558.570 .0266249
559.369 .0267228
560.167 .0268267
560.964 .0269335
561.761 .0270348
562.558 .0271297
563.354 .0272142
564.149 .0272882
564.944 .0273487
565.738 .0274016
566.532 .0274539
567.325 .0275102
568.118 .0275708
568.910 .0276366
569.702 .0277037
570.494 .0277731
571.285 .0278421
572.075 .0279093
572.865 .0279739
573.654 .0280394
574.443 .0281073
575.232 .0281778
576.020 .0282524
576.807 .0283337
577.594 .0284182
578.381 .0285056
579.167 .0285911
579.952 .0286722
580.738 .0287483
581.522 .0288220
582.307 .0288916
583.091 .0289579
583.874 .0290223
584.657 .0290846
585.440 .0291453
586.222 .0292042
587.004 .0292604
587.785 .0293130
588.566 .0293620
589.346 .0294035
590.126 .0294378
590.906 .0294641
591.685 .0294835
592.464 .0294966
593.242 .0295044
594.020 .0295082
594.797 .0295100
595.575 .0295105
596.351 .0295110
597.128 .0295114
597.904 .0295127
598.679 .0295131
599.454 .0295131
600.229 .0295112
601.004 .0295079
601.778 .0295030
602.551 .0294967
603.325 .0294896
604.097 .0294822
604.870 .0294744
605.642 .0294669
606.414 .0294596
607.185 .0294517
607.956 .0294435
608.727 .0294351
609.497 .0294258
610.267 .0294159
611.037 .0294046
611.806 .0293924
612.575 .0293785
613.344 .0293635
614.112 .0293473
614.880 .0293303
615.647 .0293140
616.414 .0292981
617.181 .0292837
617.948 .0292711
618.714 .0292600
619.480 .0292506
620.245 .0292416
621.011 .0292322
621.775 .0292217
622.540 .0292096
623.304 .0291963
624.068 .0291814
624.832 .0291657
625.595 .0291496
626.358 .0291339
627.120 .0291181
627.883 .0291026
628.645 .0290874
629.406 .0290720
630.168 .0290559
630.929 .0290394
631.689 .0290227
632.450 .0290066
633.210 .0289916
633.970 .0289772
634.729 .0289640
635.489 .0289514
636.248 .0289385
637.006 .0289253
637.765 .0289108
638.523 .0288954
639.280 .0288786
640.038 .0288608
640.795 .0288432
641.552 .0288255
642.309 .0288086
643.065 .0287927
643.821 .0287778
644.577 .0287636
645.332 .0287494
646.088 .0287358
646.843 .0287225
647.597 .0287089
648.352 .0286960
649.106 .0286837
649.860 .0286732
650.613 .0286646
651.367 .0286582
652.120 .0286543
652.872 .0286523
653.625 .0286514
654.377 .0286506
655.129 .0286493
655.881 .0286475
656.632 .0286443
657.384 .0286399
658.135 .0286342
658.885 .0286279
659.636 .0286210
660.386 .0286138
661.136 .0286060
661.885 .0285976
662.635 .0285882
663.384 .0285779
664.133 .0285661
664.881 .0285532
665.630 .0285396
666.378 .0285255
667.126 .0285110
667.874 .0284964
668.621 .0284816
669.368 .0284666
670.115 .0284508
670.862 .0284343
671.608 .0284171
672.354 .0283997
673.100 .0283827
673.846 .0283666
674.591 .0283517
675.337 .0283380
676.082 .0283257
676.826 .0283145
677.571 .0283039
678.315 .0282932
679.059 .0282818
679.803 .0282705
680.547 .0282592
681.290 .0282478
682.033 .0282373
682.776 .0282277
683.518 .0282189
684.261 .0282100
685.003 .0282005
685.745 .0281897
686.487 .0281777
687.228 .0281646
687.969 .0281508
688.710 .0281365
689.451 .0281227
690.192 .0281096
690.932 .0280976
691.672 .0280865
692.412 .0280755
693.152 .0280641
693.891 .0280518
694.630 .0280382
695.369 .0280237
696.108 .0280081
696.846 .0279923
697.585 .0279763
698.323 .0279604
699.061 .0279449
699.798 .0279295
700.536 .0279135
701.273 .0278970
702.010 .0278793
702.746 .0278606
703.483 .0278408
704.219 .0278211
704.955 .0278019
705.691 .0277840
706.427 .0277678
707.162 .0277532
707.897 .0277400
708.632 .0277286
709.367 .0277177
710.101 .0277073
710.835 .0276964
711.569 .0276843
712.303 .0276710
713.037 .0276573
713.770 .0276432
714.503 .0276291
715.236 .0276155
715.969 .0276025
716.702 .0275898
717.434 .0275771
718.166 .0275636
718.898 .0275493
719.629 .0275335
720.361 .0275166
721.092 .0274979
721.823 .0274785
722.554 .0274590
723.284 .0274403
724.014 .0274226
724.744 .0274058
725.474 .0273891
726.204 .0273726
726.933 .0273555
727.662 .0273374
728.391 .0273181
729.120 .0272980
729.849 .0272772
730.577 .0272567
731.305 .0272366
732.033 .0272174
732.760 .0271987
733.488 .0271815
734.215 .0271649
734.942 .0271486
735.669 .0271322
736.395 .0271156
737.122 .0270990
737.848 .0270822
738.573 .0270654
739.299 .0270481
740.024 .0270310
740.750 .0270139
741.474 .0269965
742.199 .0269786
742.924 .0269604
743.648 .0269414
744.372 .0269224
745.096 .0269032
745.819 .0268840
746.543 .0268648
747.266 .0268463
747.989 .0268282
748.711 .0268114
749.434 .0267956
750.156 .0267818
750.878 .0267697
751.599 .0267603
752.321 .0267531
753.042 .0267481
753.763 .0267448
754.484 .0267431
755.205 .0267422
755.925 .0267417
756.645 .0267401
757.365 .0267378
758.085 .0267339
758.804 .0267286
759.523 .0267213
760.242 .0267122
760.961 .0267008
761.679 .0266880
762.397 .0266729
763.115 .0266560
763.833 .0266370
764.551 .0266168
765.268 .0265946
765.985 .0265715
766.702 .0265472
767.418 .0265224
768.134 .0264971
768.850 .0264726
769.566 .0264479
770.282 .0264239
770.997 .0264006
771.712 .0263781
772.427 .0263567
773.142 .0263366
773.856 .0263169
774.570 .0262983
775.284 .0262798
775.998 .0262621
776.711 .0262442
777.424 .0262266
778.137 .0262088
778.849 .0261908
779.562 .0261729
780.274 .0261551
780.986 .0261374
781.697 .0261204
782.409 .0261037
783.120 .0260881
783.831 .0260731
784.541 .0260590
785.252 .0260458
785.962 .0260340
786.671 .0260232
787.381 .0260133
788.090 .0260040
788.799 .0259951
789.508 .0259864
790.217 .0259782
790.925 .0259700
791.633 .0259614
792.341 .0259522
793.048 .0259425
793.755 .0259321
794.462 .0259207
795.169 .0259082
795.875 .0258951
796.581 .0258818
797.287 .0258685
797.993 .0258546
798.698 .0258414
799.403 .0258291
800.108 .0258175
800.812 .0258063
801.517 .0257955
802.221 .0257851
802.924 .0257749
803.628 .0257648
804.331 .0257554
805.034 .0257462
805.736 .0257376
806.439 .0257296
807.141 .0257225
807.843 .0257163
808.544 .0257105
809.245 .0257044
809.946 .0256984
810.647 .0256914
811.347 .0256834
812.047 .0256737
812.747 .0256637
813.447 .0256530
814.146 .0256416
814.845 .0256304
815.543 .0256195
816.242 .0256091
816.940 .0255990
817.638 .0255887
818.335 .0255784
819.032 .0255675
819.729 .0255561
820.426 .0255438
821.122 .0255311
821.818 .0255178
822.514 .0255041
823.209 .0254899
823.905 .0254757
824.599 .0254605
825.294 .0254449
825.988 .0254288
826.682 .0254123
827.376 .0253955
828.069 .0253790
828.762 .0253626
829.455 .0253468
830.147 .0253315
830.840 .0253168
831.531 .0253021
832.223 .0252876
832.914 .0252725
833.605 .0252570
834.296 .0252416
834.986 .0252262
835.676 .0252111
836.366 .0251969
837.055 .0251829
837.744 .0251691
838.433 .0251552
839.121 .0251413
839.809 .0251267
840.497 .0251121
841.185 .0250975
841.872 .0250832
842.559 .0250703
843.245 .0250590
843.932 .0250494
844.617 .0250418
845.303 .0250356
845.988 .0250301
846.673 .0250241
847.358 .0250181
848.042 .0250109
848.726 .0250031
849.410 .0249950
850.093 .0249866
850.776 .0249780
851.459 .0249695
852.141 .0249608
852.823 .0249519
853.505 .0249427
854.186 .0249326
854.867 .0249211
855.548 .0249085
856.228 .0248951
856.908 .0248813
857.588 .0248677
858.267 .0248548
858.946 .0248423
859.625 .0248307
860.303 .0248194
860.981 .0248083
861.659 .0247977
862.336 .0247870
863.013 .0247765
863.690 .0247653
864.366 .0247538
865.042 .0247414
865.718 .0247279
866.393 .0247141
867.068 .0246993
867.743 .0246838
868.417 .0246675
869.091 .0246504
869.765 .0246333
870.438 .0246161
871.111 .0245994
871.783 .0245832
872.456 .0245676
873.127 .0245521
873.799 .0245371
874.470 .0245228
875.141 .0245092
875.811 .0244963
876.481 .0244842
877.151 .0244727
877.820 .0244615
878.489 .0244510
879.158 .0244409
879.826 .0244306
880.494 .0244203
881.162 .0244091
881.829 .0243974
882.496 .0243851
883.163 .0243723
883.829 .0243589
884.495 .0243452
885.160 .0243315
885.825 .0243176
886.490 .0243038
887.154 .0242905
887.818 .0242775
888.482 .0242652
889.145 .0242531
889.808 .0242421
890.471 .0242315
891.133 .0242220
891.795 .0242134
892.456 .0242061
893.117 .0241997
893.778 .0241940
894.439 .0241888
895.099 .0241840
895.758 .0241790
896.417 .0241738
897.076 .0241674
897.735 .0241608
898.393 .0241533
899.051 .0241460
899.708 .0241385
900.365 .0241316
901.022 .0241250
901.678 .0241186
902.334 .0241119
902.990 .0241052
903.645 .0240981
904.300 .0240910
904.954 .0240832
905.608 .0240750
906.262 .0240660
906.915 .0240571
907.568 .0240477
908.221 .0240385
908.873 .0240288
909.525 .0240195
910.176 .0240102
910.828 .0240010
911.478 .0239923
912.129 .0239839
912.778 .0239759
913.428 .0239684
914.077 .0239610
914.726 .0239537
915.375 .0239464
916.023 .0239395
916.670 .0239329
917.318 .0239268
917.964 .0239213
918.611 .0239163
919.257 .0239121
919.903 .0239081
920.548 .0239036
921.193 .0238989
921.838 .0238943
922.482 .0238888
923.126 .0238826
923.770 .0238763
924.413 .0238700
925.056 .0238638
925.698 .0238579
926.340 .0238524
926.982 .0238474
927.623 .0238428
928.264 .0238382
928.904 .0238330
929.544 .0238278
930.184 .0238215
930.823 .0238141
931.462 .0238060
932.101 .0237962
932.739 .0237847
933.377 .0237722
934.014 .0237585
934.651 .0237438
935.288 .0237284
935.924 .0237126
936.560 .0236966
937.196 .0236802
937.831 .0236632
938.466 .0236456
939.100 .0236281
939.734 .0236110
940.368 .0235937
941.001 .0235778
941.634 .0235632
942.266 .0235500
942.899 .0235383
943.530 .0235276
944.162 .0235170
944.793 .0235060
945.423 .0234938
946.053 .0234801
946.683 .0234651
947.313 .0234495
947.942 .0234331
948.571 .0234169
949.199 .0234010
949.827 .0233855
950.455 .0233701
951.082 .0233556
951.709 .0233406
952.335 .0233256
952.961 .0233099
953.587 .0232940
954.212 .0232775
954.837 .0232611
955.462 .0232451
956.086 .0232299
956.710 .0232154
957.334 .0232021
957.957 .0231893
958.579 .0231773
959.202 .0231655
959.824 .0231535
960.445 .0231407
961.067 .0231278
961.688 .0231139
962.308 .0230996
962.928 .0230853
963.548 .0230711
964.168 .0230572
964.787 .0230438
965.406 .0230313
966.024 .0230203
966.642 .0230108
967.260 .0230029
967.877 .0229963
968.494 .0229910
969.110 .0229867
969.727 .0229826
970.342 .0229790
970.958 .0229755
971.573 .0229723
972.188 .0229697
972.802 .0229680
973.416 .0229673
974.030 .0229679
974.643 .0229695
975.256 .0229721
975.869 .0229752
976.481 .0229779
977.093 .0229797
977.705 .0229810
978.316 .0229814
978.927 .0229808
979.538 .0229798
980.148 .0229785
980.758 .0229769
981.367 .0229755
981.977 .0229744
982.586 .0229732
983.194 .0229723
983.802 .0229711
984.410 .0229687
985.018 .0229660
985.625 .0229632
986.232 .0229597
986.838 .0229563
987.445 .0229536
988.050 .0229514
988.656 .0229495
989.261 .0229480
989.866 .0229460
990.471 .0229439
991.075 .0229416
991.679 .0229379
992.282 .0229326
992.886 .0229263
993.489 .0229190
994.091 .0229110
994.694 .0229032
995.296 .0228955
995.897 .0228882
996.499 .0228818
997.100 .0228756
997.701 .0228696
998.301 .0228639
998.901 .0228586
999.501 .0228531
1000.101 .0228484
1000.700 .0228446
1001.299 .0228422
1001.898 .0228423
1002.496 .0228446
1003.094 .0228489
1003.692 .0228550
1004.289 .0228624
1004.887 .0228711
1005.484 .0228800
1006.080 .0228890
1006.677 .0228968
1007.273 .0229037
1007.868 .0229089
1008.464 .0229118
1009.059 .0229129
1009.654 .0229130
1010.249 .0229117
1010.843 .0229095
1011.437 .0229070
1012.031 .0229046
1012.625 .0229028
1013.218 .0229014
1013.811 .0229001
1014.404 .0228994
1014.997 .0228985
1015.589 .0228971
1016.181 .0228953
1016.773 .0228939
1017.365 .0228933
1017.956 .0228932
1018.547 .0228947
1019.138 .0228970
1019.728 .0229009
1020.319 .0229064
1020.909 .0229120
1021.499 .0229178
1022.088 .0229229
1022.678 .0229262
1023.267 .0229279
1023.856 .0229275
1024.445 .0229258
1025.033 .0229228
1025.621 .0229194
1026.209 .0229153
1026.797 .0229104
1027.385 .0229050
1027.972 .0228988
1028.560 .0228912
1029.147 .0228834
1029.734 .0228746
1030.320 .0228650
1030.907 .0228556
1031.493 .0228470
1032.079 .0228395
1032.665 .0228340
1033.250 .0228295
1033.836 .0228265
1034.421 .0228234
1035.006 .0228199
1035.591 .0228153
1036.176 .0228100
1036.761 .0228039
1037.345 .0227967
1037.929 .0227890
1038.514 .0227809
1039.097 .0227725
1039.681 .0227643
1040.265 .0227553
1040.848 .0227462
1041.432 .0227361
1042.015 .0227253
1042.598 .0227142
1043.181 .0227040
1043.764 .0226961
1044.346 .0226907
1044.929 .0226889
1045.511 .0226904
1046.094 .0226946
1046.676 .0227011
1047.258 .0227086
1047.840 .0227170
1048.422 .0227255
1049.003 .0227331
1049.585 .0227400
1050.166 .0227471
1050.748 .0227547
1051.329 .0227621
1051.910 .0227691
1052.491 .0227753
1053.072 .0227801
1053.653 .0227822
1054.234 .0227819
1054.815 .0227790
1055.396 .0227749
1055.976 .0227691
1056.557 .0227627
1057.138 .0227571
1057.718 .0227531
1058.298 .0227505
1058.879 .0227493
1059.459 .0227478
1060.039 .0227455
1060.620 .0227410
1061.200 .0227344
1061.780 .0227252
1062.360 .0227139
1062.940 .0227011
1063.520 .0226874
1064.101 .0226731
1064.681 .0226592
1065.261 .0226452
1065.841 .0226326
1066.421 .0226200
1067.001 .0226075
1067.581 .0225958
1068.161 .0225851
1068.741 .0225758
1069.321 .0225671
1069.901 .0225597
1070.482 .0225527
1071.062 .0225448
1071.642 .0225366
1072.222 .0225276
1072.803 .0225182
1073.383 .0225081
1073.963 .0224980
1074.544 .0224885
1075.124 .0224787
1075.705 .0224686
1076.286 .0224592
1076.866 .0224503
1077.447 .0224397
1078.028 .0224284
1078.609 .0224165
1079.190 .0224062
1079.771 .0223962
1080.352 .0223869
1080.934 .0223795
1081.515 .0223739
1082.097 .0223695
1082.679 .0223656
1083.260 .0223622
1083.842 .0223603
1084.424 .0223581
1085.007 .0223574
1085.589 .0223564
1086.172 .0223555
1086.754 .0223533
1087.337 .0223510
1087.920 .0223467
1088.503 .0223409
1089.087 .0223329
1089.670 .0223243
1090.254 .0223174
1090.838 .0223120
1091.422 .0223076
1092.006 .0223054
1092.590 .0223046
1093.175 .0223050
1093.760 .0223035
1094.345 .0223012
1094.930 .0222971
1095.516 .0222921
1096.102 .0222868
1096.688 .0222810
1097.274 .0222757
1097.860 .0222731
1098.447 .0222718
1099.034 .0222718
1099.622 .0222719
1100.209 .0222719
1100.797 .0222704
1101.385 .0222684
1101.973 .0222666
1102.562 .0222649
1103.151 .0222637
1103.740 .0222649
1104.330 .0222667
1104.920 .0222696
1105.510 .0222748
1106.101 .0222806
1106.691 .0222844
1107.283 .0222868
1107.874 .0222849
1108.466 .0222799
1109.058 .0222744
1109.651 .0222679
1110.244 .0222614
1110.837 .0222587
1111.431 .0222591
1112.025 .0222607
1112.620 .0222645
1113.215 .0222700
1113.810 .0222749
1114.406 .0222782
1115.002 .0222780
1115.599 .0222747
1116.196 .0222709
1116.793 .0222688
1117.391 .0222680
1117.989 .0222706
1118.588 .0222777
1119.187 .0222856
1119.787 .0222942
1120.387 .0222994
1120.988 .0223013
1121.589 .0222998
1122.190 .0222934
1122.793 .0222842
1123.395 .0222733
1123.998 .0222617
1124.602 .0222540
1125.206 .0222525
1125.811 .0222543
1126.416 .0222589
1127.022 .0222661
1127.628 .0222713
1128.235 .0222748
1128.843 .0222735
1129.451 .0222679
1130.059 .0222575
1130.669 .0222470
1131.278 .0222348
1131.889 .0222250
1132.500 .0222242
1133.112 .0222301
1133.724 .0222439
1134.337 .0222687
1134.950 .0222991
1135.564 .0223361
1136.179 .0223745
1136.795 .0224183
1137.411 .0224678
1138.028 .0225255
1138.645 .0225934
1139.263 .0226781
1139.882 .0227778
1140.502 .0228900
1141.122 .0230178
1141.743 .0231617
1142.365 .0233429
1142.987 .0234503
1143.611 .0235154
1144.235 .0238074
1144.859 .0240478
1145.485 .0249613
