Measurement Sequence started on: 10-20-44-796
Integration time: 35
Scans to Average: 2 
>>>>>Begin Spectral Data<<<<<
432.953 .0370300
433.882 .0358526
434.810 .0328012
435.737 .0323376
436.662 .0306198
437.586 .0308665
438.509 .0304174
439.431 .0302527
440.351 .0303629
441.269 .0306117
442.187 .0309599
443.103 .0313313
444.018 .0316905
444.932 .0319637
445.844 .0321898
446.756 .0323902
447.666 .0325813
448.575 .0327686
449.482 .0329589
450.388 .0331508
451.294 .0333401
452.198 .0335108
453.100 .0336546
454.002 .0337644
454.902 .0338312
455.801 .0338621
456.699 .0338607
457.596 .0338467
458.492 .0338327
459.387 .0338256
460.280 .0338293
461.172 .0338487
462.064 .0338912
462.954 .0339415
463.843 .0339944
464.730 .0340426
465.617 .0340754
466.503 .0340922
467.387 .0340902
468.271 .0340760
469.153 .0340555
470.035 .0340351
470.915 .0340132
471.794 .0339955
472.673 .0339778
473.550 .0339623
474.426 .0339478
475.301 .0339321
476.175 .0339087
477.048 .0338787
477.920 .0338433
478.791 .0337994
479.661 .0337537
480.530 .0337097
481.398 .0336677
482.266 .0336379
483.132 .0336174
483.997 .0336076
484.861 .0336090
485.724 .0336236
486.587 .0336420
487.448 .0336585
488.308 .0336690
489.168 .0336676
490.026 .0336521
490.884 .0336248
491.741 .0335854
492.597 .0335420
493.452 .0334983
494.306 .0334547
495.159 .0334105
496.011 .0333661
496.862 .0333151
497.713 .0332531
498.562 .0331755
499.411 .0330855
500.259 .0329794
501.106 .0328626
501.952 .0327435
502.798 .0326284
503.642 .0325222
504.486 .0324289
505.329 .0323522
506.171 .0322901
507.012 .0322341
507.852 .0321858
508.692 .0321347
509.531 .0320869
510.369 .0320365
511.206 .0319820
512.043 .0319200
512.878 .0318563
513.713 .0317859
514.547 .0317131
515.381 .0316375
516.213 .0315580
517.045 .0314693
517.876 .0313714
518.706 .0312625
519.536 .0311374
520.365 .0309979
521.193 .0308500
522.020 .0306845
522.847 .0305116
523.673 .0303167
524.498 .0301127
525.323 .0298962
526.146 .0296807
526.969 .0294654
527.792 .0292507
528.614 .0290442
529.435 .0288541
530.255 .0286813
531.075 .0285282
531.894 .0283909
532.712 .0282726
533.530 .0281645
534.347 .0280678
535.163 .0279754
535.979 .0279050
536.794 .0278592
537.608 .0278401
538.422 .0278352
539.235 .0278518
540.048 .0278760
540.860 .0279024
541.671 .0279183
542.481 .0279166
543.292 .0278921
544.101 .0278523
544.910 .0277938
545.718 .0277277
546.526 .0276632
547.333 .0276121
548.139 .0275713
548.945 .0275409
549.750 .0275144
550.555 .0274988
551.359 .0274878
552.162 .0274857
552.965 .0274855
553.768 .0275015
554.569 .0275264
555.371 .0275646
556.171 .0276125
556.972 .0276778
557.771 .0277561
558.570 .0278429
559.369 .0279358
560.167 .0280358
560.964 .0281412
561.761 .0282533
562.558 .0283739
563.354 .0285033
564.149 .0286288
564.944 .0287543
565.738 .0288741
566.532 .0289894
567.325 .0290955
568.118 .0291947
568.910 .0292870
569.702 .0293785
570.494 .0294692
571.285 .0295591
572.075 .0296537
572.865 .0297499
573.654 .0298388
574.443 .0299170
575.232 .0299869
576.020 .0300424
576.807 .0300812
577.594 .0301120
578.381 .0301351
579.167 .0301534
579.952 .0301700
580.738 .0301896
581.522 .0302146
582.307 .0302428
583.091 .0302733
583.874 .0303030
584.657 .0303325
585.440 .0303601
586.222 .0303845
587.004 .0304070
587.785 .0304315
588.566 .0304576
589.346 .0304864
590.126 .0305177
590.906 .0305508
591.685 .0305824
592.464 .0306106
593.242 .0306343
594.020 .0306508
594.797 .0306597
595.575 .0306640
596.351 .0306636
597.128 .0306610
597.904 .0306554
598.679 .0306489
599.454 .0306406
600.229 .0306316
601.004 .0306205
601.778 .0306072
602.551 .0305909
603.325 .0305730
604.097 .0305521
604.870 .0305300
605.642 .0305078
606.414 .0304868
607.185 .0304672
607.956 .0304500
608.727 .0304347
609.497 .0304211
610.267 .0304096
611.037 .0304009
611.806 .0303928
612.575 .0303848
613.344 .0303764
614.112 .0303666
614.880 .0303547
615.647 .0303410
616.414 .0303253
617.181 .0303091
617.948 .0302927
618.714 .0302756
619.480 .0302596
620.245 .0302454
621.011 .0302322
621.775 .0302188
622.540 .0302059
623.304 .0301924
624.068 .0301775
624.832 .0301610
625.595 .0301440
626.358 .0301279
627.120 .0301132
627.883 .0300993
628.645 .0300881
629.406 .0300791
630.168 .0300704
630.929 .0300608
631.689 .0300501
632.450 .0300359
633.210 .0300186
633.970 .0299975
634.729 .0299741
635.489 .0299490
636.248 .0299225
637.006 .0298948
637.765 .0298671
638.523 .0298394
639.280 .0298109
640.038 .0297822
640.795 .0297554
641.552 .0297300
642.309 .0297074
643.065 .0296876
643.821 .0296705
644.577 .0296564
645.332 .0296438
646.088 .0296312
646.843 .0296182
647.597 .0296033
648.352 .0295865
649.106 .0295684
649.860 .0295500
650.613 .0295318
651.367 .0295149
652.120 .0294999
652.872 .0294859
653.625 .0294722
654.377 .0294579
655.129 .0294425
655.881 .0294264
656.632 .0294094
657.384 .0293911
658.135 .0293740
658.885 .0293581
659.636 .0293444
660.386 .0293334
661.136 .0293246
661.885 .0293171
662.635 .0293103
663.384 .0293034
664.133 .0292955
664.881 .0292854
665.630 .0292733
666.378 .0292582
667.126 .0292406
667.874 .0292200
668.621 .0291960
669.368 .0291709
670.115 .0291465
670.862 .0291221
671.608 .0290989
672.354 .0290776
673.100 .0290585
673.846 .0290407
674.591 .0290233
675.337 .0290060
676.082 .0289883
676.826 .0289704
677.571 .0289521
678.315 .0289334
679.059 .0289161
679.803 .0289002
680.547 .0288862
681.290 .0288743
682.033 .0288638
682.776 .0288533
683.518 .0288423
684.261 .0288306
685.003 .0288172
685.745 .0288016
686.487 .0287851
687.228 .0287676
687.969 .0287494
688.710 .0287311
689.451 .0287132
690.192 .0286961
690.932 .0286796
691.672 .0286631
692.412 .0286462
693.152 .0286289
693.891 .0286117
694.630 .0285934
695.369 .0285748
696.108 .0285557
696.846 .0285353
697.585 .0285140
698.323 .0284920
699.061 .0284691
699.798 .0284462
700.536 .0284229
701.273 .0283998
702.010 .0283764
702.746 .0283530
703.483 .0283292
704.219 .0283047
704.955 .0282795
705.691 .0282535
706.427 .0282265
707.162 .0281996
707.897 .0281728
708.632 .0281473
709.367 .0281234
710.101 .0281015
710.835 .0280808
711.569 .0280609
712.303 .0280410
713.037 .0280217
713.770 .0280021
714.503 .0279828
715.236 .0279644
715.969 .0279467
716.702 .0279306
717.434 .0279162
718.166 .0279025
718.898 .0278896
719.629 .0278766
720.361 .0278631
721.092 .0278480
721.823 .0278314
722.554 .0278137
723.284 .0277952
724.014 .0277767
724.744 .0277574
725.474 .0277375
726.204 .0277177
726.933 .0276973
727.662 .0276759
728.391 .0276540
729.120 .0276321
729.849 .0276106
730.577 .0275897
731.305 .0275690
732.033 .0275497
732.760 .0275311
733.488 .0275133
734.215 .0274963
734.942 .0274798
735.669 .0274641
736.395 .0274495
737.122 .0274368
737.848 .0274259
738.573 .0274166
739.299 .0274082
740.024 .0274002
740.750 .0273926
741.474 .0273831
742.199 .0273725
742.924 .0273608
743.648 .0273488
744.372 .0273363
745.096 .0273245
745.819 .0273138
746.543 .0273044
747.266 .0272967
747.989 .0272901
748.711 .0272842
749.434 .0272791
750.156 .0272745
750.878 .0272704
751.599 .0272675
752.321 .0272655
753.042 .0272644
753.763 .0272656
754.484 .0272680
755.205 .0272716
755.925 .0272758
756.645 .0272805
757.365 .0272846
758.085 .0272872
758.804 .0272874
759.523 .0272842
760.242 .0272779
760.961 .0272685
761.679 .0272557
762.397 .0272406
763.115 .0272235
763.833 .0272053
764.551 .0271866
765.268 .0271679
765.985 .0271488
766.702 .0271300
767.418 .0271115
768.134 .0270940
768.850 .0270765
769.566 .0270601
770.282 .0270444
770.997 .0270307
771.712 .0270178
772.427 .0270066
773.142 .0269960
773.856 .0269868
774.570 .0269780
775.284 .0269698
775.998 .0269607
776.711 .0269522
777.424 .0269431
778.137 .0269336
778.849 .0269226
779.562 .0269107
780.274 .0268969
780.986 .0268823
781.697 .0268664
782.409 .0268504
783.120 .0268341
783.831 .0268195
784.541 .0268059
785.252 .0267941
785.962 .0267839
786.671 .0267743
787.381 .0267646
788.090 .0267550
788.799 .0267440
789.508 .0267319
790.217 .0267190
790.925 .0267057
791.633 .0266921
792.341 .0266786
793.048 .0266649
793.755 .0266511
794.462 .0266373
795.169 .0266234
795.875 .0266088
796.581 .0265942
797.287 .0265802
797.993 .0265666
798.698 .0265546
799.403 .0265440
800.108 .0265349
800.812 .0265271
801.517 .0265201
802.221 .0265136
802.924 .0265070
803.628 .0264999
804.331 .0264928
805.034 .0264850
805.736 .0264771
806.439 .0264686
807.141 .0264599
807.843 .0264510
808.544 .0264414
809.245 .0264304
809.946 .0264178
810.647 .0264034
811.347 .0263873
812.047 .0263696
812.747 .0263510
813.447 .0263317
814.146 .0263118
814.845 .0262926
815.543 .0262742
816.242 .0262566
816.940 .0262404
817.638 .0262254
818.335 .0262115
819.032 .0261979
819.729 .0261843
820.426 .0261708
821.122 .0261572
821.818 .0261435
822.514 .0261292
823.209 .0261153
823.905 .0261018
824.599 .0260882
825.294 .0260752
825.988 .0260626
826.682 .0260501
827.376 .0260373
828.069 .0260241
828.762 .0260098
829.455 .0259937
830.147 .0259759
830.840 .0259564
831.531 .0259358
832.223 .0259138
832.914 .0258913
833.605 .0258693
834.296 .0258486
834.986 .0258286
835.676 .0258099
836.366 .0257930
837.055 .0257768
837.744 .0257610
838.433 .0257447
839.121 .0257283
839.809 .0257121
840.497 .0256962
841.185 .0256810
841.872 .0256674
842.559 .0256557
843.245 .0256459
843.932 .0256378
844.617 .0256307
845.303 .0256233
845.988 .0256151
846.673 .0256054
847.358 .0255943
848.042 .0255815
848.726 .0255686
849.410 .0255559
850.093 .0255445
850.776 .0255348
851.459 .0255263
852.141 .0255188
852.823 .0255119
853.505 .0255043
854.186 .0254956
854.867 .0254855
855.548 .0254746
856.228 .0254626
856.908 .0254505
857.588 .0254386
858.267 .0254271
858.946 .0254161
859.625 .0254057
860.303 .0253948
860.981 .0253837
861.659 .0253716
862.336 .0253581
863.013 .0253435
863.690 .0253278
864.366 .0253107
865.042 .0252929
865.718 .0252751
866.393 .0252573
867.068 .0252400
867.743 .0252238
868.417 .0252087
869.091 .0251945
869.765 .0251813
870.438 .0251683
871.111 .0251557
871.783 .0251435
872.456 .0251315
873.127 .0251194
873.799 .0251077
874.470 .0250966
875.141 .0250863
875.811 .0250771
876.481 .0250694
877.151 .0250626
877.820 .0250566
878.489 .0250509
879.158 .0250457
879.826 .0250397
880.494 .0250335
881.162 .0250270
881.829 .0250204
882.496 .0250135
883.163 .0250063
883.829 .0249994
884.495 .0249932
885.160 .0249881
885.825 .0249838
886.490 .0249803
887.154 .0249780
887.818 .0249766
888.482 .0249749
889.145 .0249730
889.808 .0249705
890.471 .0249663
891.133 .0249613
891.795 .0249545
892.456 .0249464
893.117 .0249376
893.778 .0249280
894.439 .0249183
895.099 .0249085
895.758 .0248990
896.417 .0248892
897.076 .0248793
897.735 .0248692
898.393 .0248587
899.051 .0248490
899.708 .0248401
900.365 .0248324
901.022 .0248266
901.678 .0248226
902.334 .0248199
902.990 .0248194
903.645 .0248209
904.300 .0248233
904.954 .0248260
905.608 .0248284
906.262 .0248298
906.915 .0248302
907.568 .0248293
908.221 .0248270
908.873 .0248234
909.525 .0248193
910.176 .0248136
910.828 .0248074
911.478 .0248011
912.129 .0247949
912.778 .0247877
913.428 .0247806
914.077 .0247731
914.726 .0247649
915.375 .0247571
916.023 .0247503
916.670 .0247443
917.318 .0247393
917.964 .0247346
918.611 .0247304
919.257 .0247261
919.903 .0247214
920.548 .0247149
921.193 .0247072
921.838 .0246986
922.482 .0246887
923.126 .0246779
923.770 .0246676
924.413 .0246578
925.056 .0246480
925.698 .0246385
926.340 .0246287
926.982 .0246187
927.623 .0246086
928.264 .0245984
928.904 .0245882
929.544 .0245786
930.184 .0245698
930.823 .0245620
931.462 .0245558
932.101 .0245511
932.739 .0245476
933.377 .0245451
934.014 .0245426
934.651 .0245398
935.288 .0245366
935.924 .0245332
936.560 .0245293
937.196 .0245255
937.831 .0245212
938.466 .0245160
939.100 .0245104
939.734 .0245039
940.368 .0244958
941.001 .0244868
941.634 .0244764
942.266 .0244648
942.899 .0244521
943.530 .0244390
944.162 .0244252
944.793 .0244118
945.423 .0243979
946.053 .0243830
946.683 .0243674
947.313 .0243520
947.942 .0243359
948.571 .0243199
949.199 .0243045
949.827 .0242899
950.455 .0242762
951.082 .0242639
951.709 .0242521
952.335 .0242415
952.961 .0242318
953.587 .0242221
954.212 .0242119
954.837 .0242016
955.462 .0241909
956.086 .0241799
956.710 .0241692
957.334 .0241584
957.957 .0241476
958.579 .0241372
959.202 .0241265
959.824 .0241156
960.445 .0241040
961.067 .0240922
961.688 .0240800
962.308 .0240675
962.928 .0240553
963.548 .0240433
964.168 .0240322
964.787 .0240217
965.406 .0240111
966.024 .0240012
966.642 .0239919
967.260 .0239834
967.877 .0239755
968.494 .0239678
969.110 .0239612
969.727 .0239553
970.342 .0239497
970.958 .0239450
971.573 .0239410
972.188 .0239382
972.802 .0239370
973.416 .0239371
974.030 .0239382
974.643 .0239402
975.256 .0239428
975.869 .0239453
976.481 .0239467
977.093 .0239469
977.705 .0239457
978.316 .0239436
978.927 .0239407
979.538 .0239356
980.148 .0239297
980.758 .0239230
981.367 .0239154
981.977 .0239076
982.586 .0238999
983.194 .0238927
983.802 .0238860
984.410 .0238798
985.018 .0238736
985.625 .0238674
986.232 .0238614
986.838 .0238546
987.445 .0238482
988.050 .0238418
988.656 .0238354
989.261 .0238294
989.866 .0238249
990.471 .0238211
991.075 .0238181
991.679 .0238157
992.282 .0238137
992.886 .0238111
993.489 .0238084
994.091 .0238052
994.694 .0238021
995.296 .0237997
995.897 .0237982
996.499 .0237978
997.100 .0237989
997.701 .0238006
998.301 .0238035
998.901 .0238071
999.501 .0238114
1000.101 .0238152
1000.700 .0238188
1001.299 .0238222
1001.898 .0238255
1002.496 .0238279
1003.094 .0238295
1003.692 .0238309
1004.289 .0238314
1004.887 .0238314
1005.484 .0238304
1006.080 .0238288
1006.677 .0238268
1007.273 .0238240
1007.868 .0238205
1008.464 .0238164
1009.059 .0238119
1009.654 .0238072
1010.249 .0238024
1010.843 .0237985
1011.437 .0237944
1012.031 .0237907
1012.625 .0237875
1013.218 .0237838
1013.811 .0237790
1014.404 .0237737
1014.997 .0237666
1015.589 .0237588
1016.181 .0237502
1016.773 .0237411
1017.365 .0237323
1017.956 .0237246
1018.547 .0237183
1019.138 .0237134
1019.728 .0237110
1020.319 .0237109
1020.909 .0237117
1021.499 .0237149
1022.088 .0237182
1022.678 .0237210
1023.267 .0237239
1023.856 .0237260
1024.445 .0237267
1025.033 .0237277
1025.621 .0237273
1026.209 .0237259
1026.797 .0237243
1027.385 .0237220
1027.972 .0237187
1028.560 .0237143
1029.147 .0237097
1029.734 .0237038
1030.320 .0236970
1030.907 .0236904
1031.493 .0236830
1032.079 .0236768
1032.665 .0236717
1033.250 .0236668
1033.836 .0236628
1034.421 .0236592
1035.006 .0236552
1035.591 .0236521
1036.176 .0236498
1036.761 .0236475
1037.345 .0236464
1037.929 .0236464
1038.514 .0236477
1039.097 .0236495
1039.681 .0236521
1040.265 .0236549
1040.848 .0236576
1041.432 .0236596
1042.015 .0236602
1042.598 .0236604
1043.181 .0236605
1043.764 .0236597
1044.346 .0236585
1044.929 .0236573
1045.511 .0236547
1046.094 .0236507
1046.676 .0236456
1047.258 .0236395
1047.840 .0236324
1048.422 .0236243
1049.003 .0236150
1049.585 .0236053
1050.166 .0235952
1050.748 .0235846
1051.329 .0235737
1051.910 .0235633
1052.491 .0235530
1053.072 .0235431
1053.653 .0235353
1054.234 .0235301
1054.815 .0235260
1055.396 .0235243
1055.976 .0235232
1056.557 .0235213
1057.138 .0235187
1057.718 .0235144
1058.298 .0235082
1058.879 .0235010
1059.459 .0234927
1060.039 .0234823
1060.620 .0234723
1061.200 .0234625
1061.780 .0234515
1062.360 .0234382
1062.940 .0234247
1063.520 .0234087
1064.101 .0233922
1064.681 .0233769
1065.261 .0233621
1065.841 .0233492
1066.421 .0233394
1067.001 .0233299
1067.581 .0233220
1068.161 .0233149
1068.741 .0233083
1069.321 .0232990
1069.901 .0232914
1070.482 .0232836
1071.062 .0232755
1071.642 .0232697
1072.222 .0232669
1072.803 .0232648
1073.383 .0232638
1073.963 .0232623
1074.544 .0232599
1075.124 .0232562
1075.705 .0232542
1076.286 .0232521
1076.866 .0232507
1077.447 .0232513
1078.028 .0232522
1078.609 .0232536
1079.190 .0232579
1079.771 .0232598
1080.352 .0232571
1080.934 .0232516
1081.515 .0232420
1082.097 .0232283
1082.679 .0232125
1083.260 .0231971
1083.842 .0231820
1084.424 .0231682
1085.007 .0231563
1085.589 .0231420
1086.172 .0231286
1086.754 .0231149
1087.337 .0230980
1087.920 .0230818
1088.503 .0230640
1089.087 .0230466
1089.670 .0230312
1090.254 .0230188
1090.838 .0230072
1091.422 .0229971
1092.006 .0229886
1092.590 .0229793
1093.175 .0229681
1093.760 .0229543
1094.345 .0229362
1094.930 .0229160
1095.516 .0228944
1096.102 .0228733
1096.688 .0228541
1097.274 .0228418
1097.860 .0228337
1098.447 .0228295
1099.034 .0228270
1099.622 .0228243
1100.209 .0228195
1100.797 .0228121
1101.385 .0228015
1101.973 .0227904
1102.562 .0227792
1103.151 .0227720
1103.740 .0227684
1104.330 .0227712
1104.920 .0227803
1105.510 .0227943
1106.101 .0228092
1106.691 .0228256
1107.283 .0228415
1107.874 .0228562
1108.466 .0228703
1109.058 .0228820
1109.651 .0228916
1110.244 .0229012
1110.837 .0229103
1111.431 .0229190
1112.025 .0229245
1112.620 .0229285
1113.215 .0229289
1113.810 .0229262
1114.406 .0229214
1115.002 .0229128
1115.599 .0229034
1116.196 .0228923
1116.793 .0228782
1117.391 .0228599
1117.989 .0228366
1118.588 .0228110
1119.187 .0227831
1119.787 .0227540
1120.387 .0227256
1120.988 .0226997
1121.589 .0226808
1122.190 .0226719
1122.793 .0226731
1123.395 .0226836
1123.998 .0227048
1124.602 .0227346
1125.206 .0227685
1125.811 .0228077
1126.416 .0228508
1127.022 .0228985
1127.628 .0229472
1128.235 .0229995
1128.843 .0230549
1129.451 .0231161
1130.059 .0231818
1130.669 .0232482
1131.278 .0233180
1131.889 .0233878
1132.500 .0234550
1133.112 .0235187
1133.724 .0235785
1134.337 .0236372
1134.950 .0236884
1135.564 .0237394
1136.179 .0237868
1136.795 .0238338
1137.411 .0238850
1138.028 .0239394
1138.645 .0239964
1139.263 .0240598
1139.882 .0241346
1140.502 .0242064
1141.122 .0242858
1141.743 .0243807
1142.365 .0244943
1142.987 .0246650
1143.611 .0244607
1144.235 .0247644
1144.859 .0251661
1145.485 .0255603
