Measurement Sequence started on: 10-20-44-796
Integration time: 35
Scans to Average: 2 
>>>>>Begin Spectral Data<<<<<
432.953 .0448440
433.882 .0347428
434.810 .0344105
435.737 .0337318
436.662 .0320924
437.586 .0335383
438.509 .0330043
439.431 .0328618
440.351 .0327466
441.269 .0326502
442.187 .0325686
443.103 .0324514
444.018 .0323305
444.932 .0322218
445.844 .0321024
446.756 .0320181
447.666 .0319391
448.575 .0318540
449.482 .0317737
450.388 .0316722
451.294 .0315623
452.198 .0314565
453.100 .0313519
454.002 .0312718
454.902 .0312144
455.801 .0311843
456.699 .0311820
457.596 .0311997
458.492 .0312345
459.387 .0312762
460.280 .0313261
461.172 .0313665
462.064 .0314049
462.954 .0314380
463.843 .0314696
464.730 .0314944
465.617 .0315196
466.503 .0315323
467.387 .0315324
468.271 .0315145
469.153 .0314741
470.035 .0314236
470.915 .0313637
471.794 .0312977
472.673 .0312365
473.550 .0311764
474.426 .0311274
475.301 .0310819
476.175 .0310405
477.048 .0310012
477.920 .0309612
478.791 .0309191
479.661 .0308750
480.530 .0308371
481.398 .0308059
482.266 .0307854
483.132 .0307818
483.997 .0307955
484.861 .0308207
485.724 .0308544
486.587 .0308920
487.448 .0309260
488.308 .0309549
489.168 .0309746
490.026 .0309857
490.884 .0309936
491.741 .0309950
492.597 .0309935
493.452 .0309919
494.306 .0309917
495.159 .0309876
496.011 .0309754
496.862 .0309599
497.713 .0309348
498.562 .0308980
499.411 .0308510
500.259 .0307965
501.106 .0307338
501.952 .0306671
502.798 .0305953
503.642 .0305191
504.486 .0304420
505.329 .0303610
506.171 .0302787
507.012 .0301997
507.852 .0301249
508.692 .0300549
509.531 .0299862
510.369 .0299272
511.206 .0298646
512.043 .0297982
512.878 .0297250
513.713 .0296383
514.547 .0295385
515.381 .0294279
516.213 .0293017
517.045 .0291647
517.876 .0290198
518.706 .0288697
519.536 .0287141
520.365 .0285527
521.193 .0283803
522.020 .0281964
522.847 .0280025
523.673 .0277988
524.498 .0275879
525.323 .0273807
526.146 .0271757
526.969 .0269763
527.792 .0267931
528.614 .0266193
529.435 .0264565
530.255 .0263090
531.075 .0261728
531.894 .0260496
532.712 .0259372
533.530 .0258342
534.347 .0257415
535.163 .0256644
535.979 .0255971
536.794 .0255291
537.608 .0254694
538.422 .0254134
539.235 .0253583
540.048 .0253064
540.860 .0252612
541.671 .0252191
542.481 .0251962
543.292 .0251912
544.101 .0252010
544.910 .0252238
545.718 .0252630
546.526 .0253139
547.333 .0253763
548.139 .0254402
548.945 .0255052
549.750 .0255702
550.555 .0256404
551.359 .0256935
552.162 .0257413
552.965 .0257830
553.768 .0258225
554.569 .0258502
555.371 .0258680
556.171 .0258752
556.972 .0258807
557.771 .0258847
558.570 .0258902
559.369 .0258999
560.167 .0259206
560.964 .0259477
561.761 .0259824
562.558 .0260268
563.354 .0260852
564.149 .0261538
564.944 .0262374
565.738 .0263311
566.532 .0264364
567.325 .0265503
568.118 .0266747
568.910 .0268061
569.702 .0269399
570.494 .0270715
571.285 .0271980
572.075 .0273189
572.865 .0274330
573.654 .0275376
574.443 .0276342
575.232 .0277257
576.020 .0278115
576.807 .0278873
577.594 .0279573
578.381 .0280259
579.167 .0280917
579.952 .0281527
580.738 .0282113
581.522 .0282686
582.307 .0283255
583.091 .0283813
583.874 .0284370
584.657 .0284928
585.440 .0285508
586.222 .0286074
587.004 .0286627
587.785 .0287178
588.566 .0287706
589.346 .0288196
590.126 .0288659
590.906 .0289089
591.685 .0289483
592.464 .0289821
593.242 .0290139
594.020 .0290408
594.797 .0290639
595.575 .0290829
596.351 .0290991
597.128 .0291129
597.904 .0291234
598.679 .0291307
599.454 .0291356
600.229 .0291391
601.004 .0291403
601.778 .0291404
602.551 .0291406
603.325 .0291420
604.097 .0291438
604.870 .0291455
605.642 .0291484
606.414 .0291503
607.185 .0291506
607.956 .0291490
608.727 .0291446
609.497 .0291388
610.267 .0291303
611.037 .0291212
611.806 .0291116
612.575 .0291021
613.344 .0290929
614.112 .0290837
614.880 .0290736
615.647 .0290619
616.414 .0290462
617.181 .0290285
617.948 .0290088
618.714 .0289878
619.480 .0289675
620.245 .0289501
621.011 .0289361
621.775 .0289259
622.540 .0289183
623.304 .0289139
624.068 .0289115
624.832 .0289096
625.595 .0289064
626.358 .0289015
627.120 .0288951
627.883 .0288876
628.645 .0288795
629.406 .0288726
630.168 .0288656
630.929 .0288589
631.689 .0288524
632.450 .0288447
633.210 .0288358
633.970 .0288245
634.729 .0288111
635.489 .0287955
636.248 .0287772
637.006 .0287571
637.765 .0287364
638.523 .0287167
639.280 .0286972
640.038 .0286793
640.795 .0286623
641.552 .0286470
642.309 .0286326
643.065 .0286192
643.821 .0286064
644.577 .0285939
645.332 .0285809
646.088 .0285679
646.843 .0285545
647.597 .0285413
648.352 .0285282
649.106 .0285165
649.860 .0285054
650.613 .0284956
651.367 .0284870
652.120 .0284795
652.872 .0284719
653.625 .0284649
654.377 .0284566
655.129 .0284479
655.881 .0284389
656.632 .0284296
657.384 .0284199
658.135 .0284109
658.885 .0284017
659.636 .0283924
660.386 .0283823
661.136 .0283714
661.885 .0283582
662.635 .0283434
663.384 .0283273
664.133 .0283091
664.881 .0282902
665.630 .0282716
666.378 .0282528
667.126 .0282348
667.874 .0282169
668.621 .0281997
669.368 .0281827
670.115 .0281664
670.862 .0281506
671.608 .0281356
672.354 .0281226
673.100 .0281117
673.846 .0281031
674.591 .0280976
675.337 .0280939
676.082 .0280911
676.826 .0280889
677.571 .0280864
678.315 .0280834
679.059 .0280789
679.803 .0280737
680.547 .0280681
681.290 .0280612
682.033 .0280544
682.776 .0280469
683.518 .0280397
684.261 .0280320
685.003 .0280232
685.745 .0280129
686.487 .0280011
687.228 .0279877
687.969 .0279721
688.710 .0279546
689.451 .0279364
690.192 .0279170
690.932 .0278975
691.672 .0278787
692.412 .0278605
693.152 .0278432
693.891 .0278270
694.630 .0278108
695.369 .0277951
696.108 .0277791
696.846 .0277629
697.585 .0277467
698.323 .0277316
699.061 .0277175
699.798 .0277048
700.536 .0276940
701.273 .0276846
702.010 .0276761
702.746 .0276682
703.483 .0276594
704.219 .0276496
704.955 .0276386
705.691 .0276262
706.427 .0276128
707.162 .0275988
707.897 .0275837
708.632 .0275681
709.367 .0275522
710.101 .0275353
710.835 .0275175
711.569 .0274986
712.303 .0274787
713.037 .0274588
713.770 .0274393
714.503 .0274205
715.236 .0274032
715.969 .0273878
716.702 .0273742
717.434 .0273621
718.166 .0273514
718.898 .0273414
719.629 .0273325
720.361 .0273245
721.092 .0273164
721.823 .0273087
722.554 .0273015
723.284 .0272945
724.014 .0272872
724.744 .0272788
725.474 .0272686
726.204 .0272563
726.933 .0272421
727.662 .0272252
728.391 .0272065
729.120 .0271866
729.849 .0271653
730.577 .0271438
731.305 .0271221
732.033 .0271007
732.760 .0270798
733.488 .0270596
734.215 .0270392
734.942 .0270185
735.669 .0269974
736.395 .0269757
737.122 .0269536
737.848 .0269314
738.573 .0269081
739.299 .0268845
740.024 .0268607
740.750 .0268370
741.474 .0268137
742.199 .0267918
742.924 .0267697
743.648 .0267486
744.372 .0267276
745.096 .0267073
745.819 .0266871
746.543 .0266676
747.266 .0266486
747.989 .0266305
748.711 .0266135
749.434 .0265978
750.156 .0265839
750.878 .0265732
751.599 .0265640
752.321 .0265573
753.042 .0265517
753.763 .0265473
754.484 .0265430
755.205 .0265385
755.925 .0265335
756.645 .0265277
757.365 .0265201
758.085 .0265110
758.804 .0265001
759.523 .0264877
760.242 .0264728
760.961 .0264567
761.679 .0264390
762.397 .0264193
763.115 .0263981
763.833 .0263757
764.551 .0263521
765.268 .0263279
765.985 .0263025
766.702 .0262763
767.418 .0262500
768.134 .0262234
768.850 .0261969
769.566 .0261717
770.282 .0261482
770.997 .0261262
771.712 .0261059
772.427 .0260879
773.142 .0260713
773.856 .0260557
774.570 .0260413
775.284 .0260271
775.998 .0260134
776.711 .0259996
777.424 .0259857
778.137 .0259723
778.849 .0259590
779.562 .0259457
780.274 .0259324
780.986 .0259185
781.697 .0259038
782.409 .0258878
783.120 .0258717
783.831 .0258551
784.541 .0258387
785.252 .0258230
785.962 .0258091
786.671 .0257967
787.381 .0257858
788.090 .0257766
788.799 .0257687
789.508 .0257617
790.217 .0257544
790.925 .0257469
791.633 .0257396
792.341 .0257323
793.048 .0257250
793.755 .0257176
794.462 .0257105
795.169 .0257028
795.875 .0256939
796.581 .0256839
797.287 .0256729
797.993 .0256601
798.698 .0256460
799.403 .0256312
800.108 .0256161
800.812 .0256014
801.517 .0255870
802.221 .0255738
802.924 .0255611
803.628 .0255487
804.331 .0255369
805.034 .0255253
805.736 .0255149
806.439 .0255051
807.141 .0254967
807.843 .0254902
808.544 .0254850
809.245 .0254801
809.946 .0254752
810.647 .0254705
811.347 .0254648
812.047 .0254579
812.747 .0254505
813.447 .0254430
814.146 .0254350
814.845 .0254278
815.543 .0254209
816.242 .0254138
816.940 .0254068
817.638 .0253987
818.335 .0253895
819.032 .0253789
819.729 .0253671
820.426 .0253547
821.122 .0253420
821.818 .0253298
822.514 .0253171
823.209 .0253044
823.905 .0252915
824.599 .0252773
825.294 .0252616
825.988 .0252445
826.682 .0252264
827.376 .0252074
828.069 .0251877
828.762 .0251677
829.455 .0251478
830.147 .0251283
830.840 .0251094
831.531 .0250913
832.223 .0250742
832.914 .0250588
833.605 .0250444
834.296 .0250317
834.986 .0250204
835.676 .0250101
836.366 .0250001
837.055 .0249896
837.744 .0249780
838.433 .0249647
839.121 .0249500
839.809 .0249345
840.497 .0249185
841.185 .0249029
841.872 .0248876
842.559 .0248731
843.245 .0248590
843.932 .0248452
844.617 .0248312
845.303 .0248176
845.988 .0248038
846.673 .0247905
847.358 .0247785
848.042 .0247683
848.726 .0247601
849.410 .0247543
850.093 .0247501
850.776 .0247465
851.459 .0247427
852.141 .0247380
852.823 .0247314
853.505 .0247237
854.186 .0247139
854.867 .0247029
855.548 .0246910
856.228 .0246784
856.908 .0246648
857.588 .0246502
858.267 .0246346
858.946 .0246173
859.625 .0245987
860.303 .0245793
860.981 .0245595
861.659 .0245403
862.336 .0245219
863.013 .0245046
863.690 .0244889
864.366 .0244746
865.042 .0244606
865.718 .0244471
866.393 .0244341
867.068 .0244206
867.743 .0244069
868.417 .0243932
869.091 .0243801
869.765 .0243670
870.438 .0243540
871.111 .0243406
871.783 .0243269
872.456 .0243128
873.127 .0242974
873.799 .0242820
874.470 .0242665
875.141 .0242517
875.811 .0242374
876.481 .0242242
877.151 .0242124
877.820 .0242009
878.489 .0241900
879.158 .0241790
879.826 .0241678
880.494 .0241561
881.162 .0241437
881.829 .0241316
882.496 .0241189
883.163 .0241058
883.829 .0240925
884.495 .0240791
885.160 .0240657
885.825 .0240526
886.490 .0240396
887.154 .0240274
887.818 .0240157
888.482 .0240042
889.145 .0239928
889.808 .0239814
890.471 .0239695
891.133 .0239575
891.795 .0239454
892.456 .0239335
893.117 .0239217
893.778 .0239111
894.439 .0239016
895.099 .0238928
895.758 .0238848
896.417 .0238764
897.076 .0238677
897.735 .0238584
898.393 .0238478
899.051 .0238364
899.708 .0238244
900.365 .0238122
901.022 .0238000
901.678 .0237880
902.334 .0237764
902.990 .0237651
903.645 .0237550
904.300 .0237446
904.954 .0237341
905.608 .0237232
906.262 .0237120
906.915 .0237004
907.568 .0236889
908.221 .0236775
908.873 .0236667
909.525 .0236572
910.176 .0236482
910.828 .0236403
911.478 .0236338
912.129 .0236284
912.778 .0236239
913.428 .0236195
914.077 .0236152
914.726 .0236102
915.375 .0236053
916.023 .0236002
916.670 .0235952
917.318 .0235908
917.964 .0235868
918.611 .0235827
919.257 .0235783
919.903 .0235732
920.548 .0235675
921.193 .0235615
921.838 .0235549
922.482 .0235478
923.126 .0235404
923.770 .0235331
924.413 .0235255
925.056 .0235175
925.698 .0235091
926.340 .0235001
926.982 .0234905
927.623 .0234807
928.264 .0234709
928.904 .0234626
929.544 .0234560
930.184 .0234512
930.823 .0234474
931.462 .0234440
932.101 .0234399
932.739 .0234346
933.377 .0234271
934.014 .0234173
934.651 .0234055
935.288 .0233924
935.924 .0233790
936.560 .0233656
937.196 .0233526
937.831 .0233403
938.466 .0233278
939.100 .0233142
939.734 .0232988
940.368 .0232814
941.001 .0232623
941.634 .0232423
942.266 .0232221
942.899 .0232022
943.530 .0231835
944.162 .0231666
944.793 .0231510
945.423 .0231366
946.053 .0231226
946.683 .0231088
947.313 .0230955
947.942 .0230830
948.571 .0230705
949.199 .0230586
949.827 .0230478
950.455 .0230367
951.082 .0230258
951.709 .0230142
952.335 .0230017
952.961 .0229883
953.587 .0229737
954.212 .0229579
954.837 .0229413
955.462 .0229256
956.086 .0229106
956.710 .0228971
957.334 .0228856
957.957 .0228751
958.579 .0228656
959.202 .0228565
959.824 .0228472
960.445 .0228371
961.067 .0228267
961.688 .0228152
962.308 .0228043
962.928 .0227942
963.548 .0227850
964.168 .0227779
964.787 .0227723
965.406 .0227679
966.024 .0227638
966.642 .0227595
967.260 .0227541
967.877 .0227469
968.494 .0227382
969.110 .0227277
969.727 .0227170
970.342 .0227066
970.958 .0226964
971.573 .0226881
972.188 .0226815
972.802 .0226760
973.416 .0226716
974.030 .0226676
974.643 .0226638
975.256 .0226601
975.869 .0226560
976.481 .0226521
977.093 .0226493
977.705 .0226484
978.316 .0226493
978.927 .0226524
979.538 .0226567
980.148 .0226617
980.758 .0226673
981.367 .0226730
981.977 .0226785
982.586 .0226836
983.194 .0226880
983.802 .0226921
984.410 .0226959
985.018 .0226993
985.625 .0227015
986.232 .0227037
986.838 .0227049
987.445 .0227042
988.050 .0227016
988.656 .0226965
989.261 .0226900
989.866 .0226822
990.471 .0226728
991.075 .0226631
991.679 .0226534
992.282 .0226440
992.886 .0226355
993.489 .0226284
994.091 .0226229
994.694 .0226187
995.296 .0226160
995.897 .0226150
996.499 .0226149
997.100 .0226156
997.701 .0226171
998.301 .0226190
998.901 .0226218
999.501 .0226241
1000.101 .0226268
1000.700 .0226297
1001.299 .0226322
1001.898 .0226344
1002.496 .0226356
1003.094 .0226357
1003.692 .0226342
1004.289 .0226305
1004.887 .0226256
1005.484 .0226197
1006.080 .0226138
1006.677 .0226084
1007.273 .0226040
1007.868 .0226002
1008.464 .0225964
1009.059 .0225924
1009.654 .0225881
1010.249 .0225835
1010.843 .0225791
1011.437 .0225754
1012.031 .0225730
1012.625 .0225731
1013.218 .0225757
1013.811 .0225813
1014.404 .0225882
1014.997 .0225955
1015.589 .0226014
1016.181 .0226045
1016.773 .0226044
1017.365 .0226020
1017.956 .0225983
1018.547 .0225947
1019.138 .0225920
1019.728 .0225915
1020.319 .0225932
1020.909 .0225977
1021.499 .0226026
1022.088 .0226072
1022.678 .0226096
1023.267 .0226090
1023.856 .0226046
1024.445 .0225981
1025.033 .0225892
1025.621 .0225802
1026.209 .0225716
1026.797 .0225641
1027.385 .0225571
1027.972 .0225514
1028.560 .0225467
1029.147 .0225426
1029.734 .0225377
1030.320 .0225322
1030.907 .0225253
1031.493 .0225184
1032.079 .0225114
1032.665 .0225051
1033.250 .0224999
1033.836 .0224972
1034.421 .0224960
1035.006 .0224973
1035.591 .0224996
1036.176 .0225034
1036.761 .0225075
1037.345 .0225117
1037.929 .0225144
1038.514 .0225156
1039.097 .0225152
1039.681 .0225145
1040.265 .0225121
1040.848 .0225087
1041.432 .0225044
1042.015 .0225004
1042.598 .0224963
1043.181 .0224922
1043.764 .0224883
1044.346 .0224855
1044.929 .0224819
1045.511 .0224782
1046.094 .0224735
1046.676 .0224680
1047.258 .0224614
1047.840 .0224541
1048.422 .0224471
1049.003 .0224412
1049.585 .0224369
1050.166 .0224352
1050.748 .0224357
1051.329 .0224383
1051.910 .0224407
1052.491 .0224425
1053.072 .0224433
1053.653 .0224413
1054.234 .0224355
1054.815 .0224284
1055.396 .0224201
1055.976 .0224126
1056.557 .0224060
1057.138 .0224016
1057.718 .0223993
1058.298 .0223977
1058.879 .0223958
1059.459 .0223917
1060.039 .0223856
1060.620 .0223760
1061.200 .0223619
1061.780 .0223472
1062.360 .0223315
1062.940 .0223177
1063.520 .0223066
1064.101 .0223000
1064.681 .0222969
1065.261 .0222959
1065.841 .0222947
1066.421 .0222914
1067.001 .0222860
1067.581 .0222763
1068.161 .0222628
1068.741 .0222487
1069.321 .0222364
1069.901 .0222267
1070.482 .0222207
1071.062 .0222187
1071.642 .0222175
1072.222 .0222173
1072.803 .0222135
1073.383 .0222047
1073.963 .0221906
1074.544 .0221718
1075.124 .0221487
1075.705 .0221260
1076.286 .0221071
1076.866 .0220925
1077.447 .0220837
1078.028 .0220800
1078.609 .0220777
1079.190 .0220748
1079.771 .0220689
1080.352 .0220589
1080.934 .0220443
1081.515 .0220279
1082.097 .0220097
1082.679 .0219959
1083.260 .0219861
1083.842 .0219833
1084.424 .0219838
1085.007 .0219890
1085.589 .0219927
1086.172 .0219934
1086.754 .0219891
1087.337 .0219801
1087.920 .0219679
1088.503 .0219540
1089.087 .0219399
1089.670 .0219287
1090.254 .0219197
1090.838 .0219157
1091.422 .0219119
1092.006 .0219105
1092.590 .0219068
1093.175 .0219035
1093.760 .0218964
1094.345 .0218896
1094.930 .0218830
1095.516 .0218784
1096.102 .0218775
1096.688 .0218789
1097.274 .0218824
1097.860 .0218881
1098.447 .0218957
1099.034 .0219003
1099.622 .0219018
1100.209 .0219040
1100.797 .0219015
1101.385 .0218966
1101.973 .0218896
1102.562 .0218808
1103.151 .0218699
1103.740 .0218566
1104.330 .0218416
1104.920 .0218246
1105.510 .0218092
1106.101 .0217907
1106.691 .0217717
1107.283 .0217556
1107.874 .0217420
1108.466 .0217272
1109.058 .0217160
1109.651 .0217065
1110.244 .0216981
1110.837 .0216905
1111.431 .0216866
1112.025 .0216857
1112.620 .0216916
1113.215 .0217046
1113.810 .0217264
1114.406 .0217568
1115.002 .0217964
1115.599 .0218399
1116.196 .0218866
1116.793 .0219300
1117.391 .0219695
1117.989 .0220008
1118.588 .0220278
1119.187 .0220476
1119.787 .0220636
1120.387 .0220793
1120.988 .0220933
1121.589 .0221067
1122.190 .0221145
1122.793 .0221170
1123.395 .0221166
1123.998 .0221107
1124.602 .0221006
1125.206 .0220898
1125.811 .0220777
1126.416 .0220693
1127.022 .0220672
1127.628 .0220708
1128.235 .0220770
1128.843 .0220908
1129.451 .0221112
1130.059 .0221346
1130.669 .0221595
1131.278 .0221938
1131.889 .0222322
1132.500 .0222824
1133.112 .0223360
1133.724 .0223881
1134.337 .0224411
1134.950 .0224867
1135.564 .0225194
1136.179 .0225425
1136.795 .0225547
1137.411 .0225605
1138.028 .0225586
1138.645 .0225565
1139.263 .0225514
1139.882 .0225478
1140.502 .0225430
1141.122 .0225294
1141.743 .0225306
1142.365 .0225171
1142.987 .0224930
1143.611 .0223973
1144.235 .0223040
1144.859 .0228891
1145.485 .0223245
