Measurement Sequence started on: 10-20-44-796
Integration time: 35
Scans to Average: 2 
>>>>>Begin Spectral Data<<<<<
432.953 .0277887
433.882 .0418880
434.810 .0337256
435.737 .0308509
436.662 .0318123
437.586 .0326895
438.509 .0325776
439.431 .0321579
440.351 .0320266
441.269 .0319493
442.187 .0318275
443.103 .0317023
444.018 .0316213
444.932 .0315768
445.844 .0315474
446.756 .0315338
447.666 .0315256
448.575 .0314981
449.482 .0314412
450.388 .0313666
451.294 .0312863
452.198 .0312152
453.100 .0311589
454.002 .0311317
454.902 .0311191
455.801 .0311118
456.699 .0311057
457.596 .0310996
458.492 .0310844
459.387 .0310510
460.280 .0310033
461.172 .0309470
462.064 .0308922
462.954 .0308415
463.843 .0307981
464.730 .0307714
465.617 .0307576
466.503 .0307443
467.387 .0307303
468.271 .0307073
469.153 .0306798
470.035 .0306441
470.915 .0306039
471.794 .0305532
472.673 .0305025
473.550 .0304569
474.426 .0304209
475.301 .0303977
476.175 .0303839
477.048 .0303703
477.920 .0303583
478.791 .0303417
479.661 .0303155
480.530 .0302768
481.398 .0302330
482.266 .0301805
483.132 .0301298
483.997 .0300747
484.861 .0300272
485.724 .0299871
486.587 .0299609
487.448 .0299366
488.308 .0299094
489.168 .0298800
490.026 .0298470
490.884 .0298097
491.741 .0297733
492.597 .0297397
493.452 .0297149
494.306 .0296981
495.159 .0296928
496.011 .0296934
496.862 .0297031
497.713 .0297099
498.562 .0297148
499.411 .0297107
500.259 .0296992
501.106 .0296765
501.952 .0296498
502.798 .0296243
503.642 .0295941
504.486 .0295581
505.329 .0295130
506.171 .0294558
507.012 .0293836
507.852 .0292922
508.692 .0291836
509.531 .0290601
510.369 .0289242
511.206 .0287815
512.043 .0286406
512.878 .0285040
513.713 .0283734
514.547 .0282509
515.381 .0281355
516.213 .0280214
517.045 .0279012
517.876 .0277734
518.706 .0276353
519.536 .0274928
520.365 .0273394
521.193 .0271806
522.020 .0270279
522.847 .0268755
523.673 .0267264
524.498 .0265787
525.323 .0264235
526.146 .0262608
526.969 .0260878
527.792 .0259073
528.614 .0257169
529.435 .0255313
530.255 .0253576
531.075 .0251955
531.894 .0250627
532.712 .0249503
533.530 .0248568
534.347 .0247863
535.163 .0247211
535.979 .0246604
536.794 .0246059
537.608 .0245557
538.422 .0245113
539.235 .0244812
540.048 .0244648
540.860 .0244608
541.671 .0244734
542.481 .0244983
543.292 .0245239
544.101 .0245551
544.910 .0245802
545.718 .0245956
546.526 .0246122
547.333 .0246253
548.139 .0246397
548.945 .0246640
549.750 .0246945
550.555 .0247360
551.359 .0247871
552.162 .0248499
552.965 .0249148
553.768 .0249866
554.569 .0250647
555.371 .0251396
556.171 .0252200
556.972 .0253020
557.771 .0253832
558.570 .0254693
559.369 .0255559
560.167 .0256437
560.964 .0257353
561.761 .0258295
562.558 .0259276
563.354 .0260255
564.149 .0261267
564.944 .0262240
565.738 .0263162
566.532 .0264085
567.325 .0264954
568.118 .0265784
568.910 .0266610
569.702 .0267409
570.494 .0268259
571.285 .0269134
572.075 .0270056
572.865 .0271008
573.654 .0271974
574.443 .0272916
575.232 .0273773
576.020 .0274546
576.807 .0275261
577.594 .0275878
578.381 .0276431
579.167 .0276904
579.952 .0277345
580.738 .0277774
581.522 .0278204
582.307 .0278644
583.091 .0279109
583.874 .0279591
584.657 .0280088
585.440 .0280594
586.222 .0281117
587.004 .0281638
587.785 .0282161
588.566 .0282680
589.346 .0283187
590.126 .0283655
590.906 .0284079
591.685 .0284459
592.464 .0284801
593.242 .0285086
594.020 .0285325
594.797 .0285528
595.575 .0285696
596.351 .0285835
597.128 .0285939
597.904 .0285992
598.679 .0286014
599.454 .0285988
600.229 .0285927
601.004 .0285834
601.778 .0285732
602.551 .0285625
603.325 .0285524
604.097 .0285439
604.870 .0285359
605.642 .0285287
606.414 .0285233
607.185 .0285182
607.956 .0285135
608.727 .0285085
609.497 .0285025
610.267 .0284956
611.037 .0284877
611.806 .0284789
612.575 .0284698
613.344 .0284603
614.112 .0284505
614.880 .0284400
615.647 .0284290
616.414 .0284182
617.181 .0284077
617.948 .0283981
618.714 .0283886
619.480 .0283796
620.245 .0283713
621.011 .0283622
621.775 .0283531
622.540 .0283431
623.304 .0283326
624.068 .0283221
624.832 .0283109
625.595 .0282987
626.358 .0282862
627.120 .0282736
627.883 .0282599
628.645 .0282444
629.406 .0282277
630.168 .0282091
630.929 .0281895
631.689 .0281694
632.450 .0281480
633.210 .0281267
633.970 .0281066
634.729 .0280866
635.489 .0280671
636.248 .0280481
637.006 .0280291
637.765 .0280102
638.523 .0279920
639.280 .0279735
640.038 .0279544
640.795 .0279361
641.552 .0279186
642.309 .0279007
643.065 .0278836
643.821 .0278672
644.577 .0278511
645.332 .0278356
646.088 .0278195
646.843 .0278023
647.597 .0277842
648.352 .0277655
649.106 .0277457
649.860 .0277252
650.613 .0277045
651.367 .0276839
652.120 .0276640
652.872 .0276458
653.625 .0276294
654.377 .0276146
655.129 .0276017
655.881 .0275901
656.632 .0275777
657.384 .0275645
658.135 .0275498
658.885 .0275338
659.636 .0275161
660.386 .0274981
661.136 .0274800
661.885 .0274621
662.635 .0274459
663.384 .0274313
664.133 .0274175
664.881 .0274052
665.630 .0273931
666.378 .0273810
667.126 .0273693
667.874 .0273581
668.621 .0273468
669.368 .0273372
670.115 .0273288
670.862 .0273218
671.608 .0273170
672.354 .0273143
673.100 .0273129
673.846 .0273130
674.591 .0273141
675.337 .0273150
676.082 .0273147
676.826 .0273141
677.571 .0273114
678.315 .0273073
679.059 .0273010
679.803 .0272929
680.547 .0272832
681.290 .0272720
682.033 .0272588
682.776 .0272445
683.518 .0272291
684.261 .0272130
685.003 .0271964
685.745 .0271795
686.487 .0271626
687.228 .0271456
687.969 .0271286
688.710 .0271117
689.451 .0270947
690.192 .0270787
690.932 .0270630
691.672 .0270482
692.412 .0270349
693.152 .0270228
693.891 .0270131
694.630 .0270054
695.369 .0269990
696.108 .0269941
696.846 .0269888
697.585 .0269826
698.323 .0269755
699.061 .0269668
699.798 .0269568
700.536 .0269460
701.273 .0269351
702.010 .0269247
702.746 .0269140
703.483 .0269040
704.219 .0268943
704.955 .0268846
705.691 .0268740
706.427 .0268612
707.162 .0268469
707.897 .0268312
708.632 .0268135
709.367 .0267953
710.101 .0267765
710.835 .0267583
711.569 .0267402
712.303 .0267223
713.037 .0267056
713.770 .0266897
714.503 .0266740
715.236 .0266591
715.969 .0266440
716.702 .0266286
717.434 .0266126
718.166 .0265965
718.898 .0265811
719.629 .0265664
720.361 .0265523
721.092 .0265394
721.823 .0265276
722.554 .0265170
723.284 .0265066
724.014 .0264961
724.744 .0264846
725.474 .0264713
726.204 .0264559
726.933 .0264383
727.662 .0264193
728.391 .0263996
729.120 .0263791
729.849 .0263586
730.577 .0263380
731.305 .0263165
732.033 .0262951
732.760 .0262734
733.488 .0262519
734.215 .0262306
734.942 .0262103
735.669 .0261912
736.395 .0261740
737.122 .0261589
737.848 .0261447
738.573 .0261309
739.299 .0261171
740.024 .0261028
740.750 .0260873
741.474 .0260719
742.199 .0260565
742.924 .0260417
743.648 .0260278
744.372 .0260141
745.096 .0260009
745.819 .0259873
746.543 .0259727
747.266 .0259564
747.989 .0259382
748.711 .0259193
749.434 .0258993
750.156 .0258803
750.878 .0258625
751.599 .0258471
752.321 .0258340
753.042 .0258232
753.763 .0258137
754.484 .0258050
755.205 .0257964
755.925 .0257875
756.645 .0257776
757.365 .0257670
758.085 .0257555
758.804 .0257437
759.523 .0257311
760.242 .0257180
760.961 .0257037
761.679 .0256887
762.397 .0256725
763.115 .0256555
763.833 .0256374
764.551 .0256187
765.268 .0255991
765.985 .0255792
766.702 .0255591
767.418 .0255392
768.134 .0255192
768.850 .0254996
769.566 .0254804
770.282 .0254610
770.997 .0254416
771.712 .0254222
772.427 .0254034
773.142 .0253850
773.856 .0253669
774.570 .0253488
775.284 .0253312
775.998 .0253136
776.711 .0252959
777.424 .0252778
778.137 .0252592
778.849 .0252396
779.562 .0252192
780.274 .0251990
780.986 .0251793
781.697 .0251601
782.409 .0251426
783.120 .0251267
783.831 .0251132
784.541 .0251012
785.252 .0250907
785.962 .0250814
786.671 .0250736
787.381 .0250662
788.090 .0250584
788.799 .0250505
789.508 .0250427
790.217 .0250346
790.925 .0250269
791.633 .0250195
792.341 .0250117
793.048 .0250038
793.755 .0249955
794.462 .0249862
795.169 .0249757
795.875 .0249642
796.581 .0249519
797.287 .0249388
797.993 .0249250
798.698 .0249107
799.403 .0248962
800.108 .0248821
800.812 .0248678
801.517 .0248532
802.221 .0248386
802.924 .0248241
803.628 .0248098
804.331 .0247967
805.034 .0247845
805.736 .0247739
806.439 .0247643
807.141 .0247559
807.843 .0247487
808.544 .0247417
809.245 .0247347
809.946 .0247280
810.647 .0247213
811.347 .0247143
812.047 .0247076
812.747 .0247020
813.447 .0246971
814.146 .0246930
814.845 .0246892
815.543 .0246851
816.242 .0246808
816.940 .0246756
817.638 .0246689
818.335 .0246615
819.032 .0246535
819.729 .0246443
820.426 .0246344
821.122 .0246243
821.818 .0246134
822.514 .0246015
823.209 .0245893
823.905 .0245769
824.599 .0245642
825.294 .0245515
825.988 .0245393
826.682 .0245276
827.376 .0245161
828.069 .0245047
828.762 .0244933
829.455 .0244818
830.147 .0244702
830.840 .0244586
831.531 .0244469
832.223 .0244365
832.914 .0244266
833.605 .0244179
834.296 .0244102
834.986 .0244035
835.676 .0243970
836.366 .0243899
837.055 .0243829
837.744 .0243755
838.433 .0243674
839.121 .0243600
839.809 .0243524
840.497 .0243461
841.185 .0243400
841.872 .0243346
842.559 .0243292
843.245 .0243235
843.932 .0243170
844.617 .0243099
845.303 .0243017
845.988 .0242938
846.673 .0242858
847.358 .0242786
848.042 .0242722
848.726 .0242665
849.410 .0242615
850.093 .0242571
850.776 .0242527
851.459 .0242483
852.141 .0242430
852.823 .0242372
853.505 .0242306
854.186 .0242235
854.867 .0242163
855.548 .0242089
856.228 .0242018
856.908 .0241948
857.588 .0241877
858.267 .0241807
858.946 .0241732
859.625 .0241652
860.303 .0241571
860.981 .0241484
861.659 .0241398
862.336 .0241309
863.013 .0241223
863.690 .0241138
864.366 .0241057
865.042 .0240976
865.718 .0240894
866.393 .0240812
867.068 .0240730
867.743 .0240650
868.417 .0240575
869.091 .0240506
869.765 .0240443
870.438 .0240389
871.111 .0240338
871.783 .0240282
872.456 .0240220
873.127 .0240141
873.799 .0240047
874.470 .0239933
875.141 .0239802
875.811 .0239661
876.481 .0239519
877.151 .0239388
877.820 .0239271
878.489 .0239173
879.158 .0239085
879.826 .0239009
880.494 .0238936
881.162 .0238858
881.829 .0238775
882.496 .0238683
883.163 .0238589
883.829 .0238495
884.495 .0238409
885.160 .0238335
885.825 .0238278
886.490 .0238235
887.154 .0238202
887.818 .0238173
888.482 .0238138
889.145 .0238095
889.808 .0238039
890.471 .0237972
891.133 .0237891
891.795 .0237801
892.456 .0237701
893.117 .0237601
893.778 .0237507
894.439 .0237409
895.099 .0237314
895.758 .0237217
896.417 .0237119
897.076 .0237018
897.735 .0236920
898.393 .0236826
899.051 .0236738
899.708 .0236662
900.365 .0236594
901.022 .0236535
901.678 .0236487
902.334 .0236445
902.990 .0236407
903.645 .0236373
904.300 .0236334
904.954 .0236288
905.608 .0236240
906.262 .0236184
906.915 .0236124
907.568 .0236053
908.221 .0235981
908.873 .0235896
909.525 .0235804
910.176 .0235698
910.828 .0235574
911.478 .0235438
912.129 .0235289
912.778 .0235126
913.428 .0234955
914.077 .0234779
914.726 .0234605
915.375 .0234434
916.023 .0234275
916.670 .0234122
917.318 .0233977
917.964 .0233835
918.611 .0233697
919.257 .0233558
919.903 .0233423
920.548 .0233287
921.193 .0233157
921.838 .0233032
922.482 .0232912
923.126 .0232798
923.770 .0232694
924.413 .0232595
925.056 .0232497
925.698 .0232395
926.340 .0232293
926.982 .0232187
927.623 .0232083
928.264 .0231982
928.904 .0231887
929.544 .0231801
930.184 .0231720
930.823 .0231641
931.462 .0231563
932.101 .0231485
932.739 .0231401
933.377 .0231309
934.014 .0231207
934.651 .0231096
935.288 .0230974
935.924 .0230848
936.560 .0230718
937.196 .0230577
937.831 .0230423
938.466 .0230255
939.100 .0230076
939.734 .0229883
940.368 .0229673
941.001 .0229455
941.634 .0229223
942.266 .0228991
942.899 .0228754
943.530 .0228521
944.162 .0228290
944.793 .0228065
945.423 .0227834
946.053 .0227595
946.683 .0227346
947.313 .0227087
947.942 .0226822
948.571 .0226559
949.199 .0226297
949.827 .0226044
950.455 .0225802
951.082 .0225579
951.709 .0225363
952.335 .0225160
952.961 .0224962
953.587 .0224759
954.212 .0224551
954.837 .0224337
955.462 .0224119
956.086 .0223906
956.710 .0223703
957.334 .0223517
957.957 .0223348
958.579 .0223194
959.202 .0223057
959.824 .0222929
960.445 .0222811
961.067 .0222694
961.688 .0222571
962.308 .0222444
962.928 .0222316
963.548 .0222187
964.168 .0222056
964.787 .0221930
965.406 .0221808
966.024 .0221691
966.642 .0221583
967.260 .0221482
967.877 .0221393
968.494 .0221312
969.110 .0221244
969.727 .0221177
970.342 .0221117
970.958 .0221056
971.573 .0220997
972.188 .0220945
972.802 .0220894
973.416 .0220847
974.030 .0220799
974.643 .0220757
975.256 .0220716
975.869 .0220675
976.481 .0220638
977.093 .0220597
977.705 .0220560
978.316 .0220519
978.927 .0220472
979.538 .0220417
980.148 .0220356
980.758 .0220286
981.367 .0220210
981.977 .0220131
982.586 .0220053
983.194 .0219980
983.802 .0219919
984.410 .0219864
985.018 .0219820
985.625 .0219785
986.232 .0219763
986.838 .0219744
987.445 .0219733
988.050 .0219722
988.656 .0219715
989.261 .0219711
989.866 .0219707
990.471 .0219693
991.075 .0219672
991.679 .0219634
992.282 .0219587
992.886 .0219525
993.489 .0219462
994.091 .0219397
994.694 .0219345
995.296 .0219299
995.897 .0219262
996.499 .0219232
997.100 .0219206
997.701 .0219173
998.301 .0219137
998.901 .0219097
999.501 .0219061
1000.101 .0219030
1000.700 .0219022
1001.299 .0219035
1001.898 .0219077
1002.496 .0219138
1003.094 .0219216
1003.692 .0219299
1004.289 .0219373
1004.887 .0219439
1005.484 .0219492
1006.080 .0219535
1006.677 .0219569
1007.273 .0219592
1007.868 .0219615
1008.464 .0219641
1009.059 .0219662
1009.654 .0219679
1010.249 .0219694
1010.843 .0219704
1011.437 .0219698
1012.031 .0219684
1012.625 .0219662
1013.218 .0219647
1013.811 .0219645
1014.404 .0219659
1014.997 .0219702
1015.589 .0219774
1016.181 .0219864
1016.773 .0219959
1017.365 .0220062
1017.956 .0220155
1018.547 .0220234
1019.138 .0220302
1019.728 .0220354
1020.319 .0220398
1020.909 .0220436
1021.499 .0220474
1022.088 .0220513
1022.678 .0220554
1023.267 .0220587
1023.856 .0220601
1024.445 .0220604
1025.033 .0220575
1025.621 .0220529
1026.209 .0220473
1026.797 .0220414
1027.385 .0220354
1027.972 .0220305
1028.560 .0220276
1029.147 .0220269
1029.734 .0220283
1030.320 .0220313
1030.907 .0220356
1031.493 .0220420
1032.079 .0220491
1032.665 .0220576
1033.250 .0220670
1033.836 .0220789
1034.421 .0220920
1035.006 .0221063
1035.591 .0221204
1036.176 .0221343
1036.761 .0221475
1037.345 .0221590
1037.929 .0221686
1038.514 .0221755
1039.097 .0221800
1039.681 .0221828
1040.265 .0221838
1040.848 .0221830
1041.432 .0221812
1042.015 .0221789
1042.598 .0221763
1043.181 .0221738
1043.764 .0221720
1044.346 .0221703
1044.929 .0221701
1045.511 .0221707
1046.094 .0221723
1046.676 .0221745
1047.258 .0221784
1047.840 .0221835
1048.422 .0221907
1049.003 .0222000
1049.585 .0222108
1050.166 .0222233
1050.748 .0222376
1051.329 .0222514
1051.910 .0222647
1052.491 .0222761
1053.072 .0222854
1053.653 .0222914
1054.234 .0222951
1054.815 .0222959
1055.396 .0222956
1055.976 .0222931
1056.557 .0222893
1057.138 .0222842
1057.718 .0222775
1058.298 .0222687
1058.879 .0222579
1059.459 .0222454
1060.039 .0222315
1060.620 .0222168
1061.200 .0222019
1061.780 .0221861
1062.360 .0221729
1062.940 .0221625
1063.520 .0221539
1064.101 .0221485
1064.681 .0221472
1065.261 .0221496
1065.841 .0221561
1066.421 .0221662
1067.001 .0221791
1067.581 .0221949
1068.161 .0222125
1068.741 .0222311
1069.321 .0222512
1069.901 .0222741
1070.482 .0222987
1071.062 .0223245
1071.642 .0223517
1072.222 .0223784
1072.803 .0224005
1073.383 .0224187
1073.963 .0224318
1074.544 .0224387
1075.124 .0224400
1075.705 .0224377
1076.286 .0224351
1076.866 .0224330
1077.447 .0224319
1078.028 .0224307
1078.609 .0224282
1079.190 .0224235
1079.771 .0224137
1080.352 .0223987
1080.934 .0223811
1081.515 .0223631
1082.097 .0223457
1082.679 .0223339
1083.260 .0223278
1083.842 .0223268
1084.424 .0223303
1085.007 .0223360
1085.589 .0223412
1086.172 .0223429
1086.754 .0223432
1087.337 .0223403
1087.920 .0223376
1088.503 .0223372
1089.087 .0223388
1089.670 .0223440
1090.254 .0223531
1090.838 .0223629
1091.422 .0223713
1092.006 .0223779
1092.590 .0223806
1093.175 .0223783
1093.760 .0223738
1094.345 .0223674
1094.930 .0223607
1095.516 .0223570
1096.102 .0223574
1096.688 .0223605
1097.274 .0223676
1097.860 .0223750
1098.447 .0223807
1099.034 .0223847
1099.622 .0223868
1100.209 .0223851
1100.797 .0223791
1101.385 .0223710
1101.973 .0223598
1102.562 .0223459
1103.151 .0223317
1103.740 .0223153
1104.330 .0222972
1104.920 .0222779
1105.510 .0222581
1106.101 .0222395
1106.691 .0222218
1107.283 .0222059
1107.874 .0221940
1108.466 .0221870
1109.058 .0221843
1109.651 .0221847
1110.244 .0221888
1110.837 .0221994
1111.431 .0222127
1112.025 .0222270
1112.620 .0222441
1113.215 .0222636
1113.810 .0222839
1114.406 .0223043
1115.002 .0223232
1115.599 .0223385
1116.196 .0223436
1116.793 .0223411
1117.391 .0223311
1117.989 .0223168
1118.588 .0223025
1119.187 .0222875
1119.787 .0222751
1120.387 .0222683
1120.988 .0222640
1121.589 .0222634
1122.190 .0222652
1122.793 .0222686
1123.395 .0222704
1123.998 .0222713
1124.602 .0222723
1125.206 .0222736
1125.811 .0222790
1126.416 .0222868
1127.022 .0222932
1127.628 .0222978
1128.235 .0222996
1128.843 .0222957
1129.451 .0222906
1130.059 .0222797
1130.669 .0222676
1131.278 .0222584
1131.889 .0222506
1132.500 .0222440
1133.112 .0222379
1133.724 .0222311
1134.337 .0222224
1134.950 .0222058
1135.564 .0221864
1136.179 .0221587
1136.795 .0221365
1137.411 .0221191
1138.028 .0221120
1138.645 .0221204
1139.263 .0221429
1139.882 .0221686
1140.502 .0221966
1141.122 .0222214
1141.743 .0222602
1142.365 .0222967
1142.987 .0221644
1143.611 .0222262
1144.235 .0222309
1144.859 .0227779
1145.485 .0226380
