Measurement Sequence started on: 10-20-44-796
Integration time: 35
Scans to Average: 2 
>>>>>Begin Spectral Data<<<<<
432.953 .0254600
433.882 .0268467
434.810 .0299719
435.737 .0305044
436.662 .0301756
437.586 .0307653
438.509 .0312172
439.431 .0315044
440.351 .0316347
441.269 .0317215
442.187 .0317976
443.103 .0318450
444.018 .0318921
444.932 .0319490
445.844 .0320030
446.756 .0320476
447.666 .0320804
448.575 .0320772
449.482 .0320727
450.388 .0320648
451.294 .0320563
452.198 .0320496
453.100 .0320399
454.002 .0320368
454.902 .0320274
455.801 .0320020
456.699 .0319622
457.596 .0319107
458.492 .0318449
459.387 .0317692
460.280 .0316906
461.172 .0316098
462.064 .0315358
462.954 .0314651
463.843 .0314047
464.730 .0313490
465.617 .0312959
466.503 .0312448
467.387 .0311929
468.271 .0311436
469.153 .0310924
470.035 .0310424
470.915 .0309976
471.794 .0309563
472.673 .0309218
473.550 .0308956
474.426 .0308809
475.301 .0308761
476.175 .0308799
477.048 .0308857
477.920 .0308954
478.791 .0309065
479.661 .0309164
480.530 .0309217
481.398 .0309251
482.266 .0309283
483.132 .0309311
483.997 .0309344
484.861 .0309402
485.724 .0309507
486.587 .0309641
487.448 .0309742
488.308 .0309813
489.168 .0309831
490.026 .0309811
490.884 .0309709
491.741 .0309551
492.597 .0309345
493.452 .0309099
494.306 .0308822
495.159 .0308530
496.011 .0308248
496.862 .0307963
497.713 .0307670
498.562 .0307363
499.411 .0307039
500.259 .0306686
501.106 .0306330
501.952 .0305978
502.798 .0305611
503.642 .0305231
504.486 .0304798
505.329 .0304296
506.171 .0303701
507.012 .0302997
507.852 .0302183
508.692 .0301266
509.531 .0300269
510.369 .0299147
511.206 .0297954
512.043 .0296708
512.878 .0295426
513.713 .0294105
514.547 .0292754
515.381 .0291356
516.213 .0289915
517.045 .0288451
517.876 .0286926
518.706 .0285366
519.536 .0283859
520.365 .0282386
521.193 .0280951
522.020 .0279603
522.847 .0278323
523.673 .0277075
524.498 .0275864
525.323 .0274664
526.146 .0273401
526.969 .0272080
527.792 .0270621
528.614 .0268978
529.435 .0267253
530.255 .0265463
531.075 .0263607
531.894 .0261819
532.712 .0260160
533.530 .0258571
534.347 .0257099
535.163 .0255748
535.979 .0254520
536.794 .0253412
537.608 .0252411
538.422 .0251566
539.235 .0250932
540.048 .0250543
540.860 .0250442
541.671 .0250615
542.481 .0251044
543.292 .0251565
544.101 .0252161
544.910 .0252705
545.718 .0253191
546.526 .0253571
547.333 .0253913
548.139 .0254303
548.945 .0254757
549.750 .0255225
550.555 .0255760
551.359 .0256398
552.162 .0257101
552.965 .0257849
553.768 .0258632
554.569 .0259410
555.371 .0260221
556.171 .0261008
556.972 .0261775
557.771 .0262513
558.570 .0263246
559.369 .0263917
560.167 .0264541
560.964 .0265129
561.761 .0265697
562.558 .0266296
563.354 .0266966
564.149 .0267666
564.944 .0268390
565.738 .0269118
566.532 .0269811
567.325 .0270446
568.118 .0271000
568.910 .0271475
569.702 .0271924
570.494 .0272378
571.285 .0272868
572.075 .0273414
572.865 .0274052
573.654 .0274744
574.443 .0275489
575.232 .0276230
576.020 .0276929
576.807 .0277591
577.594 .0278206
578.381 .0278789
579.167 .0279344
579.952 .0279912
580.738 .0280494
581.522 .0281096
582.307 .0281722
583.091 .0282344
583.874 .0282966
584.657 .0283560
585.440 .0284116
586.222 .0284621
587.004 .0285084
587.785 .0285498
588.566 .0285874
589.346 .0286224
590.126 .0286542
590.906 .0286827
591.685 .0287072
592.464 .0287279
593.242 .0287443
594.020 .0287570
594.797 .0287665
595.575 .0287729
596.351 .0287788
597.128 .0287837
597.904 .0287884
598.679 .0287934
599.454 .0287977
600.229 .0288007
601.004 .0288021
601.778 .0288014
602.551 .0287985
603.325 .0287934
604.097 .0287875
604.870 .0287810
605.642 .0287740
606.414 .0287664
607.185 .0287583
607.956 .0287497
608.727 .0287403
609.497 .0287291
610.267 .0287166
611.037 .0287031
611.806 .0286882
612.575 .0286723
613.344 .0286555
614.112 .0286385
614.880 .0286216
615.647 .0286044
616.414 .0285883
617.181 .0285729
617.948 .0285586
618.714 .0285454
619.480 .0285341
620.245 .0285241
621.011 .0285143
621.775 .0285051
622.540 .0284961
623.304 .0284870
624.068 .0284784
624.832 .0284702
625.595 .0284632
626.358 .0284577
627.120 .0284537
627.883 .0284496
628.645 .0284462
629.406 .0284420
630.168 .0284358
630.929 .0284274
631.689 .0284172
632.450 .0284046
633.210 .0283900
633.970 .0283749
634.729 .0283586
635.489 .0283412
636.248 .0283243
637.006 .0283065
637.765 .0282888
638.523 .0282701
639.280 .0282508
640.038 .0282303
640.795 .0282096
641.552 .0281884
642.309 .0281669
643.065 .0281463
643.821 .0281274
644.577 .0281089
645.332 .0280919
646.088 .0280766
646.843 .0280628
647.597 .0280502
648.352 .0280389
649.106 .0280278
649.860 .0280169
650.613 .0280052
651.367 .0279935
652.120 .0279805
652.872 .0279672
653.625 .0279533
654.377 .0279392
655.129 .0279258
655.881 .0279129
656.632 .0278997
657.384 .0278868
658.135 .0278739
658.885 .0278600
659.636 .0278444
660.386 .0278275
661.136 .0278093
661.885 .0277895
662.635 .0277690
663.384 .0277485
664.133 .0277286
664.881 .0277097
665.630 .0276918
666.378 .0276750
667.126 .0276594
667.874 .0276440
668.621 .0276290
669.368 .0276140
670.115 .0275991
670.862 .0275835
671.608 .0275679
672.354 .0275530
673.100 .0275389
673.846 .0275257
674.591 .0275139
675.337 .0275033
676.082 .0274936
676.826 .0274839
677.571 .0274742
678.315 .0274643
679.059 .0274543
679.803 .0274434
680.547 .0274316
681.290 .0274189
682.033 .0274050
682.776 .0273897
683.518 .0273739
684.261 .0273583
685.003 .0273427
685.745 .0273275
686.487 .0273131
687.228 .0272990
687.969 .0272851
688.710 .0272705
689.451 .0272552
690.192 .0272393
690.932 .0272224
691.672 .0272046
692.412 .0271868
693.152 .0271700
693.891 .0271538
694.630 .0271394
695.369 .0271264
696.108 .0271136
696.846 .0271009
697.585 .0270874
698.323 .0270728
699.061 .0270576
699.798 .0270413
700.536 .0270241
701.273 .0270072
702.010 .0269911
702.746 .0269754
703.483 .0269612
704.219 .0269485
704.955 .0269364
705.691 .0269242
706.427 .0269116
707.162 .0268976
707.897 .0268832
708.632 .0268681
709.367 .0268523
710.101 .0268367
710.835 .0268213
711.569 .0268060
712.303 .0267914
713.037 .0267771
713.770 .0267633
714.503 .0267491
715.236 .0267351
715.969 .0267208
716.702 .0267064
717.434 .0266917
718.166 .0266776
718.898 .0266647
719.629 .0266530
720.361 .0266424
721.092 .0266333
721.823 .0266252
722.554 .0266178
723.284 .0266106
724.014 .0266022
724.744 .0265926
725.474 .0265820
726.204 .0265696
726.933 .0265560
727.662 .0265415
728.391 .0265263
729.120 .0265102
729.849 .0264944
730.577 .0264785
731.305 .0264620
732.033 .0264457
732.760 .0264290
733.488 .0264120
734.215 .0263948
734.942 .0263772
735.669 .0263595
736.395 .0263425
737.122 .0263259
737.848 .0263097
738.573 .0262942
739.299 .0262795
740.024 .0262651
740.750 .0262511
741.474 .0262374
742.199 .0262236
742.924 .0262093
743.648 .0261949
744.372 .0261804
745.096 .0261665
745.819 .0261529
746.543 .0261397
747.266 .0261276
747.989 .0261164
748.711 .0261061
749.434 .0260966
750.156 .0260881
750.878 .0260806
751.599 .0260742
752.321 .0260685
753.042 .0260639
753.763 .0260602
754.484 .0260578
755.205 .0260556
755.925 .0260533
756.645 .0260499
757.365 .0260452
758.085 .0260390
758.804 .0260309
759.523 .0260206
760.242 .0260085
760.961 .0259949
761.679 .0259804
762.397 .0259643
763.115 .0259474
763.833 .0259295
764.551 .0259106
765.268 .0258901
765.985 .0258684
766.702 .0258453
767.418 .0258216
768.134 .0257975
768.850 .0257736
769.566 .0257502
770.282 .0257280
770.997 .0257070
771.712 .0256872
772.427 .0256684
773.142 .0256504
773.856 .0256325
774.570 .0256152
775.284 .0255977
775.998 .0255800
776.711 .0255623
777.424 .0255449
778.137 .0255277
778.849 .0255108
779.562 .0254946
780.274 .0254793
780.986 .0254649
781.697 .0254514
782.409 .0254389
783.120 .0254273
783.831 .0254165
784.541 .0254063
785.252 .0253965
785.962 .0253874
786.671 .0253784
787.381 .0253695
788.090 .0253604
788.799 .0253507
789.508 .0253399
790.217 .0253281
790.925 .0253152
791.633 .0253011
792.341 .0252857
793.048 .0252693
793.755 .0252519
794.462 .0252334
795.169 .0252138
795.875 .0251935
796.581 .0251724
797.287 .0251506
797.993 .0251288
798.698 .0251078
799.403 .0250882
800.108 .0250702
800.812 .0250543
801.517 .0250405
802.221 .0250288
802.924 .0250185
803.628 .0250091
804.331 .0250004
805.034 .0249921
805.736 .0249832
806.439 .0249739
807.141 .0249643
807.843 .0249547
808.544 .0249453
809.245 .0249360
809.946 .0249267
810.647 .0249174
811.347 .0249079
812.047 .0248980
812.747 .0248875
813.447 .0248765
814.146 .0248648
814.845 .0248533
815.543 .0248422
816.242 .0248315
816.940 .0248214
817.638 .0248120
818.335 .0248033
819.032 .0247947
819.729 .0247861
820.426 .0247770
821.122 .0247676
821.818 .0247576
822.514 .0247466
823.209 .0247350
823.905 .0247232
824.599 .0247107
825.294 .0246976
825.988 .0246840
826.682 .0246700
827.376 .0246556
828.069 .0246412
828.762 .0246271
829.455 .0246134
830.147 .0246003
830.840 .0245879
831.531 .0245763
832.223 .0245660
832.914 .0245560
833.605 .0245463
834.296 .0245370
834.986 .0245278
835.676 .0245186
836.366 .0245097
837.055 .0245009
837.744 .0244923
838.433 .0244838
839.121 .0244755
839.809 .0244672
840.497 .0244593
841.185 .0244515
841.872 .0244435
842.559 .0244359
843.245 .0244284
843.932 .0244211
844.617 .0244147
845.303 .0244090
845.988 .0244038
846.673 .0243992
847.358 .0243949
848.042 .0243908
848.726 .0243869
849.410 .0243828
850.093 .0243784
850.776 .0243737
851.459 .0243686
852.141 .0243631
852.823 .0243576
853.505 .0243524
854.186 .0243473
854.867 .0243422
855.548 .0243369
856.228 .0243311
856.908 .0243251
857.588 .0243187
858.267 .0243121
858.946 .0243059
859.625 .0242999
860.303 .0242945
860.981 .0242898
861.659 .0242861
862.336 .0242830
863.013 .0242799
863.690 .0242766
864.366 .0242727
865.042 .0242680
865.718 .0242632
866.393 .0242582
867.068 .0242536
867.743 .0242495
868.417 .0242456
869.091 .0242418
869.765 .0242379
870.438 .0242332
871.111 .0242276
871.783 .0242211
872.456 .0242133
873.127 .0242042
873.799 .0241943
874.470 .0241843
875.141 .0241746
875.811 .0241655
876.481 .0241574
877.151 .0241502
877.820 .0241440
878.489 .0241386
879.158 .0241334
879.826 .0241293
880.494 .0241254
881.162 .0241216
881.829 .0241183
882.496 .0241151
883.163 .0241123
883.829 .0241100
884.495 .0241084
885.160 .0241076
885.825 .0241072
886.490 .0241071
887.154 .0241069
887.818 .0241064
888.482 .0241050
889.145 .0241021
889.808 .0240986
890.471 .0240940
891.133 .0240886
891.795 .0240830
892.456 .0240774
893.117 .0240719
893.778 .0240664
894.439 .0240606
895.099 .0240548
895.758 .0240485
896.417 .0240415
897.076 .0240337
897.735 .0240256
898.393 .0240178
899.051 .0240099
899.708 .0240019
900.365 .0239943
901.022 .0239866
901.678 .0239790
902.334 .0239708
902.990 .0239627
903.645 .0239547
904.300 .0239474
904.954 .0239407
905.608 .0239345
906.262 .0239295
906.915 .0239254
907.568 .0239217
908.221 .0239183
908.873 .0239144
909.525 .0239097
910.176 .0239043
910.828 .0238981
911.478 .0238914
912.129 .0238844
912.778 .0238775
913.428 .0238708
914.077 .0238639
914.726 .0238563
915.375 .0238479
916.023 .0238388
916.670 .0238287
917.318 .0238168
917.964 .0238037
918.611 .0237893
919.257 .0237742
919.903 .0237590
920.548 .0237436
921.193 .0237288
921.838 .0237154
922.482 .0237030
923.126 .0236918
923.770 .0236816
924.413 .0236726
925.056 .0236642
925.698 .0236565
926.340 .0236487
926.982 .0236409
927.623 .0236334
928.264 .0236262
928.904 .0236186
929.544 .0236115
930.184 .0236043
930.823 .0235967
931.462 .0235886
932.101 .0235797
932.739 .0235693
933.377 .0235575
934.014 .0235435
934.651 .0235276
935.288 .0235098
935.924 .0234907
936.560 .0234706
937.196 .0234504
937.831 .0234306
938.466 .0234112
939.100 .0233925
939.734 .0233747
940.368 .0233572
941.001 .0233397
941.634 .0233221
942.266 .0233044
942.899 .0232864
943.530 .0232684
944.162 .0232503
944.793 .0232325
945.423 .0232148
946.053 .0231969
946.683 .0231787
947.313 .0231603
947.942 .0231409
948.571 .0231203
949.199 .0230981
949.827 .0230749
950.455 .0230506
951.082 .0230256
951.709 .0230001
952.335 .0229750
952.961 .0229506
953.587 .0229270
954.212 .0229043
954.837 .0228826
955.462 .0228611
956.086 .0228400
956.710 .0228186
957.334 .0227969
957.957 .0227751
958.579 .0227535
959.202 .0227326
959.824 .0227127
960.445 .0226942
961.067 .0226774
961.688 .0226621
962.308 .0226483
962.928 .0226351
963.548 .0226214
964.168 .0226071
964.787 .0225914
965.406 .0225745
966.024 .0225569
966.642 .0225389
967.260 .0225217
967.877 .0225062
968.494 .0224923
969.110 .0224803
969.727 .0224695
970.342 .0224600
970.958 .0224508
971.573 .0224417
972.188 .0224326
972.802 .0224241
973.416 .0224166
974.030 .0224104
974.643 .0224056
975.256 .0224025
975.869 .0224006
976.481 .0223995
977.093 .0223993
977.705 .0223990
978.316 .0223983
978.927 .0223970
979.538 .0223949
980.148 .0223922
980.758 .0223888
981.367 .0223845
981.977 .0223793
982.586 .0223730
983.194 .0223654
983.802 .0223562
984.410 .0223462
985.018 .0223355
985.625 .0223244
986.232 .0223133
986.838 .0223026
987.445 .0222921
988.050 .0222823
988.656 .0222726
989.261 .0222629
989.866 .0222531
990.471 .0222430
991.075 .0222330
991.679 .0222233
992.282 .0222139
992.886 .0222055
993.489 .0221980
994.091 .0221915
994.694 .0221856
995.296 .0221797
995.897 .0221738
996.499 .0221669
997.100 .0221595
997.701 .0221512
998.301 .0221423
998.901 .0221337
999.501 .0221254
1000.101 .0221175
1000.700 .0221102
1001.299 .0221029
1001.898 .0220958
1002.496 .0220883
1003.094 .0220804
1003.692 .0220720
1004.289 .0220639
1004.887 .0220567
1005.484 .0220511
1006.080 .0220474
1006.677 .0220461
1007.273 .0220460
1007.868 .0220470
1008.464 .0220483
1009.059 .0220494
1009.654 .0220498
1010.249 .0220493
1010.843 .0220489
1011.437 .0220492
1012.031 .0220503
1012.625 .0220529
1013.218 .0220573
1013.811 .0220632
1014.404 .0220694
1014.997 .0220748
1015.589 .0220785
1016.181 .0220803
1016.773 .0220807
1017.365 .0220801
1017.956 .0220796
1018.547 .0220802
1019.138 .0220824
1019.728 .0220871
1020.319 .0220942
1020.909 .0221027
1021.499 .0221117
1022.088 .0221212
1022.678 .0221298
1023.267 .0221372
1023.856 .0221438
1024.445 .0221502
1025.033 .0221567
1025.621 .0221636
1026.209 .0221702
1026.797 .0221763
1027.385 .0221822
1027.972 .0221875
1028.560 .0221913
1029.147 .0221940
1029.734 .0221954
1030.320 .0221957
1030.907 .0221954
1031.493 .0221954
1032.079 .0221949
1032.665 .0221945
1033.250 .0221941
1033.836 .0221930
1034.421 .0221909
1035.006 .0221888
1035.591 .0221866
1036.176 .0221852
1036.761 .0221851
1037.345 .0221862
1037.929 .0221881
1038.514 .0221917
1039.097 .0221954
1039.681 .0221990
1040.265 .0222017
1040.848 .0222038
1041.432 .0222045
1042.015 .0222049
1042.598 .0222050
1043.181 .0222059
1043.764 .0222078
1044.346 .0222117
1044.929 .0222159
1045.511 .0222212
1046.094 .0222273
1046.676 .0222332
1047.258 .0222389
1047.840 .0222453
1048.422 .0222518
1049.003 .0222588
1049.585 .0222663
1050.166 .0222748
1050.748 .0222840
1051.329 .0222942
1051.910 .0223051
1052.491 .0223163
1053.072 .0223272
1053.653 .0223379
1054.234 .0223466
1054.815 .0223546
1055.396 .0223613
1055.976 .0223663
1056.557 .0223701
1057.138 .0223724
1057.718 .0223743
1058.298 .0223760
1058.879 .0223792
1059.459 .0223838
1060.039 .0223888
1060.620 .0223941
1061.200 .0223985
1061.780 .0224012
1062.360 .0224021
1062.940 .0224019
1063.520 .0224007
1064.101 .0223995
1064.681 .0223984
1065.261 .0223983
1065.841 .0223995
1066.421 .0224025
1067.001 .0224064
1067.581 .0224086
1068.161 .0224101
1068.741 .0224096
1069.321 .0224070
1069.901 .0224037
1070.482 .0223994
1071.062 .0223963
1071.642 .0223939
1072.222 .0223929
1072.803 .0223923
1073.383 .0223929
1073.963 .0223954
1074.544 .0223980
1075.124 .0224005
1075.705 .0224026
1076.286 .0224052
1076.866 .0224083
1077.447 .0224103
1078.028 .0224113
1078.609 .0224114
1079.190 .0224106
1079.771 .0224093
1080.352 .0224080
1080.934 .0224063
1081.515 .0224063
1082.097 .0224083
1082.679 .0224119
1083.260 .0224179
1083.842 .0224266
1084.424 .0224373
1085.007 .0224494
1085.589 .0224620
1086.172 .0224732
1086.754 .0224834
1087.337 .0224927
1087.920 .0224996
1088.503 .0225056
1089.087 .0225101
1089.670 .0225135
1090.254 .0225159
1090.838 .0225195
1091.422 .0225237
1092.006 .0225281
1092.590 .0225328
1093.175 .0225362
1093.760 .0225379
1094.345 .0225385
1094.930 .0225365
1095.516 .0225347
1096.102 .0225329
1096.688 .0225334
1097.274 .0225364
1097.860 .0225417
1098.447 .0225485
1099.034 .0225572
1099.622 .0225651
1100.209 .0225705
1100.797 .0225704
1101.385 .0225655
1101.973 .0225563
1102.562 .0225435
1103.151 .0225268
1103.740 .0225088
1104.330 .0224919
1104.920 .0224763
1105.510 .0224604
1106.101 .0224478
1106.691 .0224357
1107.283 .0224257
1107.874 .0224161
1108.466 .0224076
1109.058 .0224000
1109.651 .0223934
1110.244 .0223881
1110.837 .0223845
1111.431 .0223813
1112.025 .0223793
1112.620 .0223765
1113.215 .0223769
1113.810 .0223779
1114.406 .0223810
1115.002 .0223862
1115.599 .0223920
1116.196 .0223971
1116.793 .0224003
1117.391 .0223999
1117.989 .0223991
1118.588 .0223947
1119.187 .0223890
1119.787 .0223817
1120.387 .0223747
1120.988 .0223690
1121.589 .0223655
1122.190 .0223626
1122.793 .0223629
1123.395 .0223628
1123.998 .0223659
1124.602 .0223696
1125.206 .0223765
1125.811 .0223885
1126.416 .0224047
1127.022 .0224263
1127.628 .0224511
1128.235 .0224792
1128.843 .0225133
1129.451 .0225484
1130.059 .0225885
1130.669 .0226313
1131.278 .0226780
1131.889 .0227272
1132.500 .0227808
1133.112 .0228390
1133.724 .0228989
1134.337 .0229594
1134.950 .0230148
1135.564 .0230692
1136.179 .0231170
1136.795 .0231601
1137.411 .0231999
1138.028 .0232392
1138.645 .0232798
1139.263 .0233232
1139.882 .0233688
1140.502 .0234190
1141.122 .0234710
1141.743 .0235350
1142.365 .0236019
1142.987 .0236140
1143.611 .0236926
1144.235 .0237318
1144.859 .0240348
1145.485 .0241029
