Measurement Sequence started on: 10-20-44-796
Integration time: 35
Scans to Average: 2 
>>>>>Begin Spectral Data<<<<<
432.953 .0263352
433.882 .0385392
434.810 .0378848
435.737 .0339184
436.662 .0338028
437.586 .0339531
438.509 .0338757
439.431 .0334682
440.351 .0331940
441.269 .0331051
442.187 .0330712
443.103 .0330987
444.018 .0331670
444.932 .0332904
445.844 .0334259
446.756 .0335497
447.666 .0336615
448.575 .0337500
449.482 .0338378
450.388 .0339068
451.294 .0339749
452.198 .0340556
453.100 .0341452
454.002 .0342488
454.902 .0343545
455.801 .0344442
456.699 .0345256
457.596 .0345944
458.492 .0346399
459.387 .0346684
460.280 .0346906
461.172 .0346923
462.064 .0346780
462.954 .0346500
463.843 .0346014
464.730 .0345415
465.617 .0344798
466.503 .0344033
467.387 .0343160
468.271 .0342209
469.153 .0341183
470.035 .0340187
470.915 .0339293
471.794 .0338453
472.673 .0337699
473.550 .0337044
474.426 .0336454
475.301 .0335897
476.175 .0335495
477.048 .0335219
477.920 .0335076
478.791 .0335119
479.661 .0335288
480.530 .0335610
481.398 .0336043
482.266 .0336552
483.132 .0337110
483.997 .0337640
484.861 .0338064
485.724 .0338315
486.587 .0338437
487.448 .0338392
488.308 .0338207
489.168 .0337944
490.026 .0337641
490.884 .0337301
491.741 .0336926
492.597 .0336528
493.452 .0336090
494.306 .0335580
495.159 .0334933
496.011 .0334176
496.862 .0333295
497.713 .0332269
498.562 .0331123
499.411 .0329929
500.259 .0328748
501.106 .0327556
501.952 .0326394
502.798 .0325261
503.642 .0324131
504.486 .0322996
505.329 .0321800
506.171 .0320586
507.012 .0319311
507.852 .0317993
508.692 .0316642
509.531 .0315343
510.369 .0314088
511.206 .0312947
512.043 .0311913
512.878 .0311023
513.713 .0310174
514.547 .0309376
515.381 .0308605
516.213 .0307836
517.045 .0307041
517.876 .0306238
518.706 .0305402
519.536 .0304602
520.365 .0303746
521.193 .0302908
522.020 .0301967
522.847 .0301020
523.673 .0299899
524.498 .0298687
525.323 .0297326
526.146 .0295867
526.969 .0294320
527.792 .0292766
528.614 .0291262
529.435 .0289970
530.255 .0288893
531.075 .0287999
531.894 .0287289
532.712 .0286737
533.530 .0286081
534.347 .0285326
535.163 .0284429
535.979 .0283386
536.794 .0282131
537.608 .0280810
538.422 .0279461
539.235 .0278252
540.048 .0277278
540.860 .0276417
541.671 .0275782
542.481 .0275345
543.292 .0274941
544.101 .0274514
544.910 .0274139
545.718 .0273809
546.526 .0273491
547.333 .0273333
548.139 .0273350
548.945 .0273581
549.750 .0274072
550.555 .0274799
551.359 .0275739
552.162 .0276877
552.965 .0278065
553.768 .0279233
554.569 .0280441
555.371 .0281584
556.171 .0282617
556.972 .0283594
557.771 .0284504
558.570 .0285302
559.369 .0285961
560.167 .0286520
560.964 .0286988
561.761 .0287396
562.558 .0287760
563.354 .0288127
564.149 .0288517
564.944 .0288960
565.738 .0289500
566.532 .0290163
567.325 .0290880
568.118 .0291622
568.910 .0292391
569.702 .0293159
570.494 .0293938
571.285 .0294747
572.075 .0295527
572.865 .0296376
573.654 .0297280
574.443 .0298181
575.232 .0299097
576.020 .0300024
576.807 .0300915
577.594 .0301722
578.381 .0302444
579.167 .0303031
579.952 .0303502
580.738 .0303927
581.522 .0304261
582.307 .0304552
583.091 .0304842
583.874 .0305103
584.657 .0305332
585.440 .0305537
586.222 .0305689
587.004 .0305769
587.785 .0305829
588.566 .0305849
589.346 .0305839
590.126 .0305836
590.906 .0305839
591.685 .0305864
592.464 .0305919
593.242 .0305990
594.020 .0306046
594.797 .0306112
595.575 .0306157
596.351 .0306172
597.128 .0306178
597.904 .0306177
598.679 .0306175
599.454 .0306164
600.229 .0306154
601.004 .0306128
601.778 .0306096
602.551 .0306049
603.325 .0305976
604.097 .0305907
604.870 .0305825
605.642 .0305731
606.414 .0305633
607.185 .0305538
607.956 .0305442
608.727 .0305340
609.497 .0305221
610.267 .0305078
611.037 .0304915
611.806 .0304735
612.575 .0304540
613.344 .0304345
614.112 .0304156
614.880 .0303975
615.647 .0303805
616.414 .0303645
617.181 .0303480
617.948 .0303318
618.714 .0303149
619.480 .0302965
620.245 .0302766
621.011 .0302563
621.775 .0302358
622.540 .0302163
623.304 .0301975
624.068 .0301796
624.832 .0301628
625.595 .0301467
626.358 .0301302
627.120 .0301126
627.883 .0300930
628.645 .0300718
629.406 .0300486
630.168 .0300243
630.929 .0299990
631.689 .0299739
632.450 .0299494
633.210 .0299260
633.970 .0299032
634.729 .0298810
635.489 .0298589
636.248 .0298371
637.006 .0298151
637.765 .0297930
638.523 .0297717
639.280 .0297510
640.038 .0297319
640.795 .0297148
641.552 .0296992
642.309 .0296852
643.065 .0296719
643.821 .0296589
644.577 .0296451
645.332 .0296310
646.088 .0296165
646.843 .0296017
647.597 .0295872
648.352 .0295730
649.106 .0295590
649.860 .0295451
650.613 .0295310
651.367 .0295165
652.120 .0295012
652.872 .0294846
653.625 .0294671
654.377 .0294494
655.129 .0294318
655.881 .0294147
656.632 .0293982
657.384 .0293827
658.135 .0293676
658.885 .0293518
659.636 .0293347
660.386 .0293166
661.136 .0292975
661.885 .0292770
662.635 .0292563
663.384 .0292361
664.133 .0292164
664.881 .0291980
665.630 .0291814
666.378 .0291666
667.126 .0291528
667.874 .0291390
668.621 .0291235
669.368 .0291074
670.115 .0290905
670.862 .0290723
671.608 .0290544
672.354 .0290374
673.100 .0290214
673.846 .0290074
674.591 .0289954
675.337 .0289852
676.082 .0289753
676.826 .0289664
677.571 .0289565
678.315 .0289456
679.059 .0289335
679.803 .0289208
680.547 .0289088
681.290 .0288973
682.033 .0288855
682.776 .0288737
683.518 .0288620
684.261 .0288498
685.003 .0288365
685.745 .0288219
686.487 .0288064
687.228 .0287906
687.969 .0287740
688.710 .0287577
689.451 .0287413
690.192 .0287254
690.932 .0287098
691.672 .0286936
692.412 .0286773
693.152 .0286595
693.891 .0286420
694.630 .0286237
695.369 .0286054
696.108 .0285873
696.846 .0285691
697.585 .0285511
698.323 .0285333
699.061 .0285148
699.798 .0284954
700.536 .0284752
701.273 .0284549
702.010 .0284341
702.746 .0284136
703.483 .0283935
704.219 .0283746
704.955 .0283561
705.691 .0283385
706.427 .0283207
707.162 .0283034
707.897 .0282859
708.632 .0282679
709.367 .0282500
710.101 .0282323
710.835 .0282151
711.569 .0281985
712.303 .0281824
713.037 .0281674
713.770 .0281524
714.503 .0281373
715.236 .0281221
715.969 .0281067
716.702 .0280909
717.434 .0280749
718.166 .0280589
718.898 .0280432
719.629 .0280278
720.361 .0280132
721.092 .0279990
721.823 .0279850
722.554 .0279708
723.284 .0279562
724.014 .0279410
724.744 .0279247
725.474 .0279067
726.204 .0278879
726.933 .0278677
727.662 .0278455
728.391 .0278212
729.120 .0277953
729.849 .0277685
730.577 .0277410
731.305 .0277135
732.033 .0276870
732.760 .0276615
733.488 .0276379
734.215 .0276159
734.942 .0275952
735.669 .0275762
736.395 .0275581
737.122 .0275411
737.848 .0275252
738.573 .0275101
739.299 .0274968
740.024 .0274855
740.750 .0274767
741.474 .0274692
742.199 .0274623
742.924 .0274557
743.648 .0274483
744.372 .0274402
745.096 .0274312
745.819 .0274211
746.543 .0274107
747.266 .0274002
747.989 .0273898
748.711 .0273803
749.434 .0273719
750.156 .0273647
750.878 .0273579
751.599 .0273514
752.321 .0273452
753.042 .0273391
753.763 .0273341
754.484 .0273300
755.205 .0273270
755.925 .0273251
756.645 .0273232
757.365 .0273211
758.085 .0273183
758.804 .0273143
759.523 .0273077
760.242 .0272987
760.961 .0272868
761.679 .0272724
762.397 .0272558
763.115 .0272372
763.833 .0272171
764.551 .0271962
765.268 .0271744
765.985 .0271509
766.702 .0271271
767.418 .0271035
768.134 .0270795
768.850 .0270566
769.566 .0270347
770.282 .0270148
770.997 .0269968
771.712 .0269811
772.427 .0269665
773.142 .0269531
773.856 .0269402
774.570 .0269261
775.284 .0269113
775.998 .0268960
776.711 .0268803
777.424 .0268643
778.137 .0268496
778.849 .0268358
779.562 .0268221
780.274 .0268096
780.986 .0267967
781.697 .0267830
782.409 .0267677
783.120 .0267512
783.831 .0267341
784.541 .0267171
785.252 .0267015
785.962 .0266873
786.671 .0266760
787.381 .0266674
788.090 .0266595
788.799 .0266522
789.508 .0266446
790.217 .0266348
790.925 .0266220
791.633 .0266069
792.341 .0265901
793.048 .0265721
793.755 .0265537
794.462 .0265357
795.169 .0265182
795.875 .0265015
796.581 .0264853
797.287 .0264684
797.993 .0264512
798.698 .0264339
799.403 .0264161
800.108 .0263994
800.812 .0263847
801.517 .0263726
802.221 .0263639
802.924 .0263588
803.628 .0263563
804.331 .0263554
805.034 .0263558
805.736 .0263561
806.439 .0263551
807.141 .0263529
807.843 .0263488
808.544 .0263430
809.245 .0263356
809.946 .0263266
810.647 .0263162
811.347 .0263046
812.047 .0262914
812.747 .0262761
813.447 .0262590
814.146 .0262402
814.845 .0262203
815.543 .0261998
816.242 .0261799
816.940 .0261601
817.638 .0261419
818.335 .0261252
819.032 .0261098
819.729 .0260964
820.426 .0260846
821.122 .0260744
821.818 .0260652
822.514 .0260566
823.209 .0260484
823.905 .0260404
824.599 .0260321
825.294 .0260231
825.988 .0260129
826.682 .0260015
827.376 .0259878
828.069 .0259717
828.762 .0259537
829.455 .0259334
830.147 .0259116
830.840 .0258890
831.531 .0258658
832.223 .0258430
832.914 .0258208
833.605 .0257998
834.296 .0257803
834.986 .0257619
835.676 .0257445
836.366 .0257279
837.055 .0257119
837.744 .0256968
838.433 .0256825
839.121 .0256700
839.809 .0256591
840.497 .0256505
841.185 .0256440
841.872 .0256396
842.559 .0256371
843.245 .0256353
843.932 .0256345
844.617 .0256340
845.303 .0256327
845.988 .0256303
846.673 .0256268
847.358 .0256225
848.042 .0256173
848.726 .0256110
849.410 .0256040
850.093 .0255963
850.776 .0255881
851.459 .0255787
852.141 .0255684
852.823 .0255574
853.505 .0255454
854.186 .0255320
854.867 .0255179
855.548 .0255025
856.228 .0254866
856.908 .0254706
857.588 .0254552
858.267 .0254405
858.946 .0254271
859.625 .0254149
860.303 .0254049
860.981 .0253965
861.659 .0253896
862.336 .0253835
863.013 .0253784
863.690 .0253735
864.366 .0253680
865.042 .0253618
865.718 .0253556
866.393 .0253495
867.068 .0253437
867.743 .0253382
868.417 .0253338
869.091 .0253301
869.765 .0253273
870.438 .0253239
871.111 .0253200
871.783 .0253148
872.456 .0253077
873.127 .0252984
873.799 .0252876
874.470 .0252761
875.141 .0252641
875.811 .0252530
876.481 .0252430
877.151 .0252336
877.820 .0252251
878.489 .0252167
879.158 .0252083
879.826 .0251996
880.494 .0251900
881.162 .0251799
881.829 .0251697
882.496 .0251594
883.163 .0251492
883.829 .0251397
884.495 .0251310
885.160 .0251235
885.825 .0251164
886.490 .0251096
887.154 .0251038
887.818 .0250981
888.482 .0250925
889.145 .0250867
889.808 .0250816
890.471 .0250765
891.133 .0250720
891.795 .0250680
892.456 .0250642
893.117 .0250608
893.778 .0250586
894.439 .0250564
895.099 .0250549
895.758 .0250538
896.417 .0250528
897.076 .0250518
897.735 .0250514
898.393 .0250501
899.051 .0250486
899.708 .0250465
900.365 .0250440
901.022 .0250401
901.678 .0250357
902.334 .0250309
902.990 .0250259
903.645 .0250206
904.300 .0250156
904.954 .0250097
905.608 .0250042
906.262 .0249983
906.915 .0249928
907.568 .0249871
908.221 .0249826
908.873 .0249786
909.525 .0249758
910.176 .0249742
910.828 .0249741
911.478 .0249746
912.129 .0249763
912.778 .0249779
913.428 .0249786
914.077 .0249781
914.726 .0249766
915.375 .0249737
916.023 .0249701
916.670 .0249656
917.318 .0249601
917.964 .0249529
918.611 .0249442
919.257 .0249331
919.903 .0249202
920.548 .0249056
921.193 .0248894
921.838 .0248722
922.482 .0248554
923.126 .0248387
923.770 .0248229
924.413 .0248078
925.056 .0247934
925.698 .0247795
926.340 .0247655
926.982 .0247516
927.623 .0247384
928.264 .0247259
928.904 .0247151
929.544 .0247053
930.184 .0246973
930.823 .0246902
931.462 .0246837
932.101 .0246776
932.739 .0246713
933.377 .0246642
934.014 .0246566
934.651 .0246480
935.288 .0246392
935.924 .0246304
936.560 .0246222
937.196 .0246149
937.831 .0246085
938.466 .0246027
939.100 .0245973
939.734 .0245915
940.368 .0245862
941.001 .0245803
941.634 .0245738
942.266 .0245668
942.899 .0245592
943.530 .0245514
944.162 .0245437
944.793 .0245355
945.423 .0245275
946.053 .0245183
946.683 .0245087
947.313 .0244979
947.942 .0244856
948.571 .0244725
949.199 .0244581
949.827 .0244423
950.455 .0244258
951.082 .0244085
951.709 .0243912
952.335 .0243734
952.961 .0243557
953.587 .0243373
954.212 .0243181
954.837 .0242983
955.462 .0242778
956.086 .0242567
956.710 .0242363
957.334 .0242156
957.957 .0241950
958.579 .0241752
959.202 .0241555
959.824 .0241362
960.445 .0241178
961.067 .0241000
961.688 .0240826
962.308 .0240661
962.928 .0240512
963.548 .0240375
964.168 .0240259
964.787 .0240153
965.406 .0240058
966.024 .0239971
966.642 .0239884
967.260 .0239797
967.877 .0239710
968.494 .0239625
969.110 .0239537
969.727 .0239450
970.342 .0239363
970.958 .0239281
971.573 .0239204
972.188 .0239128
972.802 .0239050
973.416 .0238971
974.030 .0238880
974.643 .0238786
975.256 .0238689
975.869 .0238588
976.481 .0238485
977.093 .0238391
977.705 .0238304
978.316 .0238232
978.927 .0238183
979.538 .0238156
980.148 .0238138
980.758 .0238128
981.367 .0238113
981.977 .0238090
982.586 .0238058
983.194 .0238016
983.802 .0237961
984.410 .0237908
985.018 .0237856
985.625 .0237807
986.232 .0237766
986.838 .0237740
987.445 .0237715
988.050 .0237691
988.656 .0237661
989.261 .0237613
989.866 .0237547
990.471 .0237470
991.075 .0237390
991.679 .0237304
992.282 .0237220
992.886 .0237146
993.489 .0237089
994.091 .0237044
994.694 .0237003
995.296 .0236967
995.897 .0236939
996.499 .0236910
997.100 .0236869
997.701 .0236823
998.301 .0236777
998.901 .0236729
999.501 .0236687
1000.101 .0236650
1000.700 .0236622
1001.299 .0236597
1001.898 .0236579
1002.496 .0236558
1003.094 .0236532
1003.692 .0236496
1004.289 .0236453
1004.887 .0236411
1005.484 .0236366
1006.080 .0236319
1006.677 .0236282
1007.273 .0236261
1007.868 .0236261
1008.464 .0236272
1009.059 .0236297
1009.654 .0236324
1010.249 .0236347
1010.843 .0236358
1011.437 .0236359
1012.031 .0236345
1012.625 .0236322
1013.218 .0236293
1013.811 .0236261
1014.404 .0236220
1014.997 .0236173
1015.589 .0236119
1016.181 .0236052
1016.773 .0235970
1017.365 .0235864
1017.956 .0235732
1018.547 .0235587
1019.138 .0235436
1019.728 .0235285
1020.319 .0235150
1020.909 .0235045
1021.499 .0234965
1022.088 .0234911
1022.678 .0234879
1023.267 .0234852
1023.856 .0234823
1024.445 .0234796
1025.033 .0234753
1025.621 .0234694
1026.209 .0234626
1026.797 .0234555
1027.385 .0234484
1027.972 .0234435
1028.560 .0234393
1029.147 .0234357
1029.734 .0234338
1030.320 .0234328
1030.907 .0234316
1031.493 .0234318
1032.079 .0234327
1032.665 .0234348
1033.250 .0234385
1033.836 .0234439
1034.421 .0234497
1035.006 .0234575
1035.591 .0234666
1036.176 .0234747
1036.761 .0234809
1037.345 .0234851
1037.929 .0234854
1038.514 .0234836
1039.097 .0234799
1039.681 .0234743
1040.265 .0234677
1040.848 .0234614
1041.432 .0234551
1042.015 .0234495
1042.598 .0234446
1043.181 .0234409
1043.764 .0234368
1044.346 .0234342
1044.929 .0234317
1045.511 .0234296
1046.094 .0234285
1046.676 .0234293
1047.258 .0234303
1047.840 .0234310
1048.422 .0234308
1049.003 .0234295
1049.585 .0234260
1050.166 .0234208
1050.748 .0234124
1051.329 .0234020
1051.910 .0233903
1052.491 .0233781
1053.072 .0233651
1053.653 .0233551
1054.234 .0233469
1054.815 .0233395
1055.396 .0233333
1055.976 .0233285
1056.557 .0233238
1057.138 .0233205
1057.718 .0233183
1058.298 .0233167
1058.879 .0233150
1059.459 .0233128
1060.039 .0233095
1060.620 .0233039
1061.200 .0232960
1061.780 .0232844
1062.360 .0232688
1062.940 .0232507
1063.520 .0232294
1064.101 .0232065
1064.681 .0231841
1065.261 .0231630
1065.841 .0231430
1066.421 .0231237
1067.001 .0231063
1067.581 .0230903
1068.161 .0230762
1068.741 .0230635
1069.321 .0230536
1069.901 .0230465
1070.482 .0230425
1071.062 .0230391
1071.642 .0230353
1072.222 .0230304
1072.803 .0230218
1073.383 .0230099
1073.963 .0229952
1074.544 .0229796
1075.124 .0229658
1075.705 .0229562
1076.286 .0229529
1076.866 .0229542
1077.447 .0229603
1078.028 .0229687
1078.609 .0229796
1079.190 .0229894
1079.771 .0229979
1080.352 .0230078
1080.934 .0230195
1081.515 .0230366
1082.097 .0230583
1082.679 .0230857
1083.260 .0231164
1083.842 .0231466
1084.424 .0231734
1085.007 .0231916
1085.589 .0232010
1086.172 .0232003
1086.754 .0231910
1087.337 .0231764
1087.920 .0231582
1088.503 .0231406
1089.087 .0231268
1089.670 .0231172
1090.254 .0231084
1090.838 .0231013
1091.422 .0230933
1092.006 .0230852
1092.590 .0230774
1093.175 .0230704
1093.760 .0230672
1094.345 .0230674
1094.930 .0230709
1095.516 .0230776
1096.102 .0230839
1096.688 .0230918
1097.274 .0230981
1097.860 .0231036
1098.447 .0231069
1099.034 .0231095
1099.622 .0231121
1100.209 .0231175
1100.797 .0231240
1101.385 .0231320
1101.973 .0231405
1102.562 .0231483
1103.151 .0231523
1103.740 .0231514
1104.330 .0231476
1104.920 .0231421
1105.510 .0231346
1106.101 .0231319
1106.691 .0231321
1107.283 .0231380
1107.874 .0231474
1108.466 .0231575
1109.058 .0231686
1109.651 .0231754
1110.244 .0231779
1110.837 .0231758
1111.431 .0231708
1112.025 .0231677
1112.620 .0231681
1113.215 .0231754
1113.810 .0231891
1114.406 .0232093
1115.002 .0232321
1115.599 .0232514
1116.196 .0232673
1116.793 .0232741
1117.391 .0232721
1117.989 .0232615
1118.588 .0232435
1119.187 .0232170
1119.787 .0231892
1120.387 .0231596
1120.988 .0231294
1121.589 .0231023
1122.190 .0230747
1122.793 .0230447
1123.395 .0230171
1123.998 .0229947
1124.602 .0229736
1125.206 .0229576
1125.811 .0229524
1126.416 .0229501
1127.022 .0229559
1127.628 .0229679
1128.235 .0229872
1128.843 .0230183
1129.451 .0230564
1130.059 .0230999
1130.669 .0231471
1131.278 .0232031
1131.889 .0232593
1132.500 .0233125
1133.112 .0233705
1133.724 .0234232
1134.337 .0234700
1134.950 .0235159
1135.564 .0235596
1136.179 .0236041
1136.795 .0236549
1137.411 .0237122
1138.028 .0237752
1138.645 .0238443
1139.263 .0239244
1139.882 .0240081
1140.502 .0241042
1141.122 .0241981
1141.743 .0242851
1142.365 .0243781
1142.987 .0245086
1143.611 .0247250
1144.235 .0245360
1144.859 .0245331
1145.485 .0249260
