Measurement Sequence started on: 10-20-44-796
Integration time: 35
Scans to Average: 2 
>>>>>Begin Spectral Data<<<<<
432.953 .0698681
433.882 .0379945
434.810 .0388516
435.737 .0404076
436.662 .0395330
437.586 .0397364
438.509 .0383256
439.431 .0380017
440.351 .0376551
441.269 .0373265
442.187 .0370722
443.103 .0368650
444.018 .0367360
444.932 .0366363
445.844 .0365248
446.756 .0364180
447.666 .0363021
448.575 .0361904
449.482 .0360828
450.388 .0359835
451.294 .0358977
452.198 .0358431
453.100 .0358053
454.002 .0357793
454.902 .0357658
455.801 .0357551
456.699 .0357355
457.596 .0357105
458.492 .0356825
459.387 .0356462
460.280 .0356138
461.172 .0355802
462.064 .0355595
462.954 .0355417
463.843 .0355278
464.730 .0355221
465.617 .0355183
466.503 .0355060
467.387 .0354829
468.271 .0354485
469.153 .0354088
470.035 .0353653
470.915 .0353315
471.794 .0352952
472.673 .0352682
473.550 .0352421
474.426 .0352165
475.301 .0351930
476.175 .0351732
477.048 .0351507
477.920 .0351340
478.791 .0351215
479.661 .0351137
480.530 .0351151
481.398 .0351280
482.266 .0351446
483.132 .0351680
483.997 .0351912
484.861 .0352064
485.724 .0352143
486.587 .0352243
487.448 .0352293
488.308 .0352350
489.168 .0352411
490.026 .0352406
490.884 .0352356
491.741 .0352252
492.597 .0352039
493.452 .0351746
494.306 .0351376
495.159 .0350878
496.011 .0350309
496.862 .0349699
497.713 .0349041
498.562 .0348389
499.411 .0347758
500.259 .0347134
501.106 .0346505
501.952 .0345900
502.798 .0345283
503.642 .0344693
504.486 .0344111
505.329 .0343497
506.171 .0342819
507.012 .0342062
507.852 .0341183
508.692 .0340204
509.531 .0339111
510.369 .0337911
511.206 .0336673
512.043 .0335407
512.878 .0334022
513.713 .0332601
514.547 .0331067
515.381 .0329431
516.213 .0327643
517.045 .0325712
517.876 .0323611
518.706 .0321489
519.536 .0319391
520.365 .0317354
521.193 .0315462
522.020 .0313741
522.847 .0312091
523.673 .0310552
524.498 .0309064
525.323 .0307571
526.146 .0306055
526.969 .0304665
527.792 .0303342
528.614 .0302099
529.435 .0300940
530.255 .0299929
531.075 .0298958
531.894 .0298192
532.712 .0297451
533.530 .0296680
534.347 .0295966
535.163 .0295290
535.979 .0294644
536.794 .0294072
537.608 .0293622
538.422 .0293240
539.235 .0292901
540.048 .0292686
540.860 .0292355
541.671 .0292070
542.481 .0291818
543.292 .0291544
544.101 .0291205
544.910 .0290940
545.718 .0290687
546.526 .0290535
547.333 .0290515
548.139 .0290564
548.945 .0290681
549.750 .0290883
550.555 .0291150
551.359 .0291465
552.162 .0291809
552.965 .0292242
553.768 .0292572
554.569 .0292993
555.371 .0293372
556.171 .0293751
556.972 .0294134
557.771 .0294520
558.570 .0294945
559.369 .0295357
560.167 .0295796
560.964 .0296236
561.761 .0296721
562.558 .0297266
563.354 .0297857
564.149 .0298494
564.944 .0299178
565.738 .0299925
566.532 .0300714
567.325 .0301536
568.118 .0302377
568.910 .0303187
569.702 .0303969
570.494 .0304717
571.285 .0305461
572.075 .0306137
572.865 .0306809
573.654 .0307446
574.443 .0308063
575.232 .0308659
576.020 .0309260
576.807 .0309880
577.594 .0310527
578.381 .0311198
579.167 .0311866
579.952 .0312543
580.738 .0313264
581.522 .0313985
582.307 .0314733
583.091 .0315494
583.874 .0316261
584.657 .0316998
585.440 .0317687
586.222 .0318317
587.004 .0318862
587.785 .0319320
588.566 .0319692
589.346 .0319956
590.126 .0320133
590.906 .0320227
591.685 .0320257
592.464 .0320232
593.242 .0320139
594.020 .0319998
594.797 .0319808
595.575 .0319583
596.351 .0319337
597.128 .0319069
597.904 .0318807
598.679 .0318570
599.454 .0318337
600.229 .0318117
601.004 .0317913
601.778 .0317717
602.551 .0317527
603.325 .0317342
604.097 .0317166
604.870 .0316997
605.642 .0316842
606.414 .0316720
607.185 .0316616
607.956 .0316549
608.727 .0316503
609.497 .0316472
610.267 .0316452
611.037 .0316418
611.806 .0316365
612.575 .0316283
613.344 .0316175
614.112 .0316047
614.880 .0315893
615.647 .0315729
616.414 .0315561
617.181 .0315390
617.948 .0315203
618.714 .0315011
619.480 .0314803
620.245 .0314573
621.011 .0314314
621.775 .0314032
622.540 .0313732
623.304 .0313425
624.068 .0313124
624.832 .0312825
625.595 .0312548
626.358 .0312296
627.120 .0312060
627.883 .0311845
628.645 .0311649
629.406 .0311468
630.168 .0311294
630.929 .0311130
631.689 .0310967
632.450 .0310789
633.210 .0310606
633.970 .0310406
634.729 .0310182
635.489 .0309935
636.248 .0309670
637.006 .0309397
637.765 .0309129
638.523 .0308873
639.280 .0308636
640.038 .0308426
640.795 .0308239
641.552 .0308054
642.309 .0307871
643.065 .0307683
643.821 .0307482
644.577 .0307264
645.332 .0307036
646.088 .0306802
646.843 .0306568
647.597 .0306344
648.352 .0306122
649.106 .0305904
649.860 .0305682
650.613 .0305447
651.367 .0305193
652.120 .0304925
652.872 .0304641
653.625 .0304350
654.377 .0304059
655.129 .0303774
655.881 .0303500
656.632 .0303244
657.384 .0303001
658.135 .0302772
658.885 .0302552
659.636 .0302345
660.386 .0302146
661.136 .0301966
661.885 .0301802
662.635 .0301656
663.384 .0301525
664.133 .0301403
664.881 .0301272
665.630 .0301130
666.378 .0300965
667.126 .0300780
667.874 .0300572
668.621 .0300349
669.368 .0300121
670.115 .0299893
670.862 .0299674
671.608 .0299471
672.354 .0299287
673.100 .0299121
673.846 .0298966
674.591 .0298818
675.337 .0298676
676.082 .0298544
676.826 .0298421
677.571 .0298309
678.315 .0298211
679.059 .0298124
679.803 .0298055
680.547 .0297998
681.290 .0297950
682.033 .0297898
682.776 .0297845
683.518 .0297787
684.261 .0297713
685.003 .0297624
685.745 .0297520
686.487 .0297414
687.228 .0297306
687.969 .0297192
688.710 .0297080
689.451 .0296977
690.192 .0296880
690.932 .0296777
691.672 .0296672
692.412 .0296562
693.152 .0296440
693.891 .0296308
694.630 .0296168
695.369 .0296024
696.108 .0295876
696.846 .0295729
697.585 .0295577
698.323 .0295428
699.061 .0295275
699.798 .0295115
700.536 .0294946
701.273 .0294771
702.010 .0294579
702.746 .0294382
703.483 .0294185
704.219 .0293986
704.955 .0293786
705.691 .0293592
706.427 .0293396
707.162 .0293204
707.897 .0293019
708.632 .0292842
709.367 .0292670
710.101 .0292508
710.835 .0292355
711.569 .0292201
712.303 .0292048
713.037 .0291899
713.770 .0291743
714.503 .0291578
715.236 .0291401
715.969 .0291209
716.702 .0291016
717.434 .0290824
718.166 .0290630
718.898 .0290433
719.629 .0290243
720.361 .0290047
721.092 .0289842
721.823 .0289629
722.554 .0289406
723.284 .0289168
724.014 .0288916
724.744 .0288649
725.474 .0288369
726.204 .0288081
726.933 .0287799
727.662 .0287518
728.391 .0287243
729.120 .0286971
729.849 .0286701
730.577 .0286435
731.305 .0286173
732.033 .0285908
732.760 .0285642
733.488 .0285373
734.215 .0285103
734.942 .0284835
735.669 .0284569
736.395 .0284315
737.122 .0284074
737.848 .0283843
738.573 .0283624
739.299 .0283412
740.024 .0283208
740.750 .0283005
741.474 .0282801
742.199 .0282594
742.924 .0282374
743.648 .0282152
744.372 .0281926
745.096 .0281702
745.819 .0281488
746.543 .0281283
747.266 .0281091
747.989 .0280918
748.711 .0280759
749.434 .0280613
750.156 .0280483
750.878 .0280363
751.599 .0280254
752.321 .0280154
753.042 .0280069
753.763 .0279999
754.484 .0279948
755.205 .0279923
755.925 .0279919
756.645 .0279933
757.365 .0279958
758.085 .0279979
758.804 .0279996
759.523 .0279986
760.242 .0279943
760.961 .0279868
761.679 .0279761
762.397 .0279623
763.115 .0279461
763.833 .0279277
764.551 .0279082
765.268 .0278878
765.985 .0278660
766.702 .0278434
767.418 .0278202
768.134 .0277965
768.850 .0277722
769.566 .0277486
770.282 .0277258
770.997 .0277037
771.712 .0276834
772.427 .0276647
773.142 .0276473
773.856 .0276318
774.570 .0276184
775.284 .0276069
775.998 .0275974
776.711 .0275893
777.424 .0275824
778.137 .0275767
778.849 .0275707
779.562 .0275643
780.274 .0275572
780.986 .0275500
781.697 .0275422
782.409 .0275344
783.120 .0275281
783.831 .0275234
784.541 .0275202
785.252 .0275181
785.962 .0275160
786.671 .0275130
787.381 .0275081
788.090 .0275008
788.799 .0274910
789.508 .0274789
790.217 .0274656
790.925 .0274520
791.633 .0274385
792.341 .0274255
793.048 .0274127
793.755 .0273999
794.462 .0273873
795.169 .0273736
795.875 .0273598
796.581 .0273462
797.287 .0273340
797.993 .0273228
798.698 .0273135
799.403 .0273068
800.108 .0273023
800.812 .0272993
801.517 .0272975
802.221 .0272954
802.924 .0272934
803.628 .0272912
804.331 .0272885
805.034 .0272851
805.736 .0272818
806.439 .0272779
807.141 .0272733
807.843 .0272679
808.544 .0272614
809.245 .0272527
809.946 .0272426
810.647 .0272303
811.347 .0272157
812.047 .0271996
812.747 .0271826
813.447 .0271649
814.146 .0271478
814.845 .0271315
815.543 .0271159
816.242 .0271015
816.940 .0270883
817.638 .0270750
818.335 .0270615
819.032 .0270478
819.729 .0270338
820.426 .0270190
821.122 .0270045
821.818 .0269898
822.514 .0269752
823.209 .0269614
823.905 .0269481
824.599 .0269347
825.294 .0269210
825.988 .0269064
826.682 .0268903
827.376 .0268722
828.069 .0268528
828.762 .0268319
829.455 .0268105
830.147 .0267897
830.840 .0267690
831.531 .0267488
832.223 .0267303
832.914 .0267125
833.605 .0266950
834.296 .0266785
834.986 .0266621
835.676 .0266452
836.366 .0266286
837.055 .0266120
837.744 .0265956
838.433 .0265788
839.121 .0265623
839.809 .0265452
840.497 .0265280
841.185 .0265103
841.872 .0264915
842.559 .0264726
843.245 .0264532
843.932 .0264331
844.617 .0264126
845.303 .0263921
845.988 .0263716
846.673 .0263507
847.358 .0263301
848.042 .0263097
848.726 .0262896
849.410 .0262702
850.093 .0262519
850.776 .0262350
851.459 .0262190
852.141 .0262038
852.823 .0261893
853.505 .0261751
854.186 .0261602
854.867 .0261441
855.548 .0261263
856.228 .0261068
856.908 .0260858
857.588 .0260635
858.267 .0260404
858.946 .0260173
859.625 .0259947
860.303 .0259721
860.981 .0259499
861.659 .0259284
862.336 .0259073
863.013 .0258865
863.690 .0258659
864.366 .0258457
865.042 .0258260
865.718 .0258073
866.393 .0257902
867.068 .0257742
867.743 .0257601
868.417 .0257476
869.091 .0257359
869.765 .0257255
870.438 .0257157
871.111 .0257056
871.783 .0256954
872.456 .0256849
873.127 .0256737
873.799 .0256619
874.470 .0256503
875.141 .0256387
875.811 .0256274
876.481 .0256162
877.151 .0256051
877.820 .0255942
878.489 .0255838
879.158 .0255728
879.826 .0255618
880.494 .0255513
881.162 .0255408
881.829 .0255308
882.496 .0255216
883.163 .0255132
883.829 .0255059
884.495 .0254987
885.160 .0254918
885.825 .0254853
886.490 .0254794
887.154 .0254736
887.818 .0254679
888.482 .0254627
889.145 .0254573
889.808 .0254525
890.471 .0254479
891.133 .0254437
891.795 .0254395
892.456 .0254354
893.117 .0254313
893.778 .0254275
894.439 .0254240
895.099 .0254205
895.758 .0254168
896.417 .0254127
897.076 .0254077
897.735 .0254018
898.393 .0253956
899.051 .0253897
899.708 .0253838
900.365 .0253789
901.022 .0253748
901.678 .0253717
902.334 .0253699
902.990 .0253696
903.645 .0253698
904.300 .0253704
904.954 .0253709
905.608 .0253709
906.262 .0253707
906.915 .0253708
907.568 .0253712
908.221 .0253722
908.873 .0253741
909.525 .0253764
910.176 .0253791
910.828 .0253822
911.478 .0253852
912.129 .0253879
912.778 .0253896
913.428 .0253899
914.077 .0253884
914.726 .0253858
915.375 .0253826
916.023 .0253789
916.670 .0253750
917.318 .0253712
917.964 .0253674
918.611 .0253632
919.257 .0253583
919.903 .0253529
920.548 .0253466
921.193 .0253392
921.838 .0253311
922.482 .0253227
923.126 .0253146
923.770 .0253069
924.413 .0253003
925.056 .0252955
925.698 .0252917
926.340 .0252890
926.982 .0252861
927.623 .0252830
928.264 .0252794
928.904 .0252746
929.544 .0252694
930.184 .0252636
930.823 .0252580
931.462 .0252523
932.101 .0252474
932.739 .0252434
933.377 .0252397
934.014 .0252360
934.651 .0252324
935.288 .0252280
935.924 .0252223
936.560 .0252155
937.196 .0252086
937.831 .0252014
938.466 .0251946
939.100 .0251881
939.734 .0251822
940.368 .0251766
941.001 .0251718
941.634 .0251657
942.266 .0251593
942.899 .0251519
943.530 .0251423
944.162 .0251304
944.793 .0251172
945.423 .0251020
946.053 .0250855
946.683 .0250682
947.313 .0250500
947.942 .0250303
948.571 .0250107
949.199 .0249898
949.827 .0249680
950.455 .0249461
951.082 .0249239
951.709 .0249016
952.335 .0248803
952.961 .0248595
953.587 .0248393
954.212 .0248198
954.837 .0248017
955.462 .0247841
956.086 .0247682
956.710 .0247536
957.334 .0247400
957.957 .0247280
958.579 .0247173
959.202 .0247077
959.824 .0246992
960.445 .0246918
961.067 .0246850
961.688 .0246793
962.308 .0246741
962.928 .0246698
963.548 .0246658
964.168 .0246627
964.787 .0246594
965.406 .0246555
966.024 .0246505
966.642 .0246442
967.260 .0246359
967.877 .0246270
968.494 .0246160
969.110 .0246040
969.727 .0245906
970.342 .0245767
970.958 .0245616
971.573 .0245460
972.188 .0245294
972.802 .0245127
973.416 .0244951
974.030 .0244772
974.643 .0244583
975.256 .0244402
975.869 .0244226
976.481 .0244058
977.093 .0243884
977.705 .0243716
978.316 .0243547
978.927 .0243388
979.538 .0243224
980.148 .0243057
980.758 .0242891
981.367 .0242728
981.977 .0242560
982.586 .0242396
983.194 .0242238
983.802 .0242099
984.410 .0241973
985.018 .0241868
985.625 .0241771
986.232 .0241688
986.838 .0241608
987.445 .0241529
988.050 .0241438
988.656 .0241337
989.261 .0241217
989.866 .0241083
990.471 .0240946
991.075 .0240798
991.679 .0240647
992.282 .0240500
992.886 .0240350
993.489 .0240193
994.091 .0240022
994.694 .0239849
995.296 .0239670
995.897 .0239497
996.499 .0239330
997.100 .0239181
997.701 .0239063
998.301 .0238975
998.901 .0238912
999.501 .0238878
1000.101 .0238868
1000.700 .0238867
1001.299 .0238871
1001.898 .0238882
1002.496 .0238887
1003.094 .0238891
1003.692 .0238882
1004.289 .0238858
1004.887 .0238809
1005.484 .0238737
1006.080 .0238629
1006.677 .0238489
1007.273 .0238325
1007.868 .0238148
1008.464 .0237965
1009.059 .0237783
1009.654 .0237604
1010.249 .0237432
1010.843 .0237272
1011.437 .0237128
1012.031 .0236987
1012.625 .0236870
1013.218 .0236770
1013.811 .0236698
1014.404 .0236649
1014.997 .0236623
1015.589 .0236618
1016.181 .0236628
1016.773 .0236644
1017.365 .0236660
1017.956 .0236665
1018.547 .0236671
1019.138 .0236664
1019.728 .0236657
1020.319 .0236641
1020.909 .0236615
1021.499 .0236571
1022.088 .0236516
1022.678 .0236439
1023.267 .0236351
1023.856 .0236248
1024.445 .0236152
1025.033 .0236065
1025.621 .0236000
1026.209 .0235952
1026.797 .0235923
1027.385 .0235908
1027.972 .0235896
1028.560 .0235874
1029.147 .0235848
1029.734 .0235811
1030.320 .0235779
1030.907 .0235746
1031.493 .0235723
1032.079 .0235700
1032.665 .0235674
1033.250 .0235624
1033.836 .0235550
1034.421 .0235437
1035.006 .0235289
1035.591 .0235112
1036.176 .0234918
1036.761 .0234718
1037.345 .0234525
1037.929 .0234353
1038.514 .0234194
1039.097 .0234053
1039.681 .0233925
1040.265 .0233796
1040.848 .0233679
1041.432 .0233574
1042.015 .0233495
1042.598 .0233443
1043.181 .0233436
1043.764 .0233476
1044.346 .0233562
1044.929 .0233684
1045.511 .0233819
1046.094 .0233967
1046.676 .0234124
1047.258 .0234262
1047.840 .0234380
1048.422 .0234493
1049.003 .0234603
1049.585 .0234695
1050.166 .0234775
1050.748 .0234837
1051.329 .0234879
1051.910 .0234892
1052.491 .0234868
1053.072 .0234790
1053.653 .0234681
1054.234 .0234527
1054.815 .0234331
1055.396 .0234094
1055.976 .0233823
1056.557 .0233514
1057.138 .0233191
1057.718 .0232856
1058.298 .0232529
1058.879 .0232207
1059.459 .0231935
1060.039 .0231704
1060.620 .0231519
1061.200 .0231370
1061.780 .0231277
1062.360 .0231220
1062.940 .0231218
1063.520 .0231241
1064.101 .0231310
1064.681 .0231412
1065.261 .0231572
1065.841 .0231756
1066.421 .0231979
1067.001 .0232230
1067.581 .0232499
1068.161 .0232753
1068.741 .0233012
1069.321 .0233230
1069.901 .0233447
1070.482 .0233641
1071.062 .0233822
1071.642 .0233967
1072.222 .0234114
1072.803 .0234230
1073.383 .0234323
1073.963 .0234374
1074.544 .0234396
1075.124 .0234359
1075.705 .0234306
1076.286 .0234216
1076.866 .0234117
1077.447 .0234021
1078.028 .0233947
1078.609 .0233878
1079.190 .0233851
1079.771 .0233841
1080.352 .0233850
1080.934 .0233870
1081.515 .0233907
1082.097 .0233936
1082.679 .0233969
1083.260 .0233999
1083.842 .0234018
1084.424 .0234037
1085.007 .0234075
1085.589 .0234114
1086.172 .0234174
1086.754 .0234262
1087.337 .0234381
1087.920 .0234506
1088.503 .0234643
1089.087 .0234784
1089.670 .0234906
1090.254 .0235022
1090.838 .0235110
1091.422 .0235194
1092.006 .0235287
1092.590 .0235412
1093.175 .0235573
1093.760 .0235780
1094.345 .0236046
1094.930 .0236333
1095.516 .0236618
1096.102 .0236890
1096.688 .0237106
1097.274 .0237250
1097.860 .0237325
1098.447 .0237345
1099.034 .0237292
1099.622 .0237207
1100.209 .0237114
1100.797 .0237033
1101.385 .0236951
1101.973 .0236866
1102.562 .0236772
1103.151 .0236656
1103.740 .0236533
1104.330 .0236364
1104.920 .0236194
1105.510 .0236045
1106.101 .0235898
1106.691 .0235747
1107.283 .0235607
1107.874 .0235492
1108.466 .0235365
1109.058 .0235254
1109.651 .0235121
1110.244 .0234986
1110.837 .0234874
1111.431 .0234769
1112.025 .0234717
1112.620 .0234709
1113.215 .0234770
1113.810 .0234866
1114.406 .0235007
1115.002 .0235158
1115.599 .0235275
1116.196 .0235417
1116.793 .0235556
1117.391 .0235695
1117.989 .0235895
1118.588 .0236141
1119.187 .0236418
1119.787 .0236746
1120.387 .0237065
1120.988 .0237334
1121.589 .0237571
1122.190 .0237707
1122.793 .0237752
1123.395 .0237724
1123.998 .0237677
1124.602 .0237609
1125.206 .0237582
1125.811 .0237674
1126.416 .0237833
1127.022 .0238116
1127.628 .0238497
1128.235 .0238870
1128.843 .0239289
1129.451 .0239698
1130.059 .0240076
1130.669 .0240453
1131.278 .0240862
1131.889 .0241291
1132.500 .0241797
1133.112 .0242383
1133.724 .0243059
1134.337 .0243804
1134.950 .0244624
1135.564 .0245435
1136.179 .0246218
1136.795 .0247005
1137.411 .0247760
1138.028 .0248477
1138.645 .0249233
1139.263 .0250032
1139.882 .0250813
1140.502 .0251646
1141.122 .0252547
1141.743 .0253596
1142.365 .0254747
1142.987 .0254529
1143.611 .0256599
1144.235 .0258049
1144.859 .0261266
1145.485 .0262193
