Measurement Sequence started on: 10-20-44-796
Integration time: 35
Scans to Average: 2 
>>>>>Begin Spectral Data<<<<<
432.953 .0222842
433.882 .0367521
434.810 .0409290
435.737 .0435860
436.662 .0413540
437.586 .0410188
438.509 .0418526
439.431 .0420530
440.351 .0420730
441.269 .0420155
442.187 .0420025
443.103 .0419626
444.018 .0418998
444.932 .0418489
445.844 .0417892
446.756 .0417344
447.666 .0416872
448.575 .0416283
449.482 .0415452
450.388 .0414691
451.294 .0413907
452.198 .0413147
453.100 .0412507
454.002 .0412064
454.902 .0411761
455.801 .0411704
456.699 .0411764
457.596 .0412002
458.492 .0412181
459.387 .0412321
460.280 .0412283
461.172 .0412121
462.064 .0411837
462.954 .0411371
463.843 .0410755
464.730 .0410152
465.617 .0409414
466.503 .0408585
467.387 .0407669
468.271 .0406645
469.153 .0405520
470.035 .0404267
470.915 .0402896
471.794 .0401383
472.673 .0399750
473.550 .0398106
474.426 .0396489
475.301 .0395059
476.175 .0393871
477.048 .0392900
477.920 .0392210
478.791 .0391697
479.661 .0391309
480.530 .0391013
481.398 .0390734
482.266 .0390444
483.132 .0390145
483.997 .0389775
484.861 .0389416
485.724 .0389094
486.587 .0388845
487.448 .0388620
488.308 .0388470
489.168 .0388330
490.026 .0388113
490.884 .0387792
491.741 .0387344
492.597 .0386720
493.452 .0386022
494.306 .0385151
495.159 .0384152
496.011 .0383119
496.862 .0382110
497.713 .0381080
498.562 .0380120
499.411 .0379245
500.259 .0378422
501.106 .0377645
501.952 .0376919
502.798 .0376127
503.642 .0375302
504.486 .0374385
505.329 .0373324
506.171 .0372113
507.012 .0370867
507.852 .0369588
508.692 .0368388
509.531 .0367305
510.369 .0366350
511.206 .0365512
512.043 .0364790
512.878 .0364098
513.713 .0363344
514.547 .0362489
515.381 .0361483
516.213 .0360353
517.045 .0359114
517.876 .0357806
518.706 .0356519
519.536 .0355342
520.365 .0354299
521.193 .0353284
522.020 .0352243
522.847 .0351139
523.673 .0349914
524.498 .0348464
525.323 .0346619
526.146 .0344550
526.969 .0342262
527.792 .0339757
528.614 .0337116
529.435 .0334505
530.255 .0331968
531.075 .0329491
531.894 .0326987
532.712 .0324496
533.530 .0322048
534.347 .0319708
535.163 .0317465
535.979 .0315482
536.794 .0313883
537.608 .0312682
538.422 .0311877
539.235 .0311551
540.048 .0311518
540.860 .0311760
541.671 .0312121
542.481 .0312574
543.292 .0313045
544.101 .0313566
544.910 .0314188
545.718 .0314887
546.526 .0315693
547.333 .0316614
548.139 .0317588
548.945 .0318618
549.750 .0319571
550.555 .0320397
551.359 .0321064
552.162 .0321633
552.965 .0322044
553.768 .0322349
554.569 .0322665
555.371 .0322992
556.171 .0323385
556.972 .0323857
557.771 .0324380
558.570 .0324939
559.369 .0325573
560.167 .0326201
560.964 .0326719
561.761 .0327142
562.558 .0327461
563.354 .0327656
564.149 .0327729
564.944 .0327722
565.738 .0327655
566.532 .0327601
567.325 .0327631
568.118 .0327680
568.910 .0327824
569.702 .0328063
570.494 .0328389
571.285 .0328753
572.075 .0329155
572.865 .0329589
573.654 .0330070
574.443 .0330659
575.232 .0331357
576.020 .0332100
576.807 .0332924
577.594 .0333783
578.381 .0334631
579.167 .0335388
579.952 .0336082
580.738 .0336675
581.522 .0337181
582.307 .0337581
583.091 .0337903
583.874 .0338135
584.657 .0338345
585.440 .0338524
586.222 .0338675
587.004 .0338802
587.785 .0338919
588.566 .0339002
589.346 .0339081
590.126 .0339119
590.906 .0339134
591.685 .0339107
592.464 .0339066
593.242 .0338995
594.020 .0338911
594.797 .0338826
595.575 .0338746
596.351 .0338673
597.128 .0338613
597.904 .0338530
598.679 .0338442
599.454 .0338332
600.229 .0338207
601.004 .0338043
601.778 .0337852
602.551 .0337632
603.325 .0337412
604.097 .0337190
604.870 .0336971
605.642 .0336773
606.414 .0336610
607.185 .0336459
607.956 .0336318
608.727 .0336180
609.497 .0336039
610.267 .0335885
611.037 .0335739
611.806 .0335585
612.575 .0335432
613.344 .0335282
614.112 .0335137
614.880 .0334993
615.647 .0334853
616.414 .0334705
617.181 .0334544
617.948 .0334374
618.714 .0334182
619.480 .0333961
620.245 .0333725
621.011 .0333498
621.775 .0333275
622.540 .0333055
623.304 .0332839
624.068 .0332630
624.832 .0332414
625.595 .0332188
626.358 .0331946
627.120 .0331689
627.883 .0331419
628.645 .0331139
629.406 .0330839
630.168 .0330538
630.929 .0330239
631.689 .0329942
632.450 .0329631
633.210 .0329320
633.970 .0328988
634.729 .0328646
635.489 .0328298
636.248 .0327946
637.006 .0327578
637.765 .0327204
638.523 .0326816
639.280 .0326410
640.038 .0325987
640.795 .0325552
641.552 .0325104
642.309 .0324678
643.065 .0324274
643.821 .0323896
644.577 .0323551
645.332 .0323250
646.088 .0322963
646.843 .0322686
647.597 .0322398
648.352 .0322090
649.106 .0321766
649.860 .0321425
650.613 .0321065
651.367 .0320726
652.120 .0320427
652.872 .0320170
653.625 .0319960
654.377 .0319798
655.129 .0319653
655.881 .0319506
656.632 .0319336
657.384 .0319126
658.135 .0318872
658.885 .0318576
659.636 .0318239
660.386 .0317889
661.136 .0317538
661.885 .0317199
662.635 .0316888
663.384 .0316611
664.133 .0316349
664.881 .0316091
665.630 .0315831
666.378 .0315557
667.126 .0315263
667.874 .0314943
668.621 .0314612
669.368 .0314283
670.115 .0313970
670.862 .0313683
671.608 .0313443
672.354 .0313260
673.100 .0313119
673.846 .0313016
674.591 .0312932
675.337 .0312855
676.082 .0312774
676.826 .0312673
677.571 .0312555
678.315 .0312417
679.059 .0312272
679.803 .0312128
680.547 .0312002
681.290 .0311890
682.033 .0311793
682.776 .0311714
683.518 .0311636
684.261 .0311546
685.003 .0311442
685.745 .0311318
686.487 .0311176
687.228 .0311021
687.969 .0310860
688.710 .0310701
689.451 .0310564
690.192 .0310440
690.932 .0310328
691.672 .0310231
692.412 .0310136
693.152 .0310032
693.891 .0309922
694.630 .0309801
695.369 .0309664
696.108 .0309518
696.846 .0309366
697.585 .0309205
698.323 .0309044
699.061 .0308881
699.798 .0308719
700.536 .0308557
701.273 .0308400
702.010 .0308240
702.746 .0308087
703.483 .0307943
704.219 .0307792
704.955 .0307639
705.691 .0307486
706.427 .0307327
707.162 .0307163
707.897 .0306988
708.632 .0306813
709.367 .0306636
710.101 .0306458
710.835 .0306279
711.569 .0306105
712.303 .0305933
713.037 .0305758
713.770 .0305570
714.503 .0305378
715.236 .0305176
715.969 .0304960
716.702 .0304741
717.434 .0304514
718.166 .0304287
718.898 .0304058
719.629 .0303823
720.361 .0303591
721.092 .0303359
721.823 .0303119
722.554 .0302865
723.284 .0302604
724.014 .0302327
724.744 .0302031
725.474 .0301720
726.204 .0301405
726.933 .0301078
727.662 .0300744
728.391 .0300404
729.120 .0300064
729.849 .0299729
730.577 .0299390
731.305 .0299048
732.033 .0298712
732.760 .0298369
733.488 .0298024
734.215 .0297675
734.942 .0297335
735.669 .0296999
736.395 .0296681
737.122 .0296373
737.848 .0296080
738.573 .0295800
739.299 .0295525
740.024 .0295253
740.750 .0294989
741.474 .0294721
742.199 .0294447
742.924 .0294168
743.648 .0293890
744.372 .0293605
745.096 .0293333
745.819 .0293067
746.543 .0292811
747.266 .0292568
747.989 .0292342
748.711 .0292128
749.434 .0291938
750.156 .0291769
750.878 .0291622
751.599 .0291494
752.321 .0291386
753.042 .0291294
753.763 .0291222
754.484 .0291177
755.205 .0291152
755.925 .0291141
756.645 .0291143
757.365 .0291140
758.085 .0291130
758.804 .0291104
759.523 .0291052
760.242 .0290967
760.961 .0290851
761.679 .0290701
762.397 .0290520
763.115 .0290318
763.833 .0290101
764.551 .0289874
765.268 .0289642
765.985 .0289407
766.702 .0289161
767.418 .0288912
768.134 .0288662
768.850 .0288413
769.566 .0288173
770.282 .0287943
770.997 .0287734
771.712 .0287542
772.427 .0287370
773.142 .0287215
773.856 .0287073
774.570 .0286942
775.284 .0286809
775.998 .0286679
776.711 .0286550
777.424 .0286426
778.137 .0286312
778.849 .0286212
779.562 .0286125
780.274 .0286052
780.986 .0285989
781.697 .0285934
782.409 .0285888
783.120 .0285852
783.831 .0285828
784.541 .0285816
785.252 .0285821
785.962 .0285833
786.671 .0285855
787.381 .0285886
788.090 .0285915
788.799 .0285940
789.508 .0285952
790.217 .0285945
790.925 .0285925
791.633 .0285888
792.341 .0285839
793.048 .0285781
793.755 .0285716
794.462 .0285637
795.169 .0285549
795.875 .0285455
796.581 .0285352
797.287 .0285244
797.993 .0285139
798.698 .0285036
799.403 .0284944
800.108 .0284866
800.812 .0284798
801.517 .0284739
802.221 .0284687
802.924 .0284628
803.628 .0284564
804.331 .0284499
805.034 .0284432
805.736 .0284364
806.439 .0284310
807.141 .0284272
807.843 .0284256
808.544 .0284261
809.245 .0284275
809.946 .0284286
810.647 .0284286
811.347 .0284263
812.047 .0284215
812.747 .0284142
813.447 .0284055
814.146 .0283956
814.845 .0283867
815.543 .0283795
816.242 .0283745
816.940 .0283714
817.638 .0283707
818.335 .0283702
819.032 .0283691
819.729 .0283660
820.426 .0283609
821.122 .0283534
821.818 .0283446
822.514 .0283349
823.209 .0283250
823.905 .0283155
824.599 .0283066
825.294 .0282974
825.988 .0282886
826.682 .0282780
827.376 .0282663
828.069 .0282524
828.762 .0282366
829.455 .0282189
830.147 .0282013
830.840 .0281836
831.531 .0281672
832.223 .0281514
832.914 .0281365
833.605 .0281224
834.296 .0281096
834.986 .0280971
835.676 .0280849
836.366 .0280731
837.055 .0280616
837.744 .0280501
838.433 .0280394
839.121 .0280285
839.809 .0280181
840.497 .0280076
841.185 .0279963
841.872 .0279832
842.559 .0279691
843.245 .0279536
843.932 .0279371
844.617 .0279205
845.303 .0279040
845.988 .0278885
846.673 .0278736
847.358 .0278593
848.042 .0278456
848.726 .0278314
849.410 .0278167
850.093 .0278003
850.776 .0277828
851.459 .0277635
852.141 .0277440
852.823 .0277248
853.505 .0277066
854.186 .0276891
854.867 .0276725
855.548 .0276561
856.228 .0276399
856.908 .0276230
857.588 .0276049
858.267 .0275862
858.946 .0275674
859.625 .0275483
860.303 .0275302
860.981 .0275135
861.659 .0274994
862.336 .0274865
863.013 .0274749
863.690 .0274636
864.366 .0274515
865.042 .0274379
865.718 .0274220
866.393 .0274038
867.068 .0273842
867.743 .0273631
868.417 .0273409
869.091 .0273177
869.765 .0272946
870.438 .0272713
871.111 .0272479
871.783 .0272247
872.456 .0272009
873.127 .0271768
873.799 .0271524
874.470 .0271277
875.141 .0271036
875.811 .0270804
876.481 .0270582
877.151 .0270377
877.820 .0270191
878.489 .0270020
879.158 .0269860
879.826 .0269707
880.494 .0269553
881.162 .0269391
881.829 .0269216
882.496 .0269032
883.163 .0268836
883.829 .0268634
884.495 .0268421
885.160 .0268212
885.825 .0268006
886.490 .0267806
887.154 .0267613
887.818 .0267426
888.482 .0267244
889.145 .0267063
889.808 .0266889
890.471 .0266725
891.133 .0266574
891.795 .0266441
892.456 .0266325
893.117 .0266233
893.778 .0266155
894.439 .0266094
895.099 .0266043
895.758 .0266006
896.417 .0265972
897.076 .0265933
897.735 .0265881
898.393 .0265818
899.051 .0265747
899.708 .0265658
900.365 .0265557
901.022 .0265444
901.678 .0265314
902.334 .0265171
902.990 .0265012
903.645 .0264841
904.300 .0264654
904.954 .0264457
905.608 .0264240
906.262 .0264010
906.915 .0263772
907.568 .0263525
908.221 .0263290
908.873 .0263071
909.525 .0262866
910.176 .0262676
910.828 .0262511
911.478 .0262367
912.129 .0262236
912.778 .0262119
913.428 .0262001
914.077 .0261885
914.726 .0261770
915.375 .0261654
916.023 .0261548
916.670 .0261463
917.318 .0261399
917.964 .0261353
918.611 .0261328
919.257 .0261313
919.903 .0261299
920.548 .0261290
921.193 .0261277
921.838 .0261258
922.482 .0261233
923.126 .0261208
923.770 .0261179
924.413 .0261158
925.056 .0261136
925.698 .0261113
926.340 .0261088
926.982 .0261056
927.623 .0261010
928.264 .0260947
928.904 .0260867
929.544 .0260778
930.184 .0260674
930.823 .0260569
931.462 .0260456
932.101 .0260339
932.739 .0260223
933.377 .0260101
934.014 .0259971
934.651 .0259843
935.288 .0259717
935.924 .0259600
936.560 .0259491
937.196 .0259400
937.831 .0259317
938.466 .0259242
939.100 .0259181
939.734 .0259119
940.368 .0259052
941.001 .0258978
941.634 .0258889
942.266 .0258795
942.899 .0258690
943.530 .0258576
944.162 .0258455
944.793 .0258328
945.423 .0258191
946.053 .0258045
946.683 .0257901
947.313 .0257764
947.942 .0257634
948.571 .0257512
949.199 .0257400
949.827 .0257285
950.455 .0257169
951.082 .0257054
951.709 .0256942
952.335 .0256829
952.961 .0256716
953.587 .0256608
954.212 .0256506
954.837 .0256420
955.462 .0256350
956.086 .0256292
956.710 .0256260
957.334 .0256233
957.957 .0256209
958.579 .0256185
959.202 .0256159
959.824 .0256126
960.445 .0256095
961.067 .0256064
961.688 .0256028
962.308 .0255993
962.928 .0255967
963.548 .0255941
964.168 .0255925
964.787 .0255909
965.406 .0255888
966.024 .0255865
966.642 .0255837
967.260 .0255790
967.877 .0255735
968.494 .0255676
969.110 .0255602
969.727 .0255520
970.342 .0255434
970.958 .0255344
971.573 .0255265
972.188 .0255205
972.802 .0255157
973.416 .0255125
974.030 .0255119
974.643 .0255126
975.256 .0255144
975.869 .0255175
976.481 .0255203
977.093 .0255230
977.705 .0255262
978.316 .0255286
978.927 .0255303
979.538 .0255323
980.148 .0255346
980.758 .0255367
981.367 .0255391
981.977 .0255413
982.586 .0255430
983.194 .0255448
983.802 .0255461
984.410 .0255456
985.018 .0255447
985.625 .0255431
986.232 .0255404
986.838 .0255382
987.445 .0255364
988.050 .0255349
988.656 .0255353
989.261 .0255376
989.866 .0255408
990.471 .0255454
991.075 .0255513
991.679 .0255574
992.282 .0255640
992.886 .0255705
993.489 .0255766
994.091 .0255826
994.694 .0255891
995.296 .0255954
995.897 .0256017
996.499 .0256083
997.100 .0256138
997.701 .0256189
998.301 .0256236
998.901 .0256270
999.501 .0256290
1000.101 .0256303
1000.700 .0256308
1001.299 .0256309
1001.898 .0256307
1002.496 .0256300
1003.094 .0256289
1003.692 .0256278
1004.289 .0256260
1004.887 .0256234
1005.484 .0256203
1006.080 .0256170
1006.677 .0256126
1007.273 .0256082
1007.868 .0256035
1008.464 .0255988
1009.059 .0255947
1009.654 .0255915
1010.249 .0255887
1010.843 .0255867
1011.437 .0255856
1012.031 .0255850
1012.625 .0255849
1013.218 .0255847
1013.811 .0255835
1014.404 .0255816
1014.997 .0255799
1015.589 .0255780
1016.181 .0255767
1016.773 .0255761
1017.365 .0255769
1017.956 .0255777
1018.547 .0255786
1019.138 .0255783
1019.728 .0255758
1020.319 .0255707
1020.909 .0255628
1021.499 .0255515
1022.088 .0255388
1022.678 .0255241
1023.267 .0255096
1023.856 .0254949
1024.445 .0254810
1025.033 .0254663
1025.621 .0254509
1026.209 .0254347
1026.797 .0254174
1027.385 .0253981
1027.972 .0253796
1028.560 .0253620
1029.147 .0253476
1029.734 .0253365
1030.320 .0253295
1030.907 .0253258
1031.493 .0253254
1032.079 .0253262
1032.665 .0253281
1033.250 .0253291
1033.836 .0253290
1034.421 .0253263
1035.006 .0253211
1035.591 .0253129
1036.176 .0253020
1036.761 .0252890
1037.345 .0252748
1037.929 .0252584
1038.514 .0252412
1039.097 .0252231
1039.681 .0252062
1040.265 .0251891
1040.848 .0251722
1041.432 .0251557
1042.015 .0251386
1042.598 .0251206
1043.181 .0251036
1043.764 .0250882
1044.346 .0250759
1044.929 .0250680
1045.511 .0250662
1046.094 .0250698
1046.676 .0250805
1047.258 .0250951
1047.840 .0251122
1048.422 .0251301
1049.003 .0251450
1049.585 .0251553
1050.166 .0251615
1050.748 .0251643
1051.329 .0251628
1051.910 .0251593
1052.491 .0251538
1053.072 .0251456
1053.653 .0251357
1054.234 .0251243
1054.815 .0251101
1055.396 .0250940
1055.976 .0250763
1056.557 .0250569
1057.138 .0250373
1057.718 .0250196
1058.298 .0250017
1058.879 .0249859
1059.459 .0249702
1060.039 .0249543
1060.620 .0249369
1061.200 .0249201
1061.780 .0249034
1062.360 .0248872
1062.940 .0248735
1063.520 .0248629
1064.101 .0248534
1064.681 .0248451
1065.261 .0248366
1065.841 .0248263
1066.421 .0248126
1067.001 .0247945
1067.581 .0247717
1068.161 .0247465
1068.741 .0247210
1069.321 .0246960
1069.901 .0246734
1070.482 .0246537
1071.062 .0246379
1071.642 .0246219
1072.222 .0246063
1072.803 .0245885
1073.383 .0245676
1073.963 .0245453
1074.544 .0245221
1075.124 .0244988
1075.705 .0244778
1076.286 .0244601
1076.866 .0244469
1077.447 .0244354
1078.028 .0244270
1078.609 .0244183
1079.190 .0244087
1079.771 .0243984
1080.352 .0243874
1080.934 .0243760
1081.515 .0243694
1082.097 .0243681
1082.679 .0243725
1083.260 .0243829
1083.842 .0243980
1084.424 .0244151
1085.007 .0244328
1085.589 .0244486
1086.172 .0244607
1086.754 .0244695
1087.337 .0244757
1087.920 .0244773
1088.503 .0244747
1089.087 .0244714
1089.670 .0244646
1090.254 .0244548
1090.838 .0244423
1091.422 .0244263
1092.006 .0244084
1092.590 .0243885
1093.175 .0243670
1093.760 .0243445
1094.345 .0243209
1094.930 .0242974
1095.516 .0242715
1096.102 .0242456
1096.688 .0242207
1097.274 .0241996
1097.860 .0241827
1098.447 .0241734
1099.034 .0241691
1099.622 .0241730
1100.209 .0241827
1100.797 .0241974
1101.385 .0242148
1101.973 .0242325
1102.562 .0242496
1103.151 .0242627
1103.740 .0242689
1104.330 .0242741
1104.920 .0242748
1105.510 .0242767
1106.101 .0242793
1106.691 .0242871
1107.283 .0242953
1107.874 .0243036
1108.466 .0243118
1109.058 .0243177
1109.651 .0243180
1110.244 .0243125
1110.837 .0242946
1111.431 .0242681
1112.025 .0242337
1112.620 .0241920
1113.215 .0241488
1113.810 .0241100
1114.406 .0240752
1115.002 .0240449
1115.599 .0240175
1116.196 .0239921
1116.793 .0239626
1117.391 .0239321
1117.989 .0239002
1118.588 .0238655
1119.187 .0238311
1119.787 .0238011
1120.387 .0237833
1120.988 .0237777
1121.589 .0237841
1122.190 .0238004
1122.793 .0238273
1123.395 .0238574
1123.998 .0238883
1124.602 .0239173
1125.206 .0239478
1125.811 .0239824
1126.416 .0240188
1127.022 .0240586
1127.628 .0241054
1128.235 .0241580
1128.843 .0242161
1129.451 .0242774
1130.059 .0243414
1130.669 .0244016
1131.278 .0244641
1131.889 .0245222
1132.500 .0245800
1133.112 .0246403
1133.724 .0247094
1134.337 .0247888
1134.950 .0248793
1135.564 .0249790
1136.179 .0250841
1136.795 .0251965
1137.411 .0253089
1138.028 .0254134
1138.645 .0255129
1139.263 .0256059
1139.882 .0256897
1140.502 .0257751
1141.122 .0258521
1141.743 .0259308
1142.365 .0260250
1142.987 .0260123
1143.611 .0263997
1144.235 .0261563
1144.859 .0263225
1145.485 .0267970
