Measurement Sequence started on: 10-20-44-796
Integration time: 35
Scans to Average: 2 
>>>>>Begin Spectral Data<<<<<
432.953 .0279434
433.882 .0304806
434.810 .0290743
435.737 .0280717
436.662 .0276954
437.586 .0285761
438.509 .0286300
439.431 .0286775
440.351 .0288126
441.269 .0289896
442.187 .0291698
443.103 .0293299
444.018 .0295102
444.932 .0296655
445.844 .0298096
446.756 .0299511
447.666 .0301040
448.575 .0302534
449.482 .0303915
450.388 .0305238
451.294 .0306471
452.198 .0307636
453.100 .0308581
454.002 .0309433
454.902 .0310123
455.801 .0310619
456.699 .0310971
457.596 .0311239
458.492 .0311440
459.387 .0311601
460.280 .0311709
461.172 .0311715
462.064 .0311599
462.954 .0311357
463.843 .0311002
464.730 .0310609
465.617 .0310164
466.503 .0309718
467.387 .0309281
468.271 .0308925
469.153 .0308681
470.035 .0308538
470.915 .0308477
471.794 .0308462
472.673 .0308510
473.550 .0308562
474.426 .0308590
475.301 .0308614
476.175 .0308637
477.048 .0308678
477.920 .0308743
478.791 .0308843
479.661 .0308976
480.530 .0309170
481.398 .0309395
482.266 .0309612
483.132 .0309852
483.997 .0310030
484.861 .0310137
485.724 .0310210
486.587 .0310224
487.448 .0310137
488.308 .0309996
489.168 .0309838
490.026 .0309670
490.884 .0309465
491.741 .0309241
492.597 .0308976
493.452 .0308700
494.306 .0308359
495.159 .0307936
496.011 .0307439
496.862 .0306896
497.713 .0306239
498.562 .0305522
499.411 .0304739
500.259 .0303926
501.106 .0303109
501.952 .0302341
502.798 .0301622
503.642 .0300970
504.486 .0300352
505.329 .0299805
506.171 .0299275
507.012 .0298758
507.852 .0298156
508.692 .0297501
509.531 .0296739
510.369 .0295881
511.206 .0294947
512.043 .0293974
512.878 .0292950
513.713 .0291934
514.547 .0290878
515.381 .0289794
516.213 .0288645
517.045 .0287428
517.876 .0286090
518.706 .0284626
519.536 .0283037
520.365 .0281345
521.193 .0279549
522.020 .0277767
522.847 .0275978
523.673 .0274259
524.498 .0272589
525.323 .0270939
526.146 .0269314
526.969 .0267731
527.792 .0266150
528.614 .0264529
529.435 .0262922
530.255 .0261391
531.075 .0259855
531.894 .0258451
532.712 .0257175
533.530 .0256039
534.347 .0255045
535.163 .0254158
535.979 .0253355
536.794 .0252667
537.608 .0252079
538.422 .0251585
539.235 .0251190
540.048 .0250902
540.860 .0250661
541.671 .0250501
542.481 .0250412
543.292 .0250303
544.101 .0250180
544.910 .0250086
545.718 .0249955
546.526 .0249833
547.333 .0249727
548.139 .0249670
548.945 .0249702
549.750 .0249808
550.555 .0249962
551.359 .0250161
552.162 .0250451
552.965 .0250775
553.768 .0251128
554.569 .0251592
555.371 .0252096
556.171 .0252702
556.972 .0253435
557.771 .0254227
558.570 .0255080
559.369 .0256002
560.167 .0256962
560.964 .0257910
561.761 .0258826
562.558 .0259751
563.354 .0260676
564.149 .0261634
564.944 .0262599
565.738 .0263565
566.532 .0264569
567.325 .0265584
568.118 .0266549
568.910 .0267493
569.702 .0268376
570.494 .0269232
571.285 .0270004
572.075 .0270748
572.865 .0271457
573.654 .0272123
574.443 .0272791
575.232 .0273479
576.020 .0274170
576.807 .0274910
577.594 .0275665
578.381 .0276465
579.167 .0277282
579.952 .0278130
580.738 .0278964
581.522 .0279795
582.307 .0280611
583.091 .0281403
583.874 .0282154
584.657 .0282874
585.440 .0283533
586.222 .0284134
587.004 .0284681
587.785 .0285165
588.566 .0285584
589.346 .0285954
590.126 .0286262
590.906 .0286523
591.685 .0286728
592.464 .0286880
593.242 .0286987
594.020 .0287055
594.797 .0287096
595.575 .0287111
596.351 .0287109
597.128 .0287100
597.904 .0287088
598.679 .0287084
599.454 .0287070
600.229 .0287057
601.004 .0287044
601.778 .0287018
602.551 .0286981
603.325 .0286941
604.097 .0286894
604.870 .0286844
605.642 .0286792
606.414 .0286735
607.185 .0286669
607.956 .0286603
608.727 .0286530
609.497 .0286448
610.267 .0286360
611.037 .0286263
611.806 .0286146
612.575 .0286025
613.344 .0285889
614.112 .0285743
614.880 .0285592
615.647 .0285437
616.414 .0285274
617.181 .0285114
617.948 .0284958
618.714 .0284807
619.480 .0284667
620.245 .0284541
621.011 .0284421
621.775 .0284305
622.540 .0284200
623.304 .0284101
624.068 .0284009
624.832 .0283929
625.595 .0283852
626.358 .0283788
627.120 .0283728
627.883 .0283670
628.645 .0283616
629.406 .0283557
630.168 .0283485
630.929 .0283394
631.689 .0283282
632.450 .0283145
633.210 .0282984
633.970 .0282801
634.729 .0282603
635.489 .0282393
636.248 .0282171
637.006 .0281941
637.765 .0281709
638.523 .0281482
639.280 .0281254
640.038 .0281030
640.795 .0280816
641.552 .0280599
642.309 .0280394
643.065 .0280195
643.821 .0280008
644.577 .0279830
645.332 .0279665
646.088 .0279508
646.843 .0279354
647.597 .0279206
648.352 .0279053
649.106 .0278901
649.860 .0278749
650.613 .0278588
651.367 .0278422
652.120 .0278254
652.872 .0278083
653.625 .0277906
654.377 .0277737
655.129 .0277568
655.881 .0277406
656.632 .0277255
657.384 .0277113
658.135 .0276983
658.885 .0276870
659.636 .0276770
660.386 .0276680
661.136 .0276602
661.885 .0276527
662.635 .0276449
663.384 .0276380
664.133 .0276312
664.881 .0276248
665.630 .0276185
666.378 .0276124
667.126 .0276055
667.874 .0275979
668.621 .0275890
669.368 .0275782
670.115 .0275661
670.862 .0275519
671.608 .0275360
672.354 .0275191
673.100 .0275017
673.846 .0274847
674.591 .0274686
675.337 .0274540
676.082 .0274399
676.826 .0274258
677.571 .0274114
678.315 .0273966
679.059 .0273815
679.803 .0273657
680.547 .0273494
681.290 .0273333
682.033 .0273173
682.776 .0273014
683.518 .0272859
684.261 .0272709
685.003 .0272564
685.745 .0272416
686.487 .0272263
687.228 .0272103
687.969 .0271941
688.710 .0271778
689.451 .0271614
690.192 .0271450
690.932 .0271289
691.672 .0271127
692.412 .0270971
693.152 .0270822
693.891 .0270681
694.630 .0270549
695.369 .0270424
696.108 .0270304
696.846 .0270183
697.585 .0270062
698.323 .0269938
699.061 .0269807
699.798 .0269672
700.536 .0269527
701.273 .0269378
702.010 .0269226
702.746 .0269077
703.483 .0268931
704.219 .0268789
704.955 .0268655
705.691 .0268517
706.427 .0268377
707.162 .0268238
707.897 .0268099
708.632 .0267962
709.367 .0267828
710.101 .0267700
710.835 .0267577
711.569 .0267459
712.303 .0267345
713.037 .0267230
713.770 .0267117
714.503 .0267003
715.236 .0266886
715.969 .0266768
716.702 .0266654
717.434 .0266543
718.166 .0266444
718.898 .0266348
719.629 .0266256
720.361 .0266163
721.092 .0266067
721.823 .0265968
722.554 .0265857
723.284 .0265739
724.014 .0265610
724.744 .0265473
725.474 .0265328
726.204 .0265172
726.933 .0265015
727.662 .0264850
728.391 .0264679
729.120 .0264502
729.849 .0264316
730.577 .0264127
731.305 .0263941
732.033 .0263756
732.760 .0263573
733.488 .0263397
734.215 .0263226
734.942 .0263059
735.669 .0262895
736.395 .0262734
737.122 .0262574
737.848 .0262420
738.573 .0262267
739.299 .0262113
740.024 .0261963
740.750 .0261813
741.474 .0261659
742.199 .0261505
742.924 .0261348
743.648 .0261188
744.372 .0261030
745.096 .0260877
745.819 .0260727
746.543 .0260587
747.266 .0260455
747.989 .0260330
748.711 .0260215
749.434 .0260106
750.156 .0260001
750.878 .0259909
751.599 .0259834
752.321 .0259771
753.042 .0259726
753.763 .0259699
754.484 .0259684
755.205 .0259673
755.925 .0259664
756.645 .0259641
757.365 .0259604
758.085 .0259547
758.804 .0259466
759.523 .0259365
760.242 .0259254
760.961 .0259128
761.679 .0259000
762.397 .0258860
763.115 .0258705
763.833 .0258531
764.551 .0258343
765.268 .0258131
765.985 .0257898
766.702 .0257649
767.418 .0257391
768.134 .0257128
768.850 .0256869
769.566 .0256616
770.282 .0256374
770.997 .0256145
771.712 .0255924
772.427 .0255708
773.142 .0255504
773.856 .0255305
774.570 .0255113
775.284 .0254930
775.998 .0254757
776.711 .0254592
777.424 .0254438
778.137 .0254296
778.849 .0254158
779.562 .0254029
780.274 .0253901
780.986 .0253773
781.697 .0253648
782.409 .0253520
783.120 .0253393
783.831 .0253268
784.541 .0253146
785.252 .0253026
785.962 .0252911
786.671 .0252799
787.381 .0252685
788.090 .0252570
788.799 .0252451
789.508 .0252323
790.217 .0252188
790.925 .0252047
791.633 .0251896
792.341 .0251737
793.048 .0251572
793.755 .0251396
794.462 .0251211
795.169 .0251020
795.875 .0250823
796.581 .0250623
797.287 .0250422
797.993 .0250221
798.698 .0250028
799.403 .0249845
800.108 .0249669
800.812 .0249502
801.517 .0249346
802.221 .0249197
802.924 .0249053
803.628 .0248917
804.331 .0248794
805.034 .0248685
805.736 .0248593
806.439 .0248519
807.141 .0248460
807.843 .0248415
808.544 .0248373
809.245 .0248330
809.946 .0248278
810.647 .0248213
811.347 .0248136
812.047 .0248048
812.747 .0247955
813.447 .0247858
814.146 .0247759
814.845 .0247663
815.543 .0247566
816.242 .0247464
816.940 .0247355
817.638 .0247240
818.335 .0247120
819.032 .0246994
819.729 .0246864
820.426 .0246731
821.122 .0246595
821.818 .0246459
822.514 .0246320
823.209 .0246176
823.905 .0246030
824.599 .0245880
825.294 .0245727
825.988 .0245574
826.682 .0245421
827.376 .0245272
828.069 .0245127
828.762 .0244989
829.455 .0244851
830.147 .0244716
830.840 .0244587
831.531 .0244459
832.223 .0244336
832.914 .0244217
833.605 .0244103
834.296 .0243998
834.986 .0243901
835.676 .0243811
836.366 .0243729
837.055 .0243653
837.744 .0243578
838.433 .0243501
839.121 .0243424
839.809 .0243342
840.497 .0243257
841.185 .0243170
841.872 .0243080
842.559 .0242993
843.245 .0242910
843.932 .0242833
844.617 .0242766
845.303 .0242712
845.988 .0242665
846.673 .0242626
847.358 .0242594
848.042 .0242564
848.726 .0242534
849.410 .0242506
850.093 .0242479
850.776 .0242452
851.459 .0242422
852.141 .0242390
852.823 .0242356
853.505 .0242320
854.186 .0242277
854.867 .0242233
855.548 .0242190
856.228 .0242146
856.908 .0242099
857.588 .0242055
858.267 .0242016
858.946 .0241977
859.625 .0241938
860.303 .0241898
860.981 .0241856
861.659 .0241814
862.336 .0241764
863.013 .0241714
863.690 .0241667
864.366 .0241619
865.042 .0241569
865.718 .0241515
866.393 .0241456
867.068 .0241390
867.743 .0241316
868.417 .0241237
869.091 .0241148
869.765 .0241054
870.438 .0240956
871.111 .0240857
871.783 .0240763
872.456 .0240671
873.127 .0240583
873.799 .0240500
874.470 .0240419
875.141 .0240340
875.811 .0240264
876.481 .0240194
877.151 .0240130
877.820 .0240070
878.489 .0240015
879.158 .0239963
879.826 .0239914
880.494 .0239870
881.162 .0239823
881.829 .0239775
882.496 .0239723
883.163 .0239669
883.829 .0239615
884.495 .0239566
885.160 .0239526
885.825 .0239495
886.490 .0239474
887.154 .0239468
887.818 .0239469
888.482 .0239479
889.145 .0239493
889.808 .0239510
890.471 .0239523
891.133 .0239532
891.795 .0239529
892.456 .0239522
893.117 .0239507
893.778 .0239487
894.439 .0239454
895.099 .0239411
895.758 .0239360
896.417 .0239301
897.076 .0239234
897.735 .0239164
898.393 .0239088
899.051 .0239014
899.708 .0238940
900.365 .0238868
901.022 .0238797
901.678 .0238732
902.334 .0238668
902.990 .0238604
903.645 .0238535
904.300 .0238469
904.954 .0238405
905.608 .0238342
906.262 .0238282
906.915 .0238219
907.568 .0238154
908.221 .0238084
908.873 .0238006
909.525 .0237917
910.176 .0237814
910.828 .0237700
911.478 .0237574
912.129 .0237437
912.778 .0237293
913.428 .0237146
914.077 .0237002
914.726 .0236865
915.375 .0236728
916.023 .0236598
916.670 .0236479
917.318 .0236364
917.964 .0236254
918.611 .0236147
919.257 .0236045
919.903 .0235944
920.548 .0235842
921.193 .0235739
921.838 .0235641
922.482 .0235548
923.126 .0235457
923.770 .0235369
924.413 .0235286
925.056 .0235210
925.698 .0235133
926.340 .0235063
926.982 .0234991
927.623 .0234919
928.264 .0234844
928.904 .0234756
929.544 .0234660
930.184 .0234547
930.823 .0234419
931.462 .0234278
932.101 .0234121
932.739 .0233954
933.377 .0233773
934.014 .0233586
934.651 .0233395
935.288 .0233203
935.924 .0233011
936.560 .0232822
937.196 .0232636
937.831 .0232450
938.466 .0232261
939.100 .0232076
939.734 .0231897
940.368 .0231723
941.001 .0231562
941.634 .0231414
942.266 .0231278
942.899 .0231153
943.530 .0231032
944.162 .0230914
944.793 .0230792
945.423 .0230657
946.053 .0230500
946.683 .0230325
947.313 .0230132
947.942 .0229916
948.571 .0229692
949.199 .0229461
949.827 .0229223
950.455 .0228984
951.082 .0228744
951.709 .0228504
952.335 .0228263
952.961 .0228026
953.587 .0227786
954.212 .0227550
954.837 .0227317
955.462 .0227084
956.086 .0226863
956.710 .0226653
957.334 .0226453
957.957 .0226260
958.579 .0226080
959.202 .0225909
959.824 .0225742
960.445 .0225579
961.067 .0225422
961.688 .0225272
962.308 .0225125
962.928 .0224982
963.548 .0224837
964.168 .0224698
964.787 .0224562
965.406 .0224424
966.024 .0224291
966.642 .0224158
967.260 .0224028
967.877 .0223897
968.494 .0223766
969.110 .0223632
969.727 .0223489
970.342 .0223341
970.958 .0223192
971.573 .0223042
972.188 .0222893
972.802 .0222752
973.416 .0222620
974.030 .0222495
974.643 .0222379
975.256 .0222267
975.869 .0222161
976.481 .0222057
977.093 .0221958
977.705 .0221859
978.316 .0221772
978.927 .0221694
979.538 .0221625
980.148 .0221566
980.758 .0221514
981.367 .0221461
981.977 .0221410
982.586 .0221358
983.194 .0221301
983.802 .0221240
984.410 .0221179
985.018 .0221114
985.625 .0221049
986.232 .0220986
986.838 .0220925
987.445 .0220866
988.050 .0220810
988.656 .0220750
989.261 .0220693
989.866 .0220630
990.471 .0220563
991.075 .0220494
991.679 .0220424
992.282 .0220354
992.886 .0220284
993.489 .0220222
994.091 .0220167
994.694 .0220124
995.296 .0220089
995.897 .0220059
996.499 .0220034
997.100 .0220005
997.701 .0219971
998.301 .0219934
998.901 .0219894
999.501 .0219855
1000.101 .0219820
1000.700 .0219796
1001.299 .0219780
1001.898 .0219773
1002.496 .0219770
1003.094 .0219766
1003.692 .0219756
1004.289 .0219737
1004.887 .0219706
1005.484 .0219664
1006.080 .0219620
1006.677 .0219571
1007.273 .0219523
1007.868 .0219480
1008.464 .0219441
1009.059 .0219412
1009.654 .0219391
1010.249 .0219381
1010.843 .0219377
1011.437 .0219382
1012.031 .0219397
1012.625 .0219412
1013.218 .0219440
1013.811 .0219476
1014.404 .0219519
1014.997 .0219574
1015.589 .0219635
1016.181 .0219703
1016.773 .0219772
1017.365 .0219851
1017.956 .0219928
1018.547 .0220006
1019.138 .0220084
1019.728 .0220155
1020.319 .0220225
1020.909 .0220291
1021.499 .0220347
1022.088 .0220395
1022.678 .0220431
1023.267 .0220447
1023.856 .0220442
1024.445 .0220427
1025.033 .0220398
1025.621 .0220361
1026.209 .0220317
1026.797 .0220272
1027.385 .0220231
1027.972 .0220199
1028.560 .0220174
1029.147 .0220157
1029.734 .0220161
1030.320 .0220175
1030.907 .0220202
1031.493 .0220248
1032.079 .0220306
1032.665 .0220381
1033.250 .0220462
1033.836 .0220550
1034.421 .0220633
1035.006 .0220710
1035.591 .0220782
1036.176 .0220843
1036.761 .0220900
1037.345 .0220950
1037.929 .0220993
1038.514 .0221038
1039.097 .0221072
1039.681 .0221091
1040.265 .0221094
1040.848 .0221090
1041.432 .0221072
1042.015 .0221041
1042.598 .0221006
1043.181 .0220980
1043.764 .0220970
1044.346 .0220979
1044.929 .0221010
1045.511 .0221067
1046.094 .0221150
1046.676 .0221241
1047.258 .0221340
1047.840 .0221444
1048.422 .0221540
1049.003 .0221633
1049.585 .0221716
1050.166 .0221796
1050.748 .0221869
1051.329 .0221941
1051.910 .0222016
1052.491 .0222097
1053.072 .0222180
1053.653 .0222252
1054.234 .0222317
1054.815 .0222367
1055.396 .0222392
1055.976 .0222394
1056.557 .0222384
1057.138 .0222368
1057.718 .0222348
1058.298 .0222337
1058.879 .0222329
1059.459 .0222335
1060.039 .0222346
1060.620 .0222339
1061.200 .0222310
1061.780 .0222255
1062.360 .0222169
1062.940 .0222059
1063.520 .0221944
1064.101 .0221822
1064.681 .0221711
1065.261 .0221621
1065.841 .0221545
1066.421 .0221493
1067.001 .0221465
1067.581 .0221451
1068.161 .0221441
1068.741 .0221445
1069.321 .0221454
1069.901 .0221464
1070.482 .0221493
1071.062 .0221528
1071.642 .0221570
1072.222 .0221613
1072.803 .0221651
1073.383 .0221678
1073.963 .0221702
1074.544 .0221718
1075.124 .0221715
1075.705 .0221704
1076.286 .0221693
1076.866 .0221671
1077.447 .0221638
1078.028 .0221614
1078.609 .0221591
1079.190 .0221566
1079.771 .0221556
1080.352 .0221568
1080.934 .0221605
1081.515 .0221675
1082.097 .0221775
1082.679 .0221899
1083.260 .0222040
1083.842 .0222195
1084.424 .0222340
1085.007 .0222493
1085.589 .0222643
1086.172 .0222765
1086.754 .0222865
1087.337 .0222969
1087.920 .0223055
1088.503 .0223132
1089.087 .0223202
1089.670 .0223266
1090.254 .0223305
1090.838 .0223325
1091.422 .0223317
1092.006 .0223264
1092.590 .0223188
1093.175 .0223077
1093.760 .0222942
1094.345 .0222815
1094.930 .0222689
1095.516 .0222590
1096.102 .0222531
1096.688 .0222512
1097.274 .0222499
1097.860 .0222496
1098.447 .0222504
1099.034 .0222496
1099.622 .0222466
1100.209 .0222417
1100.797 .0222374
1101.385 .0222335
1101.973 .0222341
1102.562 .0222378
1103.151 .0222460
1103.740 .0222580
1104.330 .0222698
1104.920 .0222811
1105.510 .0222883
1106.101 .0222926
1106.691 .0222915
1107.283 .0222860
1107.874 .0222780
1108.466 .0222645
1109.058 .0222513
1109.651 .0222401
1110.244 .0222304
1110.837 .0222217
1111.431 .0222145
1112.025 .0222095
1112.620 .0222066
1113.215 .0222086
1113.810 .0222133
1114.406 .0222220
1115.002 .0222346
1115.599 .0222493
1116.196 .0222636
1116.793 .0222788
1117.391 .0222956
1117.989 .0223124
1118.588 .0223317
1119.187 .0223505
1119.787 .0223669
1120.387 .0223828
1120.988 .0223963
1121.589 .0224053
1122.190 .0224062
1122.793 .0223986
1123.395 .0223815
1123.998 .0223588
1124.602 .0223350
1125.206 .0223126
1125.811 .0222968
1126.416 .0222909
1127.022 .0222963
1127.628 .0223105
1128.235 .0223302
1128.843 .0223548
1129.451 .0223819
1130.059 .0224105
1130.669 .0224387
1131.278 .0224692
1131.889 .0225043
1132.500 .0225476
1133.112 .0226000
1133.724 .0226574
1134.337 .0227191
1134.950 .0227792
1135.564 .0228328
1136.179 .0228762
1136.795 .0229099
1137.411 .0229352
1138.028 .0229546
1138.645 .0229762
1139.263 .0230011
1139.882 .0230288
1140.502 .0230674
1141.122 .0231160
1141.743 .0231877
1142.365 .0232966
1142.987 .0232090
1143.611 .0233724
1144.235 .0234772
1144.859 .0239328
1145.485 .0246274
