Measurement Sequence started on: 10-20-44-796
Integration time: 35
Scans to Average: 2 
>>>>>Begin Spectral Data<<<<<
432.953 .0457332
433.882 .0311457
434.810 .0349187
435.737 .0323976
436.662 .0338546
437.586 .0346933
438.509 .0345110
439.431 .0347579
440.351 .0348594
441.269 .0349920
442.187 .0350294
443.103 .0350188
444.018 .0349909
444.932 .0349298
445.844 .0348499
446.756 .0347424
447.666 .0346165
448.575 .0344795
449.482 .0343713
450.388 .0342742
451.294 .0341972
452.198 .0341551
453.100 .0341335
454.002 .0341293
454.902 .0341490
455.801 .0341685
456.699 .0341955
457.596 .0342263
458.492 .0342542
459.387 .0342828
460.280 .0343183
461.172 .0343512
462.064 .0343837
462.954 .0344051
463.843 .0344213
464.730 .0344225
465.617 .0344172
466.503 .0344070
467.387 .0343858
468.271 .0343541
469.153 .0343148
470.035 .0342624
470.915 .0342076
471.794 .0341492
472.673 .0340892
473.550 .0340306
474.426 .0339781
475.301 .0339252
476.175 .0338706
477.048 .0338190
477.920 .0337766
478.791 .0337355
479.661 .0336997
480.530 .0336693
481.398 .0336445
482.266 .0336329
483.132 .0336305
483.997 .0336317
484.861 .0336361
485.724 .0336429
486.587 .0336466
487.448 .0336459
488.308 .0336438
489.168 .0336404
490.026 .0336373
490.884 .0336377
491.741 .0336347
492.597 .0336296
493.452 .0336208
494.306 .0336078
495.159 .0335847
496.011 .0335527
496.862 .0335079
497.713 .0334524
498.562 .0333910
499.411 .0333270
500.259 .0332543
501.106 .0331783
501.952 .0330984
502.798 .0330128
503.642 .0329123
504.486 .0328008
505.329 .0326777
506.171 .0325502
507.012 .0324212
507.852 .0323001
508.692 .0321916
509.531 .0321035
510.369 .0320329
511.206 .0319764
512.043 .0319313
512.878 .0318892
513.713 .0318367
514.547 .0317748
515.381 .0317048
516.213 .0316247
517.045 .0315351
517.876 .0314517
518.706 .0313693
519.536 .0312870
520.365 .0311972
521.193 .0310901
522.020 .0309531
522.847 .0307795
523.673 .0305643
524.498 .0303127
525.323 .0300421
526.146 .0297654
526.969 .0294956
527.792 .0292541
528.614 .0290404
529.435 .0288493
530.255 .0286772
531.075 .0285137
531.894 .0283564
532.712 .0282029
533.530 .0280538
534.347 .0279188
535.163 .0278083
535.979 .0277313
536.794 .0276840
537.608 .0276677
538.422 .0276721
539.235 .0276837
540.048 .0276996
540.860 .0276999
541.671 .0276952
542.481 .0276861
543.292 .0276705
544.101 .0276541
544.910 .0276521
545.718 .0276621
546.526 .0276890
547.333 .0277374
548.139 .0277999
548.945 .0278644
549.750 .0279294
550.555 .0279823
551.359 .0280235
552.162 .0280537
552.965 .0280734
553.768 .0280779
554.569 .0280878
555.371 .0280960
556.171 .0281102
556.972 .0281360
557.771 .0281765
558.570 .0282249
559.369 .0282847
560.167 .0283553
560.964 .0284333
561.761 .0285182
562.558 .0286095
563.354 .0287058
564.149 .0288025
564.944 .0289002
565.738 .0289950
566.532 .0290891
567.325 .0291823
568.118 .0292724
568.910 .0293602
569.702 .0294453
570.494 .0295273
571.285 .0296069
572.075 .0296807
572.865 .0297527
573.654 .0298166
574.443 .0298760
575.232 .0299311
576.020 .0299847
576.807 .0300340
577.594 .0300863
578.381 .0301419
579.167 .0302004
579.952 .0302608
580.738 .0303234
581.522 .0303832
582.307 .0304371
583.091 .0304863
583.874 .0305290
584.657 .0305662
585.440 .0306010
586.222 .0306308
587.004 .0306608
587.785 .0306893
588.566 .0307173
589.346 .0307424
590.126 .0307647
590.906 .0307827
591.685 .0307928
592.464 .0307972
593.242 .0307968
594.020 .0307927
594.797 .0307884
595.575 .0307853
596.351 .0307843
597.128 .0307857
597.904 .0307885
598.679 .0307917
599.454 .0307944
600.229 .0307954
601.004 .0307942
601.778 .0307903
602.551 .0307847
603.325 .0307772
604.097 .0307686
604.870 .0307614
605.642 .0307557
606.414 .0307507
607.185 .0307464
607.956 .0307417
608.727 .0307360
609.497 .0307278
610.267 .0307160
611.037 .0307005
611.806 .0306820
612.575 .0306598
613.344 .0306345
614.112 .0306075
614.880 .0305804
615.647 .0305531
616.414 .0305270
617.181 .0305007
617.948 .0304757
618.714 .0304501
619.480 .0304239
620.245 .0303964
621.011 .0303682
621.775 .0303388
622.540 .0303095
623.304 .0302819
624.068 .0302571
624.832 .0302343
625.595 .0302151
626.358 .0301978
627.120 .0301822
627.883 .0301655
628.645 .0301472
629.406 .0301265
630.168 .0301040
630.929 .0300797
631.689 .0300560
632.450 .0300342
633.210 .0300157
633.970 .0300001
634.729 .0299874
635.489 .0299764
636.248 .0299652
637.006 .0299524
637.765 .0299375
638.523 .0299197
639.280 .0299006
640.038 .0298799
640.795 .0298601
641.552 .0298421
642.309 .0298269
643.065 .0298147
643.821 .0298039
644.577 .0297933
645.332 .0297824
646.088 .0297700
646.843 .0297551
647.597 .0297381
648.352 .0297198
649.106 .0297009
649.860 .0296821
650.613 .0296637
651.367 .0296474
652.120 .0296328
652.872 .0296198
653.625 .0296069
654.377 .0295937
655.129 .0295789
655.881 .0295623
656.632 .0295434
657.384 .0295232
658.135 .0295012
658.885 .0294782
659.636 .0294553
660.386 .0294338
661.136 .0294136
661.885 .0293943
662.635 .0293757
663.384 .0293582
664.133 .0293389
664.881 .0293186
665.630 .0292966
666.378 .0292748
667.126 .0292521
667.874 .0292294
668.621 .0292076
669.368 .0291867
670.115 .0291671
670.862 .0291492
671.608 .0291333
672.354 .0291195
673.100 .0291066
673.846 .0290948
674.591 .0290841
675.337 .0290750
676.082 .0290658
676.826 .0290568
677.571 .0290481
678.315 .0290390
679.059 .0290285
679.803 .0290179
680.547 .0290079
681.290 .0289984
682.033 .0289898
682.776 .0289814
683.518 .0289729
684.261 .0289636
685.003 .0289527
685.745 .0289388
686.487 .0289222
687.228 .0289027
687.969 .0288799
688.710 .0288553
689.451 .0288303
690.192 .0288051
690.932 .0287811
691.672 .0287592
692.412 .0287393
693.152 .0287207
693.891 .0287034
694.630 .0286867
695.369 .0286700
696.108 .0286531
696.846 .0286354
697.585 .0286174
698.323 .0286000
699.061 .0285826
699.798 .0285660
700.536 .0285505
701.273 .0285363
702.010 .0285234
702.746 .0285107
703.483 .0284984
704.219 .0284850
704.955 .0284713
705.691 .0284567
706.427 .0284410
707.162 .0284245
707.897 .0284072
708.632 .0283890
709.367 .0283704
710.101 .0283512
710.835 .0283322
711.569 .0283132
712.303 .0282945
713.037 .0282756
713.770 .0282567
714.503 .0282378
715.236 .0282197
715.969 .0282018
716.702 .0281846
717.434 .0281677
718.166 .0281504
718.898 .0281333
719.629 .0281162
720.361 .0280998
721.092 .0280839
721.823 .0280683
722.554 .0280526
723.284 .0280371
724.014 .0280210
724.744 .0280044
725.474 .0279871
726.204 .0279689
726.933 .0279498
727.662 .0279293
728.391 .0279077
729.120 .0278854
729.849 .0278622
730.577 .0278386
731.305 .0278135
732.033 .0277871
732.760 .0277594
733.488 .0277306
734.215 .0277019
734.942 .0276736
735.669 .0276459
736.395 .0276194
737.122 .0275943
737.848 .0275705
738.573 .0275485
739.299 .0275272
740.024 .0275073
740.750 .0274885
741.474 .0274712
742.199 .0274549
742.924 .0274403
743.648 .0274282
744.372 .0274183
745.096 .0274098
745.819 .0274028
746.543 .0273959
747.266 .0273893
747.989 .0273830
748.711 .0273774
749.434 .0273720
750.156 .0273680
750.878 .0273650
751.599 .0273638
752.321 .0273634
753.042 .0273635
753.763 .0273630
754.484 .0273618
755.205 .0273598
755.925 .0273555
756.645 .0273492
757.365 .0273419
758.085 .0273329
758.804 .0273223
759.523 .0273102
760.242 .0272961
760.961 .0272801
761.679 .0272627
762.397 .0272431
763.115 .0272216
763.833 .0271994
764.551 .0271766
765.268 .0271536
765.985 .0271310
766.702 .0271091
767.418 .0270867
768.134 .0270655
768.850 .0270455
769.566 .0270256
770.282 .0270073
770.997 .0269903
771.712 .0269743
772.427 .0269601
773.142 .0269474
773.856 .0269359
774.570 .0269253
775.284 .0269158
775.998 .0269056
776.711 .0268952
777.424 .0268845
778.137 .0268730
778.849 .0268607
779.562 .0268484
780.274 .0268351
780.986 .0268212
781.697 .0268076
782.409 .0267943
783.120 .0267814
783.831 .0267697
784.541 .0267586
785.252 .0267486
785.962 .0267390
786.671 .0267297
787.381 .0267200
788.090 .0267099
788.799 .0266986
789.508 .0266861
790.217 .0266722
790.925 .0266577
791.633 .0266424
792.341 .0266274
793.048 .0266133
793.755 .0266001
794.462 .0265872
795.169 .0265750
795.875 .0265635
796.581 .0265516
797.287 .0265396
797.993 .0265272
798.698 .0265149
799.403 .0265030
800.108 .0264917
800.812 .0264814
801.517 .0264727
802.221 .0264658
802.924 .0264592
803.628 .0264532
804.331 .0264473
805.034 .0264399
805.736 .0264311
806.439 .0264210
807.141 .0264101
807.843 .0263982
808.544 .0263868
809.245 .0263753
809.946 .0263642
810.647 .0263534
811.347 .0263422
812.047 .0263302
812.747 .0263174
813.447 .0263028
814.146 .0262866
814.845 .0262697
815.543 .0262532
816.242 .0262373
816.940 .0262232
817.638 .0262104
818.335 .0261990
819.032 .0261880
819.729 .0261772
820.426 .0261657
821.122 .0261537
821.818 .0261409
822.514 .0261276
823.209 .0261139
823.905 .0261009
824.599 .0260887
825.294 .0260780
825.988 .0260679
826.682 .0260583
827.376 .0260483
828.069 .0260375
828.762 .0260255
829.455 .0260129
830.147 .0259992
830.840 .0259853
831.531 .0259711
832.223 .0259572
832.914 .0259437
833.605 .0259313
834.296 .0259193
834.986 .0259082
835.676 .0258975
836.366 .0258866
837.055 .0258751
837.744 .0258638
838.433 .0258523
839.121 .0258414
839.809 .0258310
840.497 .0258214
841.185 .0258127
841.872 .0258053
842.559 .0257984
843.245 .0257923
843.932 .0257865
844.617 .0257804
845.303 .0257732
845.988 .0257652
846.673 .0257560
847.358 .0257464
848.042 .0257367
848.726 .0257268
849.410 .0257174
850.093 .0257083
850.776 .0256994
851.459 .0256909
852.141 .0256820
852.823 .0256729
853.505 .0256635
854.186 .0256534
854.867 .0256429
855.548 .0256319
856.228 .0256209
856.908 .0256100
857.588 .0255992
858.267 .0255884
858.946 .0255780
859.625 .0255680
860.303 .0255586
860.981 .0255495
861.659 .0255409
862.336 .0255324
863.013 .0255240
863.690 .0255158
864.366 .0255074
865.042 .0254992
865.718 .0254919
866.393 .0254848
867.068 .0254784
867.743 .0254724
868.417 .0254668
869.091 .0254613
869.765 .0254553
870.438 .0254485
871.111 .0254407
871.783 .0254323
872.456 .0254232
873.127 .0254137
873.799 .0254042
874.470 .0253948
875.141 .0253861
875.811 .0253776
876.481 .0253685
877.151 .0253591
877.820 .0253488
878.489 .0253375
879.158 .0253247
879.826 .0253112
880.494 .0252971
881.162 .0252837
881.829 .0252715
882.496 .0252608
883.163 .0252517
883.829 .0252441
884.495 .0252371
885.160 .0252307
885.825 .0252243
886.490 .0252172
887.154 .0252099
887.818 .0252030
888.482 .0251963
889.145 .0251903
889.808 .0251855
890.471 .0251823
891.133 .0251804
891.795 .0251795
892.456 .0251792
893.117 .0251789
893.778 .0251787
894.439 .0251780
895.099 .0251760
895.758 .0251738
896.417 .0251711
897.076 .0251677
897.735 .0251643
898.393 .0251609
899.051 .0251575
899.708 .0251544
900.365 .0251518
901.022 .0251493
901.678 .0251468
902.334 .0251442
902.990 .0251417
903.645 .0251390
904.300 .0251363
904.954 .0251332
905.608 .0251295
906.262 .0251257
906.915 .0251216
907.568 .0251162
908.221 .0251100
908.873 .0251025
909.525 .0250935
910.176 .0250831
910.828 .0250717
911.478 .0250599
912.129 .0250476
912.778 .0250357
913.428 .0250236
914.077 .0250113
914.726 .0249995
915.375 .0249870
916.023 .0249748
916.670 .0249631
917.318 .0249519
917.964 .0249420
918.611 .0249340
919.257 .0249278
919.903 .0249235
920.548 .0249211
921.193 .0249198
921.838 .0249187
922.482 .0249179
923.126 .0249171
923.770 .0249158
924.413 .0249144
925.056 .0249127
925.698 .0249102
926.340 .0249072
926.982 .0249037
927.623 .0248991
928.264 .0248938
928.904 .0248874
929.544 .0248796
930.184 .0248705
930.823 .0248599
931.462 .0248481
932.101 .0248355
932.739 .0248220
933.377 .0248072
934.014 .0247909
934.651 .0247735
935.288 .0247556
935.924 .0247377
936.560 .0247205
937.196 .0247049
937.831 .0246914
938.466 .0246793
939.100 .0246682
939.734 .0246580
940.368 .0246479
941.001 .0246377
941.634 .0246269
942.266 .0246151
942.899 .0246020
943.530 .0245885
944.162 .0245750
944.793 .0245615
945.423 .0245484
946.053 .0245354
946.683 .0245214
947.313 .0245068
947.942 .0244901
948.571 .0244711
949.199 .0244500
949.827 .0244275
950.455 .0244026
951.082 .0243766
951.709 .0243510
952.335 .0243264
952.961 .0243028
953.587 .0242816
954.212 .0242617
954.837 .0242439
955.462 .0242275
956.086 .0242123
956.710 .0241982
957.334 .0241862
957.957 .0241754
958.579 .0241664
959.202 .0241586
959.824 .0241522
960.445 .0241462
961.067 .0241409
961.688 .0241355
962.308 .0241302
962.928 .0241240
963.548 .0241174
964.168 .0241099
964.787 .0241018
965.406 .0240918
966.024 .0240814
966.642 .0240696
967.260 .0240562
967.877 .0240409
968.494 .0240237
969.110 .0240045
969.727 .0239842
970.342 .0239633
970.958 .0239428
971.573 .0239235
972.188 .0239065
972.802 .0238908
973.416 .0238778
974.030 .0238667
974.643 .0238572
975.256 .0238484
975.869 .0238403
976.481 .0238323
977.093 .0238242
977.705 .0238167
978.316 .0238095
978.927 .0238030
979.538 .0237967
980.148 .0237903
980.758 .0237835
981.367 .0237761
981.977 .0237683
982.586 .0237597
983.194 .0237509
983.802 .0237420
984.410 .0237326
985.018 .0237229
985.625 .0237132
986.232 .0237033
986.838 .0236929
987.445 .0236821
988.050 .0236713
988.656 .0236605
989.261 .0236504
989.866 .0236411
990.471 .0236328
991.075 .0236264
991.679 .0236208
992.282 .0236162
992.886 .0236125
993.489 .0236089
994.091 .0236050
994.694 .0236014
995.296 .0235977
995.897 .0235930
996.499 .0235878
997.100 .0235818
997.701 .0235753
998.301 .0235684
998.901 .0235615
999.501 .0235546
1000.101 .0235478
1000.700 .0235413
1001.299 .0235340
1001.898 .0235273
1002.496 .0235208
1003.094 .0235143
1003.692 .0235077
1004.289 .0235003
1004.887 .0234925
1005.484 .0234843
1006.080 .0234769
1006.677 .0234704
1007.273 .0234653
1007.868 .0234621
1008.464 .0234605
1009.059 .0234603
1009.654 .0234615
1010.249 .0234640
1010.843 .0234666
1011.437 .0234689
1012.031 .0234704
1012.625 .0234708
1013.218 .0234707
1013.811 .0234706
1014.404 .0234710
1014.997 .0234720
1015.589 .0234730
1016.181 .0234737
1016.773 .0234739
1017.365 .0234734
1017.956 .0234715
1018.547 .0234685
1019.138 .0234646
1019.728 .0234600
1020.319 .0234556
1020.909 .0234523
1021.499 .0234499
1022.088 .0234484
1022.678 .0234469
1023.267 .0234446
1023.856 .0234408
1024.445 .0234359
1025.033 .0234297
1025.621 .0234233
1026.209 .0234176
1026.797 .0234122
1027.385 .0234077
1027.972 .0234047
1028.560 .0234023
1029.147 .0234003
1029.734 .0233987
1030.320 .0233968
1030.907 .0233947
1031.493 .0233936
1032.079 .0233938
1032.665 .0233952
1033.250 .0233973
1033.836 .0234002
1034.421 .0234024
1035.006 .0234043
1035.591 .0234040
1036.176 .0234012
1036.761 .0233980
1037.345 .0233938
1037.929 .0233885
1038.514 .0233848
1039.097 .0233823
1039.681 .0233804
1040.265 .0233793
1040.848 .0233774
1041.432 .0233738
1042.015 .0233689
1042.598 .0233622
1043.181 .0233532
1043.764 .0233446
1044.346 .0233371
1044.929 .0233304
1045.511 .0233274
1046.094 .0233285
1046.676 .0233317
1047.258 .0233375
1047.840 .0233443
1048.422 .0233482
1049.003 .0233495
1049.585 .0233488
1050.166 .0233441
1050.748 .0233380
1051.329 .0233309
1051.910 .0233232
1052.491 .0233167
1053.072 .0233134
1053.653 .0233104
1054.234 .0233089
1054.815 .0233086
1055.396 .0233065
1055.976 .0233014
1056.557 .0232944
1057.138 .0232848
1057.718 .0232741
1058.298 .0232643
1058.879 .0232548
1059.459 .0232442
1060.039 .0232359
1060.620 .0232271
1061.200 .0232173
1061.780 .0232065
1062.360 .0231949
1062.940 .0231829
1063.520 .0231728
1064.101 .0231628
1064.681 .0231528
1065.261 .0231450
1065.841 .0231386
1066.421 .0231315
1067.001 .0231230
1067.581 .0231137
1068.161 .0231034
1068.741 .0230925
1069.321 .0230839
1069.901 .0230769
1070.482 .0230730
1071.062 .0230729
1071.642 .0230734
1072.222 .0230748
1072.803 .0230753
1073.383 .0230727
1073.963 .0230682
1074.544 .0230638
1075.124 .0230580
1075.705 .0230528
1076.286 .0230505
1076.866 .0230528
1077.447 .0230573
1078.028 .0230627
1078.609 .0230687
1079.190 .0230726
1079.771 .0230746
1080.352 .0230733
1080.934 .0230665
1081.515 .0230613
1082.097 .0230573
1082.679 .0230541
1083.260 .0230538
1083.842 .0230570
1084.424 .0230622
1085.007 .0230675
1085.589 .0230715
1086.172 .0230716
1086.754 .0230683
1087.337 .0230637
1087.920 .0230570
1088.503 .0230485
1089.087 .0230418
1089.670 .0230375
1090.254 .0230354
1090.838 .0230356
1091.422 .0230323
1092.006 .0230265
1092.590 .0230185
1093.175 .0230065
1093.760 .0229908
1094.345 .0229719
1094.930 .0229529
1095.516 .0229354
1096.102 .0229199
1096.688 .0229057
1097.274 .0228940
1097.860 .0228855
1098.447 .0228790
1099.034 .0228738
1099.622 .0228681
1100.209 .0228623
1100.797 .0228592
1101.385 .0228568
1101.973 .0228523
1102.562 .0228483
1103.151 .0228475
1103.740 .0228481
1104.330 .0228530
1104.920 .0228625
1105.510 .0228757
1106.101 .0228942
1106.691 .0229183
1107.283 .0229414
1107.874 .0229653
1108.466 .0229910
1109.058 .0230120
1109.651 .0230307
1110.244 .0230487
1110.837 .0230644
1111.431 .0230795
1112.025 .0230995
1112.620 .0231200
1113.215 .0231396
1113.810 .0231632
1114.406 .0231847
1115.002 .0231986
1115.599 .0232073
1116.196 .0232061
1116.793 .0231944
1117.391 .0231733
1117.989 .0231427
1118.588 .0231027
1119.187 .0230617
1119.787 .0230196
1120.387 .0229793
1120.988 .0229455
1121.589 .0229220
1122.190 .0229024
1122.793 .0228892
1123.395 .0228785
1123.998 .0228670
1124.602 .0228566
1125.206 .0228529
1125.811 .0228542
1126.416 .0228672
1127.022 .0228910
1127.628 .0229334
1128.235 .0229926
1128.843 .0230674
1129.451 .0231531
1130.059 .0232456
1130.669 .0233380
1131.278 .0234277
1131.889 .0235086
1132.500 .0235844
1133.112 .0236528
1133.724 .0237164
1134.337 .0237725
1134.950 .0238218
1135.564 .0238638
1136.179 .0239007
1136.795 .0239335
1137.411 .0239662
1138.028 .0239931
1138.645 .0240215
1139.263 .0240489
1139.882 .0240763
1140.502 .0241070
1141.122 .0241395
1141.743 .0241742
1142.365 .0242093
1142.987 .0241552
1143.611 .0242905
1144.235 .0243586
1144.859 .0243927
1145.485 .0243401
