Measurement Sequence started on: 10-20-44-796
Integration time: 35
Scans to Average: 2 
>>>>>Begin Spectral Data<<<<<
432.953 .0088124
433.882 .0073666
434.810 .0187180
435.737 .0234194
436.662 .0252319
437.586 .0255669
438.509 .0276652
439.431 .0293610
440.351 .0304196
441.269 .0311757
442.187 .0317396
443.103 .0321230
444.018 .0323936
444.932 .0325856
445.844 .0327019
446.756 .0327570
447.666 .0327667
448.575 .0327419
449.482 .0327135
450.388 .0326828
451.294 .0326484
452.198 .0326281
453.100 .0326150
454.002 .0326052
454.902 .0325884
455.801 .0325770
456.699 .0325495
457.596 .0325235
458.492 .0324963
459.387 .0324710
460.280 .0324556
461.172 .0324450
462.064 .0324418
462.954 .0324365
463.843 .0324304
464.730 .0324221
465.617 .0323989
466.503 .0323728
467.387 .0323426
468.271 .0323119
469.153 .0322831
470.035 .0322635
470.915 .0322496
471.794 .0322406
472.673 .0322290
473.550 .0322115
474.426 .0321880
475.301 .0321518
476.175 .0321077
477.048 .0320584
477.920 .0320159
478.791 .0319779
479.661 .0319445
480.530 .0319244
481.398 .0319096
482.266 .0318994
483.132 .0318898
483.997 .0318781
484.861 .0318656
485.724 .0318497
486.587 .0318311
487.448 .0318095
488.308 .0317904
489.168 .0317774
490.026 .0317687
490.884 .0317638
491.741 .0317583
492.597 .0317480
493.452 .0317331
494.306 .0317145
495.159 .0316846
496.011 .0316477
496.862 .0316053
497.713 .0315585
498.562 .0315064
499.411 .0314507
500.259 .0313949
501.106 .0313422
501.952 .0312926
502.798 .0312419
503.642 .0311847
504.486 .0311303
505.329 .0310759
506.171 .0310210
507.012 .0309649
507.852 .0309045
508.692 .0308390
509.531 .0307674
510.369 .0306884
511.206 .0306002
512.043 .0304996
512.878 .0303923
513.713 .0302750
514.547 .0301489
515.381 .0300131
516.213 .0298705
517.045 .0297278
517.876 .0295787
518.706 .0294136
519.536 .0292334
520.365 .0290401
521.193 .0288297
522.020 .0286095
522.847 .0283858
523.673 .0281689
524.498 .0279675
525.323 .0277817
526.146 .0276211
526.969 .0274764
527.792 .0273489
528.614 .0272229
529.435 .0270928
530.255 .0269620
531.075 .0268162
531.894 .0266737
532.712 .0265418
533.530 .0264204
534.347 .0263182
535.163 .0262257
535.979 .0261581
536.794 .0260932
537.608 .0260297
538.422 .0259553
539.235 .0258638
540.048 .0257611
540.860 .0256448
541.671 .0255300
542.481 .0254269
543.292 .0253397
544.101 .0252728
544.910 .0252214
545.718 .0251861
546.526 .0251647
547.333 .0251544
548.139 .0251504
548.945 .0251558
549.750 .0251720
550.555 .0252082
551.359 .0252646
552.162 .0253416
552.965 .0254417
553.768 .0255584
554.569 .0256913
555.371 .0258224
556.171 .0259584
556.972 .0260954
557.771 .0262271
558.570 .0263571
559.369 .0264823
560.167 .0266048
560.964 .0267274
561.761 .0268446
562.558 .0269611
563.354 .0270713
564.149 .0271729
564.944 .0272654
565.738 .0273500
566.532 .0274250
567.325 .0274910
568.118 .0275480
568.910 .0276041
569.702 .0276546
570.494 .0277102
571.285 .0277672
572.075 .0278306
572.865 .0279012
573.654 .0279720
574.443 .0280411
575.232 .0281121
576.020 .0281814
576.807 .0282470
577.594 .0283080
578.381 .0283658
579.167 .0284212
579.952 .0284782
580.738 .0285365
581.522 .0285977
582.307 .0286607
583.091 .0287262
583.874 .0287885
584.657 .0288488
585.440 .0289071
586.222 .0289619
587.004 .0290148
587.785 .0290654
588.566 .0291133
589.346 .0291578
590.126 .0292002
590.906 .0292386
591.685 .0292725
592.464 .0293006
593.242 .0293235
594.020 .0293412
594.797 .0293553
595.575 .0293666
596.351 .0293769
597.128 .0293874
597.904 .0293980
598.679 .0294076
599.454 .0294141
600.229 .0294156
601.004 .0294123
601.778 .0294050
602.551 .0293943
603.325 .0293818
604.097 .0293700
604.870 .0293588
605.642 .0293490
606.414 .0293396
607.185 .0293295
607.956 .0293196
608.727 .0293081
609.497 .0292936
610.267 .0292753
611.037 .0292550
611.806 .0292326
612.575 .0292090
613.344 .0291847
614.112 .0291599
614.880 .0291344
615.647 .0291078
616.414 .0290794
617.181 .0290504
617.948 .0290217
618.714 .0289939
619.480 .0289684
620.245 .0289456
621.011 .0289254
621.775 .0289079
622.540 .0288918
623.304 .0288769
624.068 .0288617
624.832 .0288457
625.595 .0288287
626.358 .0288118
627.120 .0287951
627.883 .0287788
628.645 .0287642
629.406 .0287516
630.168 .0287401
630.929 .0287295
631.689 .0287190
632.450 .0287079
633.210 .0286963
633.970 .0286832
634.729 .0286680
635.489 .0286518
636.248 .0286338
637.006 .0286140
637.765 .0285924
638.523 .0285702
639.280 .0285471
640.038 .0285240
640.795 .0285009
641.552 .0284774
642.309 .0284542
643.065 .0284315
643.821 .0284094
644.577 .0283897
645.332 .0283716
646.088 .0283559
646.843 .0283420
647.597 .0283306
648.352 .0283213
649.106 .0283142
649.860 .0283082
650.613 .0283038
651.367 .0283002
652.120 .0282965
652.872 .0282925
653.625 .0282884
654.377 .0282845
655.129 .0282804
655.881 .0282763
656.632 .0282712
657.384 .0282648
658.135 .0282574
658.885 .0282484
659.636 .0282376
660.386 .0282257
661.136 .0282128
661.885 .0281999
662.635 .0281878
663.384 .0281769
664.133 .0281676
664.881 .0281608
665.630 .0281553
666.378 .0281507
667.126 .0281454
667.874 .0281393
668.621 .0281313
669.368 .0281222
670.115 .0281118
670.862 .0280999
671.608 .0280875
672.354 .0280758
673.100 .0280643
673.846 .0280532
674.591 .0280428
675.337 .0280329
676.082 .0280232
676.826 .0280136
677.571 .0280030
678.315 .0279922
679.059 .0279812
679.803 .0279702
680.547 .0279585
681.290 .0279468
682.033 .0279343
682.776 .0279206
683.518 .0279059
684.261 .0278898
685.003 .0278723
685.745 .0278543
686.487 .0278358
687.228 .0278168
687.969 .0277971
688.710 .0277767
689.451 .0277557
690.192 .0277343
690.932 .0277125
691.672 .0276908
692.412 .0276702
693.152 .0276511
693.891 .0276341
694.630 .0276190
695.369 .0276058
696.108 .0275947
696.846 .0275844
697.585 .0275744
698.323 .0275645
699.061 .0275547
699.798 .0275452
700.536 .0275360
701.273 .0275275
702.010 .0275198
702.746 .0275122
703.483 .0275044
704.219 .0274951
704.955 .0274842
705.691 .0274715
706.427 .0274570
707.162 .0274411
707.897 .0274242
708.632 .0274066
709.367 .0273886
710.101 .0273697
710.835 .0273505
711.569 .0273301
712.303 .0273083
713.037 .0272857
713.770 .0272618
714.503 .0272366
715.236 .0272115
715.969 .0271869
716.702 .0271634
717.434 .0271410
718.166 .0271194
718.898 .0270977
719.629 .0270763
720.361 .0270549
721.092 .0270331
721.823 .0270118
722.554 .0269913
723.284 .0269711
724.014 .0269520
724.744 .0269341
725.474 .0269172
726.204 .0269012
726.933 .0268860
727.662 .0268706
728.391 .0268554
729.120 .0268400
729.849 .0268247
730.577 .0268099
731.305 .0267952
732.033 .0267805
732.760 .0267652
733.488 .0267495
734.215 .0267330
734.942 .0267158
735.669 .0266973
736.395 .0266782
737.122 .0266584
737.848 .0266374
738.573 .0266157
739.299 .0265935
740.024 .0265711
740.750 .0265482
741.474 .0265252
742.199 .0265028
742.924 .0264806
743.648 .0264600
744.372 .0264399
745.096 .0264216
745.819 .0264044
746.543 .0263879
747.266 .0263725
747.989 .0263583
748.711 .0263457
749.434 .0263341
750.156 .0263238
750.878 .0263152
751.599 .0263083
752.321 .0263025
753.042 .0262981
753.763 .0262952
754.484 .0262926
755.205 .0262906
755.925 .0262888
756.645 .0262875
757.365 .0262864
758.085 .0262856
758.804 .0262851
759.523 .0262839
760.242 .0262823
760.961 .0262785
761.679 .0262733
762.397 .0262663
763.115 .0262570
763.833 .0262454
764.551 .0262326
765.268 .0262187
765.985 .0262043
766.702 .0261895
767.418 .0261741
768.134 .0261579
768.850 .0261410
769.566 .0261228
770.282 .0261035
770.997 .0260835
771.712 .0260634
772.427 .0260432
773.142 .0260242
773.856 .0260061
774.570 .0259894
775.284 .0259745
775.998 .0259606
776.711 .0259473
777.424 .0259342
778.137 .0259212
778.849 .0259079
779.562 .0258948
780.274 .0258818
780.986 .0258686
781.697 .0258563
782.409 .0258445
783.120 .0258331
783.831 .0258218
784.541 .0258105
785.252 .0257990
785.962 .0257872
786.671 .0257751
787.381 .0257629
788.090 .0257512
788.799 .0257399
789.508 .0257285
790.217 .0257170
790.925 .0257050
791.633 .0256932
792.341 .0256812
793.048 .0256693
793.755 .0256575
794.462 .0256463
795.169 .0256357
795.875 .0256255
796.581 .0256159
797.287 .0256068
797.993 .0255975
798.698 .0255886
799.403 .0255790
800.108 .0255689
800.812 .0255592
801.517 .0255501
802.221 .0255412
802.924 .0255327
803.628 .0255247
804.331 .0255171
805.034 .0255098
805.736 .0255022
806.439 .0254948
807.141 .0254874
807.843 .0254807
808.544 .0254741
809.245 .0254677
809.946 .0254624
810.647 .0254574
811.347 .0254525
812.047 .0254474
812.747 .0254415
813.447 .0254352
814.146 .0254277
814.845 .0254201
815.543 .0254119
816.242 .0254034
816.940 .0253945
817.638 .0253850
818.335 .0253746
819.032 .0253633
819.729 .0253507
820.426 .0253372
821.122 .0253230
821.818 .0253075
822.514 .0252913
823.209 .0252749
823.905 .0252583
824.599 .0252412
825.294 .0252236
825.988 .0252057
826.682 .0251873
827.376 .0251684
828.069 .0251494
828.762 .0251301
829.455 .0251108
830.147 .0250910
830.840 .0250714
831.531 .0250519
832.223 .0250322
832.914 .0250123
833.605 .0249923
834.296 .0249724
834.986 .0249532
835.676 .0249347
836.366 .0249175
837.055 .0249014
837.744 .0248872
838.433 .0248735
839.121 .0248603
839.809 .0248473
840.497 .0248348
841.185 .0248220
841.872 .0248096
842.559 .0247977
843.245 .0247868
843.932 .0247772
844.617 .0247691
845.303 .0247616
845.988 .0247553
846.673 .0247494
847.358 .0247431
848.042 .0247358
848.726 .0247279
849.410 .0247191
850.093 .0247097
850.776 .0247000
851.459 .0246904
852.141 .0246805
852.823 .0246711
853.505 .0246615
854.186 .0246510
854.867 .0246392
855.548 .0246262
856.228 .0246113
856.908 .0245952
857.588 .0245775
858.267 .0245588
858.946 .0245400
859.625 .0245220
860.303 .0245045
860.981 .0244880
861.659 .0244729
862.336 .0244590
863.013 .0244457
863.690 .0244329
864.366 .0244202
865.042 .0244079
865.718 .0243959
866.393 .0243843
867.068 .0243731
867.743 .0243634
868.417 .0243551
869.091 .0243485
869.765 .0243431
870.438 .0243388
871.111 .0243354
871.783 .0243319
872.456 .0243280
873.127 .0243233
873.799 .0243173
874.470 .0243100
875.141 .0243016
875.811 .0242920
876.481 .0242818
877.151 .0242714
877.820 .0242609
878.489 .0242508
879.158 .0242410
879.826 .0242310
880.494 .0242205
881.162 .0242092
881.829 .0241967
882.496 .0241827
883.163 .0241681
883.829 .0241525
884.495 .0241365
885.160 .0241211
885.825 .0241062
886.490 .0240927
887.154 .0240807
887.818 .0240704
888.482 .0240617
889.145 .0240542
889.808 .0240474
890.471 .0240409
891.133 .0240344
891.795 .0240278
892.456 .0240213
893.117 .0240154
893.778 .0240104
894.439 .0240065
895.099 .0240037
895.758 .0240027
896.417 .0240025
897.076 .0240028
897.735 .0240032
898.393 .0240037
899.051 .0240039
899.708 .0240029
900.365 .0240009
901.022 .0239980
901.678 .0239946
902.334 .0239906
902.990 .0239858
903.645 .0239806
904.300 .0239751
904.954 .0239686
905.608 .0239612
906.262 .0239528
906.915 .0239436
907.568 .0239332
908.221 .0239218
908.873 .0239098
909.525 .0238971
910.176 .0238840
910.828 .0238714
911.478 .0238591
912.129 .0238473
912.778 .0238357
913.428 .0238245
914.077 .0238143
914.726 .0238046
915.375 .0237956
916.023 .0237873
916.670 .0237797
917.318 .0237729
917.964 .0237662
918.611 .0237601
919.257 .0237545
919.903 .0237492
920.548 .0237439
921.193 .0237389
921.838 .0237340
922.482 .0237297
923.126 .0237260
923.770 .0237233
924.413 .0237214
925.056 .0237200
925.698 .0237196
926.340 .0237193
926.982 .0237191
927.623 .0237185
928.264 .0237173
928.904 .0237155
929.544 .0237127
930.184 .0237096
930.823 .0237060
931.462 .0237016
932.101 .0236963
932.739 .0236899
933.377 .0236821
934.014 .0236724
934.651 .0236613
935.288 .0236487
935.924 .0236353
936.560 .0236215
937.196 .0236076
937.831 .0235941
938.466 .0235812
939.100 .0235686
939.734 .0235560
940.368 .0235438
941.001 .0235322
941.634 .0235200
942.266 .0235085
942.899 .0234971
943.530 .0234861
944.162 .0234750
944.793 .0234641
945.423 .0234527
946.053 .0234409
946.683 .0234284
947.313 .0234152
947.942 .0234004
948.571 .0233849
949.199 .0233678
949.827 .0233496
950.455 .0233307
951.082 .0233118
951.709 .0232928
952.335 .0232750
952.961 .0232581
953.587 .0232430
954.212 .0232291
954.837 .0232166
955.462 .0232051
956.086 .0231940
956.710 .0231838
957.334 .0231733
957.957 .0231622
958.579 .0231511
959.202 .0231391
959.824 .0231268
960.445 .0231138
961.067 .0231002
961.688 .0230857
962.308 .0230704
962.928 .0230541
963.548 .0230359
964.168 .0230159
964.787 .0229940
965.406 .0229703
966.024 .0229457
966.642 .0229209
967.260 .0228970
967.877 .0228760
968.494 .0228579
969.110 .0228430
969.727 .0228315
970.342 .0228232
970.958 .0228174
971.573 .0228130
972.188 .0228095
972.802 .0228072
973.416 .0228061
974.030 .0228068
974.643 .0228092
975.256 .0228144
975.869 .0228220
976.481 .0228309
977.093 .0228402
977.705 .0228486
978.316 .0228549
978.927 .0228589
979.538 .0228606
980.148 .0228610
980.758 .0228598
981.367 .0228584
981.977 .0228576
982.586 .0228572
983.194 .0228567
983.802 .0228556
984.410 .0228525
985.018 .0228474
985.625 .0228393
986.232 .0228289
986.838 .0228167
987.445 .0228048
988.050 .0227930
988.656 .0227823
989.261 .0227732
989.866 .0227652
990.471 .0227573
991.075 .0227501
991.679 .0227426
992.282 .0227344
992.886 .0227253
993.489 .0227154
994.091 .0227051
994.694 .0226958
995.296 .0226871
995.897 .0226794
996.499 .0226729
997.100 .0226680
997.701 .0226637
998.301 .0226601
998.901 .0226566
999.501 .0226531
1000.101 .0226496
1000.700 .0226461
1001.299 .0226416
1001.898 .0226367
1002.496 .0226323
1003.094 .0226284
1003.692 .0226257
1004.289 .0226238
1004.887 .0226224
1005.484 .0226220
1006.080 .0226222
1006.677 .0226217
1007.273 .0226198
1007.868 .0226169
1008.464 .0226134
1009.059 .0226091
1009.654 .0226046
1010.249 .0226002
1010.843 .0225969
1011.437 .0225954
1012.031 .0225950
1012.625 .0225942
1013.218 .0225943
1013.811 .0225939
1014.404 .0225935
1014.997 .0225932
1015.589 .0225930
1016.181 .0225939
1016.773 .0225957
1017.365 .0225993
1017.956 .0226032
1018.547 .0226067
1019.138 .0226100
1019.728 .0226122
1020.319 .0226130
1020.909 .0226121
1021.499 .0226100
1022.088 .0226079
1022.678 .0226054
1023.267 .0226025
1023.856 .0225995
1024.445 .0225962
1025.033 .0225923
1025.621 .0225875
1026.209 .0225808
1026.797 .0225740
1027.385 .0225670
1027.972 .0225601
1028.560 .0225540
1029.147 .0225483
1029.734 .0225428
1030.320 .0225371
1030.907 .0225316
1031.493 .0225267
1032.079 .0225224
1032.665 .0225206
1033.250 .0225206
1033.836 .0225230
1034.421 .0225276
1035.006 .0225340
1035.591 .0225412
1036.176 .0225491
1036.761 .0225553
1037.345 .0225599
1037.929 .0225635
1038.514 .0225665
1039.097 .0225695
1039.681 .0225733
1040.265 .0225778
1040.848 .0225823
1041.432 .0225852
1042.015 .0225867
1042.598 .0225847
1043.181 .0225806
1043.764 .0225746
1044.346 .0225663
1044.929 .0225577
1045.511 .0225498
1046.094 .0225432
1046.676 .0225406
1047.258 .0225407
1047.840 .0225435
1048.422 .0225474
1049.003 .0225527
1049.585 .0225584
1050.166 .0225637
1050.748 .0225696
1051.329 .0225759
1051.910 .0225813
1052.491 .0225870
1053.072 .0225916
1053.653 .0225963
1054.234 .0226020
1054.815 .0226074
1055.396 .0226128
1055.976 .0226181
1056.557 .0226220
1057.138 .0226241
1057.718 .0226231
1058.298 .0226197
1058.879 .0226127
1059.459 .0226017
1060.039 .0225879
1060.620 .0225721
1061.200 .0225553
1061.780 .0225392
1062.360 .0225249
1062.940 .0225131
1063.520 .0225020
1064.101 .0224912
1064.681 .0224817
1065.261 .0224724
1065.841 .0224629
1066.421 .0224531
1067.001 .0224436
1067.581 .0224361
1068.161 .0224291
1068.741 .0224239
1069.321 .0224203
1069.901 .0224188
1070.482 .0224165
1071.062 .0224117
1071.642 .0224043
1072.222 .0223955
1072.803 .0223856
1073.383 .0223748
1073.963 .0223637
1074.544 .0223528
1075.124 .0223414
1075.705 .0223312
1076.286 .0223225
1076.866 .0223148
1077.447 .0223091
1078.028 .0223067
1078.609 .0223066
1079.190 .0223116
1079.771 .0223206
1080.352 .0223338
1080.934 .0223508
1081.515 .0223703
1082.097 .0223892
1082.679 .0224057
1083.260 .0224220
1083.842 .0224366
1084.424 .0224479
1085.007 .0224579
1085.589 .0224619
1086.172 .0224602
1086.754 .0224546
1087.337 .0224417
1087.920 .0224238
1088.503 .0224028
1089.087 .0223786
1089.670 .0223531
1090.254 .0223264
1090.838 .0223013
1091.422 .0222766
1092.006 .0222542
1092.590 .0222359
1093.175 .0222179
1093.760 .0222040
1094.345 .0221946
1094.930 .0221879
1095.516 .0221868
1096.102 .0221921
1096.688 .0222018
1097.274 .0222180
1097.860 .0222385
1098.447 .0222599
1099.034 .0222809
1099.622 .0222992
1100.209 .0223153
1100.797 .0223266
1101.385 .0223350
1101.973 .0223392
1102.562 .0223383
1103.151 .0223367
1103.740 .0223317
1104.330 .0223278
1104.920 .0223271
1105.510 .0223261
1106.101 .0223265
1106.691 .0223249
1107.283 .0223191
1107.874 .0223107
1108.466 .0222987
1109.058 .0222850
1109.651 .0222714
1110.244 .0222596
1110.837 .0222499
1111.431 .0222458
1112.025 .0222514
1112.620 .0222637
1113.215 .0222836
1113.810 .0223080
1114.406 .0223301
1115.002 .0223521
1115.599 .0223716
1116.196 .0223884
1116.793 .0224022
1117.391 .0224178
1117.989 .0224332
1118.588 .0224519
1119.187 .0224716
1119.787 .0224928
1120.387 .0225166
1120.988 .0225413
1121.589 .0225607
1122.190 .0225713
1122.793 .0225725
1123.395 .0225655
1123.998 .0225494
1124.602 .0225294
1125.206 .0225042
1125.811 .0224857
1126.416 .0224685
1127.022 .0224587
1127.628 .0224502
1128.235 .0224450
1128.843 .0224431
1129.451 .0224465
1130.059 .0224488
1130.669 .0224520
1131.278 .0224610
1131.889 .0224765
1132.500 .0224969
1133.112 .0225286
1133.724 .0225640
1134.337 .0226091
1134.950 .0226561
1135.564 .0227048
1136.179 .0227490
1136.795 .0227987
1137.411 .0228472
1138.028 .0228981
1138.645 .0229498
1139.263 .0230031
1139.882 .0230544
1140.502 .0231137
1141.122 .0231712
1141.743 .0232280
1142.365 .0232789
1142.987 .0232699
1143.611 .0235102
1144.235 .0234556
1144.859 .0234450
1145.485 .0233925
