Measurement Sequence started on: 10-20-44-796
Integration time: 35
Scans to Average: 2 
>>>>>Begin Spectral Data<<<<<
432.953 .0427965
433.882 .0373188
434.810 .0343470
435.737 .0324370
436.662 .0324271
437.586 .0332565
438.509 .0327047
439.431 .0324600
440.351 .0323645
441.269 .0323323
442.187 .0322930
443.103 .0322392
444.018 .0322053
444.932 .0321438
445.844 .0320832
446.756 .0320387
447.666 .0319984
448.575 .0319638
449.482 .0319420
450.388 .0319242
451.294 .0319107
452.198 .0319024
453.100 .0318918
454.002 .0318781
454.902 .0318550
455.801 .0318286
456.699 .0317968
457.596 .0317738
458.492 .0317620
459.387 .0317567
460.280 .0317564
461.172 .0317579
462.064 .0317529
462.954 .0317350
463.843 .0316982
464.730 .0316454
465.617 .0315752
466.503 .0314933
467.387 .0313994
468.271 .0313043
469.153 .0312124
470.035 .0311300
470.915 .0310541
471.794 .0309847
472.673 .0309216
473.550 .0308677
474.426 .0308205
475.301 .0307796
476.175 .0307485
477.048 .0307274
477.920 .0307170
478.791 .0307172
479.661 .0307265
480.530 .0307489
481.398 .0307786
482.266 .0308196
483.132 .0308668
483.997 .0309204
484.861 .0309750
485.724 .0310309
486.587 .0310849
487.448 .0311308
488.308 .0311653
489.168 .0311889
490.026 .0312022
490.884 .0312055
491.741 .0311989
492.597 .0311884
493.452 .0311770
494.306 .0311651
495.159 .0311495
496.011 .0311346
496.862 .0311148
497.713 .0310866
498.562 .0310439
499.411 .0309874
500.259 .0309166
501.106 .0308343
501.952 .0307444
502.798 .0306503
503.642 .0305569
504.486 .0304645
505.329 .0303744
506.171 .0302871
507.012 .0301999
507.852 .0301110
508.692 .0300165
509.531 .0299149
510.369 .0298010
511.206 .0296798
512.043 .0295536
512.878 .0294261
513.713 .0293007
514.547 .0291796
515.381 .0290636
516.213 .0289525
517.045 .0288424
517.876 .0287302
518.706 .0286166
519.536 .0284955
520.365 .0283671
521.193 .0282306
522.020 .0280861
522.847 .0279343
523.673 .0277797
524.498 .0276270
525.323 .0274698
526.146 .0273147
526.969 .0271659
527.792 .0270200
528.614 .0268763
529.435 .0267334
530.255 .0265946
531.075 .0264588
531.894 .0263282
532.712 .0261999
533.530 .0260764
534.347 .0259607
535.163 .0258492
535.979 .0257403
536.794 .0256409
537.608 .0255501
538.422 .0254687
539.235 .0253992
540.048 .0253394
540.860 .0252869
541.671 .0252426
542.481 .0252067
543.292 .0251769
544.101 .0251502
544.910 .0251330
545.718 .0251228
546.526 .0251276
547.333 .0251473
548.139 .0251805
548.945 .0252284
549.750 .0252870
550.555 .0253485
551.359 .0254064
552.162 .0254594
552.965 .0255084
553.768 .0255498
554.569 .0255891
555.371 .0256264
556.171 .0256675
556.972 .0257186
557.771 .0257806
558.570 .0258519
559.369 .0259334
560.167 .0260214
560.964 .0261120
561.761 .0262017
562.558 .0262881
563.354 .0263716
564.149 .0264527
564.944 .0265309
565.738 .0266098
566.532 .0266890
567.325 .0267703
568.118 .0268513
568.910 .0269350
569.702 .0270184
570.494 .0271018
571.285 .0271844
572.075 .0272645
572.865 .0273420
573.654 .0274144
574.443 .0274818
575.232 .0275463
576.020 .0276108
576.807 .0276763
577.594 .0277431
578.381 .0278166
579.167 .0278937
579.952 .0279761
580.738 .0280605
581.522 .0281449
582.307 .0282285
583.091 .0283083
583.874 .0283818
584.657 .0284492
585.440 .0285124
586.222 .0285713
587.004 .0286254
587.785 .0286762
588.566 .0287226
589.346 .0287640
590.126 .0287988
590.906 .0288269
591.685 .0288490
592.464 .0288668
593.242 .0288793
594.020 .0288879
594.797 .0288947
595.575 .0289000
596.351 .0289052
597.128 .0289106
597.904 .0289159
598.679 .0289211
599.454 .0289249
600.229 .0289287
601.004 .0289318
601.778 .0289344
602.551 .0289360
603.325 .0289364
604.097 .0289365
604.870 .0289344
605.642 .0289297
606.414 .0289237
607.185 .0289165
607.956 .0289081
608.727 .0288991
609.497 .0288902
610.267 .0288817
611.037 .0288735
611.806 .0288648
612.575 .0288555
613.344 .0288449
614.112 .0288333
614.880 .0288198
615.647 .0288055
616.414 .0287913
617.181 .0287774
617.948 .0287648
618.714 .0287539
619.480 .0287442
620.245 .0287352
621.011 .0287265
621.775 .0287175
622.540 .0287076
623.304 .0286968
624.068 .0286853
624.832 .0286735
625.595 .0286621
626.358 .0286513
627.120 .0286412
627.883 .0286316
628.645 .0286225
629.406 .0286129
630.168 .0286022
630.929 .0285905
631.689 .0285778
632.450 .0285643
633.210 .0285506
633.970 .0285364
634.729 .0285221
635.489 .0285071
636.248 .0284914
637.006 .0284743
637.765 .0284554
638.523 .0284345
639.280 .0284121
640.038 .0283887
640.795 .0283649
641.552 .0283413
642.309 .0283191
643.065 .0282990
643.821 .0282805
644.577 .0282635
645.332 .0282475
646.088 .0282319
646.843 .0282167
647.597 .0282003
648.352 .0281831
649.106 .0281653
649.860 .0281474
650.613 .0281298
651.367 .0281129
652.120 .0280967
652.872 .0280808
653.625 .0280658
654.377 .0280508
655.129 .0280355
655.881 .0280200
656.632 .0280038
657.384 .0279866
658.135 .0279696
658.885 .0279524
659.636 .0279354
660.386 .0279199
661.136 .0279057
661.885 .0278922
662.635 .0278803
663.384 .0278687
664.133 .0278576
664.881 .0278465
665.630 .0278352
666.378 .0278222
667.126 .0278085
667.874 .0277935
668.621 .0277768
669.368 .0277588
670.115 .0277404
670.862 .0277210
671.608 .0277018
672.354 .0276831
673.100 .0276648
673.846 .0276475
674.591 .0276316
675.337 .0276164
676.082 .0276028
676.826 .0275909
677.571 .0275803
678.315 .0275711
679.059 .0275639
679.803 .0275585
680.547 .0275543
681.290 .0275517
682.033 .0275496
682.776 .0275476
683.518 .0275454
684.261 .0275424
685.003 .0275382
685.745 .0275328
686.487 .0275265
687.228 .0275185
687.969 .0275091
688.710 .0274988
689.451 .0274866
690.192 .0274737
690.932 .0274598
691.672 .0274455
692.412 .0274305
693.152 .0274161
693.891 .0274021
694.630 .0273889
695.369 .0273768
696.108 .0273650
696.846 .0273531
697.585 .0273409
698.323 .0273282
699.061 .0273146
699.798 .0273005
700.536 .0272864
701.273 .0272719
702.010 .0272580
702.746 .0272438
703.483 .0272303
704.219 .0272168
704.955 .0272033
705.691 .0271897
706.427 .0271756
707.162 .0271612
707.897 .0271466
708.632 .0271320
709.367 .0271175
710.101 .0271029
710.835 .0270880
711.569 .0270725
712.303 .0270567
713.037 .0270405
713.770 .0270243
714.503 .0270084
715.236 .0269930
715.969 .0269780
716.702 .0269635
717.434 .0269492
718.166 .0269345
718.898 .0269189
719.629 .0269021
720.361 .0268846
721.092 .0268661
721.823 .0268473
722.554 .0268291
723.284 .0268122
724.014 .0267961
724.744 .0267809
725.474 .0267660
726.204 .0267512
726.933 .0267353
727.662 .0267181
728.391 .0266992
729.120 .0266792
729.849 .0266586
730.577 .0266383
731.305 .0266186
732.033 .0266002
732.760 .0265823
733.488 .0265657
734.215 .0265495
734.942 .0265332
735.669 .0265162
736.395 .0264988
737.122 .0264814
737.848 .0264633
738.573 .0264450
739.299 .0264275
740.024 .0264108
740.750 .0263953
741.474 .0263802
742.199 .0263653
742.924 .0263508
743.648 .0263365
744.372 .0263217
745.096 .0263071
745.819 .0262926
746.543 .0262782
747.266 .0262643
747.989 .0262511
748.711 .0262388
749.434 .0262269
750.156 .0262159
750.878 .0262051
751.599 .0261945
752.321 .0261843
753.042 .0261740
753.763 .0261644
754.484 .0261552
755.205 .0261461
755.925 .0261371
756.645 .0261280
757.365 .0261185
758.085 .0261080
758.804 .0260970
759.523 .0260851
760.242 .0260721
760.961 .0260582
761.679 .0260437
762.397 .0260285
763.115 .0260127
763.833 .0259961
764.551 .0259787
765.268 .0259606
765.985 .0259414
766.702 .0259211
767.418 .0258995
768.134 .0258768
768.850 .0258534
769.566 .0258290
770.282 .0258046
770.997 .0257800
771.712 .0257561
772.427 .0257330
773.142 .0257111
773.856 .0256899
774.570 .0256694
775.284 .0256495
775.998 .0256298
776.711 .0256100
777.424 .0255902
778.137 .0255704
778.849 .0255508
779.562 .0255318
780.274 .0255140
780.986 .0254971
781.697 .0254818
782.409 .0254676
783.120 .0254547
783.831 .0254425
784.541 .0254309
785.252 .0254196
785.962 .0254089
786.671 .0253986
787.381 .0253886
788.090 .0253787
788.799 .0253695
789.508 .0253596
790.217 .0253494
790.925 .0253384
791.633 .0253269
792.341 .0253143
793.048 .0253012
793.755 .0252880
794.462 .0252749
795.169 .0252619
795.875 .0252495
796.581 .0252376
797.287 .0252266
797.993 .0252154
798.698 .0252048
799.403 .0251947
800.108 .0251852
800.812 .0251760
801.517 .0251673
802.221 .0251594
802.924 .0251522
803.628 .0251454
804.331 .0251389
805.034 .0251331
805.736 .0251271
806.439 .0251206
807.141 .0251136
807.843 .0251060
808.544 .0250975
809.245 .0250877
809.946 .0250774
810.647 .0250661
811.347 .0250543
812.047 .0250422
812.747 .0250301
813.447 .0250189
814.146 .0250079
814.845 .0249977
815.543 .0249883
816.242 .0249798
816.940 .0249716
817.638 .0249633
818.335 .0249555
819.032 .0249479
819.729 .0249405
820.426 .0249334
821.122 .0249268
821.818 .0249204
822.514 .0249140
823.209 .0249079
823.905 .0249013
824.599 .0248942
825.294 .0248866
825.988 .0248779
826.682 .0248685
827.376 .0248586
828.069 .0248483
828.762 .0248377
829.455 .0248275
830.147 .0248170
830.840 .0248063
831.531 .0247955
832.223 .0247850
832.914 .0247744
833.605 .0247641
834.296 .0247540
834.986 .0247437
835.676 .0247339
836.366 .0247247
837.055 .0247157
837.744 .0247071
838.433 .0246986
839.121 .0246902
839.809 .0246820
840.497 .0246739
841.185 .0246666
841.872 .0246598
842.559 .0246543
843.245 .0246496
843.932 .0246454
844.617 .0246417
845.303 .0246387
845.988 .0246361
846.673 .0246337
847.358 .0246315
848.042 .0246296
848.726 .0246280
849.410 .0246269
850.093 .0246259
850.776 .0246251
851.459 .0246238
852.141 .0246215
852.823 .0246173
853.505 .0246117
854.186 .0246039
854.867 .0245945
855.548 .0245836
856.228 .0245719
856.908 .0245596
857.588 .0245473
858.267 .0245354
858.946 .0245242
859.625 .0245134
860.303 .0245028
860.981 .0244921
861.659 .0244817
862.336 .0244710
863.013 .0244607
863.690 .0244513
864.366 .0244429
865.042 .0244357
865.718 .0244297
866.393 .0244248
867.068 .0244206
867.743 .0244166
868.417 .0244121
869.091 .0244068
869.765 .0244008
870.438 .0243936
871.111 .0243857
871.783 .0243777
872.456 .0243693
873.127 .0243608
873.799 .0243521
874.470 .0243431
875.141 .0243337
875.811 .0243236
876.481 .0243123
877.151 .0243007
877.820 .0242884
878.489 .0242756
879.158 .0242629
879.826 .0242504
880.494 .0242381
881.162 .0242258
881.829 .0242138
882.496 .0242015
883.163 .0241891
883.829 .0241773
884.495 .0241656
885.160 .0241552
885.825 .0241461
886.490 .0241383
887.154 .0241316
887.818 .0241263
888.482 .0241210
889.145 .0241156
889.808 .0241102
890.471 .0241043
891.133 .0240975
891.795 .0240910
892.456 .0240843
893.117 .0240775
893.778 .0240710
894.439 .0240646
895.099 .0240574
895.758 .0240498
896.417 .0240415
897.076 .0240322
897.735 .0240224
898.393 .0240125
899.051 .0240024
899.708 .0239926
900.365 .0239831
901.022 .0239737
901.678 .0239645
902.334 .0239558
902.990 .0239471
903.645 .0239382
904.300 .0239296
904.954 .0239211
905.608 .0239129
906.262 .0239052
906.915 .0238978
907.568 .0238905
908.221 .0238832
908.873 .0238754
909.525 .0238669
910.176 .0238578
910.828 .0238482
911.478 .0238380
912.129 .0238275
912.778 .0238166
913.428 .0238054
914.077 .0237937
914.726 .0237821
915.375 .0237695
916.023 .0237563
916.670 .0237422
917.318 .0237272
917.964 .0237114
918.611 .0236947
919.257 .0236776
919.903 .0236599
920.548 .0236424
921.193 .0236254
921.838 .0236089
922.482 .0235941
923.126 .0235806
923.770 .0235687
924.413 .0235582
925.056 .0235482
925.698 .0235388
926.340 .0235296
926.982 .0235205
927.623 .0235111
928.264 .0235015
928.904 .0234921
929.544 .0234830
930.184 .0234743
930.823 .0234655
931.462 .0234569
932.101 .0234476
932.739 .0234373
933.377 .0234255
934.014 .0234124
934.651 .0233979
935.288 .0233824
935.924 .0233664
936.560 .0233498
937.196 .0233331
937.831 .0233162
938.466 .0232988
939.100 .0232814
939.734 .0232633
940.368 .0232441
941.001 .0232239
941.634 .0232035
942.266 .0231825
942.899 .0231615
943.530 .0231407
944.162 .0231198
944.793 .0230989
945.423 .0230779
946.053 .0230559
946.683 .0230334
947.313 .0230112
947.942 .0229886
948.571 .0229657
949.199 .0229427
949.827 .0229193
950.455 .0228955
951.082 .0228720
951.709 .0228483
952.335 .0228248
952.961 .0228017
953.587 .0227788
954.212 .0227562
954.837 .0227341
955.462 .0227128
956.086 .0226919
956.710 .0226722
957.334 .0226534
957.957 .0226353
958.579 .0226186
959.202 .0226035
959.824 .0225901
960.445 .0225784
961.067 .0225681
961.688 .0225587
962.308 .0225502
962.928 .0225423
963.548 .0225342
964.168 .0225264
964.787 .0225185
965.406 .0225101
966.024 .0225013
966.642 .0224922
967.260 .0224826
967.877 .0224731
968.494 .0224636
969.110 .0224538
969.727 .0224437
970.342 .0224336
970.958 .0224236
971.573 .0224140
972.188 .0224049
972.802 .0223966
973.416 .0223889
974.030 .0223817
974.643 .0223743
975.256 .0223670
975.869 .0223600
976.481 .0223529
977.093 .0223461
977.705 .0223398
978.316 .0223341
978.927 .0223290
979.538 .0223239
980.148 .0223195
980.758 .0223149
981.367 .0223101
981.977 .0223048
982.586 .0222995
983.194 .0222942
983.802 .0222886
984.410 .0222834
985.018 .0222787
985.625 .0222745
986.232 .0222710
986.838 .0222674
987.445 .0222643
988.050 .0222613
988.656 .0222583
989.261 .0222549
989.866 .0222514
990.471 .0222472
991.075 .0222429
991.679 .0222388
992.282 .0222351
992.886 .0222324
993.489 .0222308
994.091 .0222306
994.694 .0222318
995.296 .0222345
995.897 .0222381
996.499 .0222420
997.100 .0222467
997.701 .0222505
998.301 .0222538
998.901 .0222562
999.501 .0222579
1000.101 .0222594
1000.700 .0222607
1001.299 .0222620
1001.898 .0222626
1002.496 .0222632
1003.094 .0222634
1003.692 .0222628
1004.289 .0222614
1004.887 .0222592
1005.484 .0222565
1006.080 .0222534
1006.677 .0222506
1007.273 .0222481
1007.868 .0222468
1008.464 .0222464
1009.059 .0222467
1009.654 .0222481
1010.249 .0222505
1010.843 .0222540
1011.437 .0222581
1012.031 .0222625
1012.625 .0222671
1013.218 .0222713
1013.811 .0222749
1014.404 .0222779
1014.997 .0222815
1015.589 .0222855
1016.181 .0222907
1016.773 .0222977
1017.365 .0223065
1017.956 .0223168
1018.547 .0223285
1019.138 .0223403
1019.728 .0223511
1020.319 .0223611
1020.909 .0223696
1021.499 .0223767
1022.088 .0223835
1022.678 .0223897
1023.267 .0223965
1023.856 .0224045
1024.445 .0224129
1025.033 .0224210
1025.621 .0224283
1026.209 .0224343
1026.797 .0224380
1027.385 .0224391
1027.972 .0224378
1028.560 .0224345
1029.147 .0224304
1029.734 .0224262
1030.320 .0224222
1030.907 .0224195
1031.493 .0224185
1032.079 .0224187
1032.665 .0224200
1033.250 .0224213
1033.836 .0224229
1034.421 .0224245
1035.006 .0224255
1035.591 .0224261
1036.176 .0224266
1036.761 .0224275
1037.345 .0224288
1037.929 .0224309
1038.514 .0224339
1039.097 .0224384
1039.681 .0224446
1040.265 .0224515
1040.848 .0224597
1041.432 .0224684
1042.015 .0224777
1042.598 .0224870
1043.181 .0224958
1043.764 .0225038
1044.346 .0225114
1044.929 .0225188
1045.511 .0225258
1046.094 .0225315
1046.676 .0225368
1047.258 .0225411
1047.840 .0225446
1048.422 .0225471
1049.003 .0225489
1049.585 .0225504
1050.166 .0225517
1050.748 .0225522
1051.329 .0225530
1051.910 .0225537
1052.491 .0225547
1053.072 .0225551
1053.653 .0225554
1054.234 .0225554
1054.815 .0225564
1055.396 .0225576
1055.976 .0225605
1056.557 .0225645
1057.138 .0225695
1057.718 .0225749
1058.298 .0225813
1058.879 .0225879
1059.459 .0225936
1060.039 .0225991
1060.620 .0226032
1061.200 .0226050
1061.780 .0226058
1062.360 .0226054
1062.940 .0226061
1063.520 .0226070
1064.101 .0226080
1064.681 .0226084
1065.261 .0226086
1065.841 .0226083
1066.421 .0226058
1067.001 .0226026
1067.581 .0225982
1068.161 .0225930
1068.741 .0225877
1069.321 .0225820
1069.901 .0225777
1070.482 .0225744
1071.062 .0225715
1071.642 .0225682
1072.222 .0225642
1072.803 .0225601
1073.383 .0225562
1073.963 .0225538
1074.544 .0225521
1075.124 .0225512
1075.705 .0225514
1076.286 .0225538
1076.866 .0225580
1077.447 .0225642
1078.028 .0225719
1078.609 .0225814
1079.190 .0225933
1079.771 .0226058
1080.352 .0226184
1080.934 .0226312
1081.515 .0226436
1082.097 .0226561
1082.679 .0226668
1083.260 .0226758
1083.842 .0226827
1084.424 .0226886
1085.007 .0226935
1085.589 .0226962
1086.172 .0226983
1086.754 .0226999
1087.337 .0227013
1087.920 .0227019
1088.503 .0227009
1089.087 .0226990
1089.670 .0226967
1090.254 .0226947
1090.838 .0226933
1091.422 .0226935
1092.006 .0226953
1092.590 .0226995
1093.175 .0227063
1093.760 .0227135
1094.345 .0227207
1094.930 .0227266
1095.516 .0227318
1096.102 .0227348
1096.688 .0227362
1097.274 .0227366
1097.860 .0227376
1098.447 .0227395
1099.034 .0227425
1099.622 .0227445
1100.209 .0227475
1100.797 .0227495
1101.385 .0227503
1101.973 .0227499
1102.562 .0227477
1103.151 .0227439
1103.740 .0227397
1104.330 .0227352
1104.920 .0227311
1105.510 .0227263
1106.101 .0227226
1106.691 .0227165
1107.283 .0227085
1107.874 .0226987
1108.466 .0226863
1109.058 .0226713
1109.651 .0226570
1110.244 .0226422
1110.837 .0226282
1111.431 .0226162
1112.025 .0226027
1112.620 .0225871
1113.215 .0225710
1113.810 .0225549
1114.406 .0225375
1115.002 .0225204
1115.599 .0225060
1116.196 .0224898
1116.793 .0224762
1117.391 .0224636
1117.989 .0224495
1118.588 .0224368
1119.187 .0224232
1119.787 .0224067
1120.387 .0223870
1120.988 .0223675
1121.589 .0223472
1122.190 .0223279
1122.793 .0223134
1123.395 .0223009
1123.998 .0222928
1124.602 .0222908
1125.206 .0222959
1125.811 .0223073
1126.416 .0223265
1127.022 .0223493
1127.628 .0223762
1128.235 .0224075
1128.843 .0224402
1129.451 .0224748
1130.059 .0225104
1130.669 .0225485
1131.278 .0225881
1131.889 .0226256
1132.500 .0226662
1133.112 .0227066
1133.724 .0227496
1134.337 .0227909
1134.950 .0228294
1135.564 .0228663
1136.179 .0228992
1136.795 .0229311
1137.411 .0229612
1138.028 .0229893
1138.645 .0230181
1139.263 .0230467
1139.882 .0230720
1140.502 .0230970
1141.122 .0231192
1141.743 .0231414
1142.365 .0231487
1142.987 .0231071
1143.611 .0232073
1144.235 .0232068
1144.859 .0232863
1145.485 .0229171
