Measurement Sequence started on: 10-20-44-796
Integration time: 35
Scans to Average: 2 
>>>>>Begin Spectral Data<<<<<
432.953 .0273664
433.882 .0385837
434.810 .0364264
435.737 .0370407
436.662 .0370375
437.586 .0367871
438.509 .0370432
439.431 .0368878
440.351 .0367617
441.269 .0365977
442.187 .0364157
443.103 .0362344
444.018 .0360647
444.932 .0359207
445.844 .0358132
446.756 .0357185
447.666 .0356437
448.575 .0355861
449.482 .0355362
450.388 .0354932
451.294 .0354558
452.198 .0354305
453.100 .0353990
454.002 .0353731
454.902 .0353482
455.801 .0353292
456.699 .0353074
457.596 .0352974
458.492 .0352953
459.387 .0352972
460.280 .0352969
461.172 .0352946
462.064 .0352942
462.954 .0352925
463.843 .0352873
464.730 .0352796
465.617 .0352722
466.503 .0352656
467.387 .0352540
468.271 .0352450
469.153 .0352420
470.035 .0352450
470.915 .0352521
471.794 .0352650
472.673 .0352810
473.550 .0352987
474.426 .0353187
475.301 .0353365
476.175 .0353531
477.048 .0353597
477.920 .0353572
478.791 .0353428
479.661 .0353204
480.530 .0352894
481.398 .0352513
482.266 .0352126
483.132 .0351721
483.997 .0351266
484.861 .0350788
485.724 .0350297
486.587 .0349824
487.448 .0349310
488.308 .0348781
489.168 .0348242
490.026 .0347715
490.884 .0347181
491.741 .0346651
492.597 .0346131
493.452 .0345630
494.306 .0345102
495.159 .0344538
496.011 .0343958
496.862 .0343354
497.713 .0342735
498.562 .0342133
499.411 .0341543
500.259 .0340980
501.106 .0340399
501.952 .0339837
502.798 .0339266
503.642 .0338641
504.486 .0337960
505.329 .0337200
506.171 .0336381
507.012 .0335499
507.852 .0334567
508.692 .0333649
509.531 .0332754
510.369 .0331905
511.206 .0331114
512.043 .0330372
512.878 .0329650
513.713 .0328913
514.547 .0328095
515.381 .0327198
516.213 .0326151
517.045 .0324913
517.876 .0323515
518.706 .0321933
519.536 .0320266
520.365 .0318551
521.193 .0316877
522.020 .0315357
522.847 .0313978
523.673 .0312735
524.498 .0311584
525.323 .0310422
526.146 .0309183
526.969 .0307799
527.792 .0306258
528.614 .0304498
529.435 .0302602
530.255 .0300674
531.075 .0298772
531.894 .0297052
532.712 .0295576
533.530 .0294306
534.347 .0293284
535.163 .0292366
535.979 .0291471
536.794 .0290597
537.608 .0289719
538.422 .0288817
539.235 .0287904
540.048 .0287028
540.860 .0286173
541.671 .0285378
542.481 .0284728
543.292 .0284197
544.101 .0283804
544.910 .0283560
545.718 .0283418
546.526 .0283431
547.333 .0283633
548.139 .0284000
548.945 .0284524
549.750 .0285152
550.555 .0285807
551.359 .0286440
552.162 .0287039
552.965 .0287655
553.768 .0288276
554.569 .0288954
555.371 .0289656
556.171 .0290429
556.972 .0291284
557.771 .0292176
558.570 .0293101
559.369 .0294024
560.167 .0294862
560.964 .0295603
561.761 .0296216
562.558 .0296744
563.354 .0297207
564.149 .0297659
564.944 .0298098
565.738 .0298572
566.532 .0299045
567.325 .0299481
568.118 .0299852
568.910 .0300163
569.702 .0300414
570.494 .0300594
571.285 .0300754
572.075 .0300957
572.865 .0301229
573.654 .0301616
574.443 .0302122
575.232 .0302752
576.020 .0303457
576.807 .0304177
577.594 .0304861
578.381 .0305510
579.167 .0306111
579.952 .0306667
580.738 .0307214
581.522 .0307791
582.307 .0308404
583.091 .0309045
583.874 .0309712
584.657 .0310379
585.440 .0311024
586.222 .0311601
587.004 .0312078
587.785 .0312454
588.566 .0312745
589.346 .0312967
590.126 .0313145
590.906 .0313312
591.685 .0313481
592.464 .0313647
593.242 .0313809
594.020 .0313936
594.797 .0314039
595.575 .0314102
596.351 .0314132
597.128 .0314122
597.904 .0314097
598.679 .0314059
599.454 .0314013
600.229 .0313977
601.004 .0313934
601.778 .0313877
602.551 .0313806
603.325 .0313702
604.097 .0313571
604.870 .0313408
605.642 .0313218
606.414 .0313004
607.185 .0312787
607.956 .0312558
608.727 .0312321
609.497 .0312086
610.267 .0311853
611.037 .0311609
611.806 .0311367
612.575 .0311120
613.344 .0310872
614.112 .0310631
614.880 .0310392
615.647 .0310148
616.414 .0309920
617.181 .0309699
617.948 .0309482
618.714 .0309276
619.480 .0309081
620.245 .0308887
621.011 .0308690
621.775 .0308493
622.540 .0308279
623.304 .0308055
624.068 .0307820
624.832 .0307560
625.595 .0307289
626.358 .0307011
627.120 .0306725
627.883 .0306435
628.645 .0306150
629.406 .0305864
630.168 .0305570
630.929 .0305282
631.689 .0304992
632.450 .0304699
633.210 .0304409
633.970 .0304122
634.729 .0303840
635.489 .0303567
636.248 .0303304
637.006 .0303047
637.765 .0302805
638.523 .0302572
639.280 .0302345
640.038 .0302124
640.795 .0301913
641.552 .0301705
642.309 .0301500
643.065 .0301305
643.821 .0301110
644.577 .0300917
645.332 .0300727
646.088 .0300533
646.843 .0300341
647.597 .0300146
648.352 .0299952
649.106 .0299765
649.860 .0299586
650.613 .0299415
651.367 .0299258
652.120 .0299113
652.872 .0298982
653.625 .0298864
654.377 .0298760
655.129 .0298671
655.881 .0298590
656.632 .0298519
657.384 .0298450
658.135 .0298390
658.885 .0298331
659.636 .0298268
660.386 .0298202
661.136 .0298125
661.885 .0298037
662.635 .0297939
663.384 .0297835
664.133 .0297722
664.881 .0297598
665.630 .0297466
666.378 .0297325
667.126 .0297172
667.874 .0296999
668.621 .0296813
669.368 .0296614
670.115 .0296406
670.862 .0296187
671.608 .0295971
672.354 .0295771
673.100 .0295582
673.846 .0295409
674.591 .0295244
675.337 .0295092
676.082 .0294950
676.826 .0294812
677.571 .0294682
678.315 .0294562
679.059 .0294456
679.803 .0294367
680.547 .0294294
681.290 .0294229
682.033 .0294161
682.776 .0294081
683.518 .0293976
684.261 .0293845
685.003 .0293680
685.745 .0293484
686.487 .0293270
687.228 .0293046
687.969 .0292812
688.710 .0292579
689.451 .0292352
690.192 .0292130
690.932 .0291906
691.672 .0291677
692.412 .0291440
693.152 .0291195
693.891 .0290949
694.630 .0290706
695.369 .0290472
696.108 .0290260
696.846 .0290067
697.585 .0289894
698.323 .0289740
699.061 .0289596
699.798 .0289447
700.536 .0289292
701.273 .0289118
702.010 .0288921
702.746 .0288701
703.483 .0288463
704.219 .0288208
704.955 .0287947
705.691 .0287683
706.427 .0287417
707.162 .0287156
707.897 .0286903
708.632 .0286648
709.367 .0286393
710.101 .0286139
710.835 .0285884
711.569 .0285634
712.303 .0285391
713.037 .0285157
713.770 .0284935
714.503 .0284724
715.236 .0284522
715.969 .0284327
716.702 .0284139
717.434 .0283956
718.166 .0283770
718.898 .0283586
719.629 .0283404
720.361 .0283223
721.092 .0283047
721.823 .0282874
722.554 .0282701
723.284 .0282526
724.014 .0282340
724.744 .0282145
725.474 .0281939
726.204 .0281724
726.933 .0281503
727.662 .0281276
728.391 .0281048
729.120 .0280819
729.849 .0280592
730.577 .0280373
731.305 .0280154
732.033 .0279938
732.760 .0279720
733.488 .0279504
734.215 .0279288
734.942 .0279074
735.669 .0278864
736.395 .0278659
737.122 .0278459
737.848 .0278264
738.573 .0278072
739.299 .0277885
740.024 .0277706
740.750 .0277536
741.474 .0277368
742.199 .0277204
742.924 .0277040
743.648 .0276877
744.372 .0276711
745.096 .0276544
745.819 .0276372
746.543 .0276199
747.266 .0276027
747.989 .0275862
748.711 .0275711
749.434 .0275580
750.156 .0275472
750.878 .0275388
751.599 .0275326
752.321 .0275281
753.042 .0275246
753.763 .0275222
754.484 .0275201
755.205 .0275181
755.925 .0275162
756.645 .0275143
757.365 .0275127
758.085 .0275115
758.804 .0275106
759.523 .0275094
760.242 .0275070
760.961 .0275025
761.679 .0274958
762.397 .0274858
763.115 .0274725
763.833 .0274562
764.551 .0274376
765.268 .0274178
765.985 .0273977
766.702 .0273775
767.418 .0273586
768.134 .0273408
768.850 .0273239
769.566 .0273070
770.282 .0272904
770.997 .0272739
771.712 .0272570
772.427 .0272404
773.142 .0272244
773.856 .0272087
774.570 .0271938
775.284 .0271798
775.998 .0271664
776.711 .0271535
777.424 .0271409
778.137 .0271282
778.849 .0271156
779.562 .0271030
780.274 .0270899
780.986 .0270767
781.697 .0270636
782.409 .0270506
783.120 .0270376
783.831 .0270255
784.541 .0270145
785.252 .0270050
785.962 .0269976
786.671 .0269920
787.381 .0269884
788.090 .0269864
788.799 .0269852
789.508 .0269842
790.217 .0269827
790.925 .0269802
791.633 .0269765
792.341 .0269718
793.048 .0269657
793.755 .0269584
794.462 .0269503
795.169 .0269413
795.875 .0269318
796.581 .0269214
797.287 .0269100
797.993 .0268978
798.698 .0268845
799.403 .0268705
800.108 .0268559
800.812 .0268415
801.517 .0268269
802.221 .0268122
802.924 .0267973
803.628 .0267820
804.331 .0267669
805.034 .0267524
805.736 .0267384
806.439 .0267251
807.141 .0267125
807.843 .0267008
808.544 .0266900
809.245 .0266798
809.946 .0266693
810.647 .0266589
811.347 .0266479
812.047 .0266363
812.747 .0266241
813.447 .0266117
814.146 .0265998
814.845 .0265886
815.543 .0265776
816.242 .0265668
816.940 .0265561
817.638 .0265449
818.335 .0265328
819.032 .0265201
819.729 .0265062
820.426 .0264912
821.122 .0264752
821.818 .0264585
822.514 .0264412
823.209 .0264237
823.905 .0264057
824.599 .0263870
825.294 .0263674
825.988 .0263458
826.682 .0263227
827.376 .0262987
828.069 .0262740
828.762 .0262493
829.455 .0262248
830.147 .0262010
830.840 .0261780
831.531 .0261557
832.223 .0261342
832.914 .0261128
833.605 .0260917
834.296 .0260700
834.986 .0260480
835.676 .0260262
836.366 .0260047
837.055 .0259837
837.744 .0259638
838.433 .0259450
839.121 .0259269
839.809 .0259092
840.497 .0258921
841.185 .0258752
841.872 .0258583
842.559 .0258415
843.245 .0258250
843.932 .0258091
844.617 .0257943
845.303 .0257807
845.988 .0257685
846.673 .0257573
847.358 .0257468
848.042 .0257365
848.726 .0257260
849.410 .0257152
850.093 .0257039
850.776 .0256922
851.459 .0256805
852.141 .0256683
852.823 .0256558
853.505 .0256430
854.186 .0256296
854.867 .0256148
855.548 .0255986
856.228 .0255810
856.908 .0255622
857.588 .0255422
858.267 .0255221
858.946 .0255018
859.625 .0254821
860.303 .0254631
860.981 .0254444
861.659 .0254259
862.336 .0254075
863.013 .0253890
863.690 .0253704
864.366 .0253521
865.042 .0253346
865.718 .0253183
866.393 .0253035
867.068 .0252902
867.743 .0252782
868.417 .0252671
869.091 .0252566
869.765 .0252459
870.438 .0252353
871.111 .0252246
871.783 .0252142
872.456 .0252045
873.127 .0251950
873.799 .0251860
874.470 .0251773
875.141 .0251688
875.811 .0251596
876.481 .0251496
877.151 .0251391
877.820 .0251278
878.489 .0251159
879.158 .0251033
879.826 .0250900
880.494 .0250762
881.162 .0250619
881.829 .0250464
882.496 .0250297
883.163 .0250122
883.829 .0249944
884.495 .0249768
885.160 .0249601
885.825 .0249445
886.490 .0249309
887.154 .0249193
887.818 .0249093
888.482 .0249001
889.145 .0248917
889.808 .0248842
890.471 .0248773
891.133 .0248713
891.795 .0248665
892.456 .0248633
893.117 .0248620
893.778 .0248618
894.439 .0248627
895.099 .0248637
895.758 .0248647
896.417 .0248649
897.076 .0248638
897.735 .0248617
898.393 .0248586
899.051 .0248551
899.708 .0248517
900.365 .0248485
901.022 .0248451
901.678 .0248417
902.334 .0248381
902.990 .0248335
903.645 .0248282
904.300 .0248219
904.954 .0248153
905.608 .0248085
906.262 .0248022
906.915 .0247964
907.568 .0247915
908.221 .0247880
908.873 .0247848
909.525 .0247819
910.176 .0247791
910.828 .0247761
911.478 .0247733
912.129 .0247705
912.778 .0247682
913.428 .0247663
914.077 .0247656
914.726 .0247655
915.375 .0247663
916.023 .0247679
916.670 .0247701
917.318 .0247729
917.964 .0247757
918.611 .0247782
919.257 .0247800
919.903 .0247812
920.548 .0247821
921.193 .0247825
921.838 .0247829
922.482 .0247830
923.126 .0247836
923.770 .0247843
924.413 .0247851
925.056 .0247859
925.698 .0247871
926.340 .0247880
926.982 .0247885
927.623 .0247881
928.264 .0247869
928.904 .0247851
929.544 .0247828
930.184 .0247795
930.823 .0247756
931.462 .0247710
932.101 .0247656
932.739 .0247591
933.377 .0247516
934.014 .0247428
934.651 .0247326
935.288 .0247211
935.924 .0247085
936.560 .0246955
937.196 .0246824
937.831 .0246693
938.466 .0246565
939.100 .0246437
939.734 .0246311
940.368 .0246181
941.001 .0246053
941.634 .0245928
942.266 .0245808
942.899 .0245694
943.530 .0245586
944.162 .0245484
944.793 .0245386
945.423 .0245289
946.053 .0245192
946.683 .0245088
947.313 .0244976
947.942 .0244850
948.571 .0244712
949.199 .0244563
949.827 .0244403
950.455 .0244235
951.082 .0244069
951.709 .0243906
952.335 .0243748
952.961 .0243595
953.587 .0243449
954.212 .0243308
954.837 .0243172
955.462 .0243037
956.086 .0242903
956.710 .0242775
957.334 .0242653
957.957 .0242533
958.579 .0242426
959.202 .0242329
959.824 .0242239
960.445 .0242159
961.067 .0242085
961.688 .0242013
962.308 .0241944
962.928 .0241877
963.548 .0241808
964.168 .0241741
964.787 .0241679
965.406 .0241616
966.024 .0241559
966.642 .0241507
967.260 .0241453
967.877 .0241399
968.494 .0241342
969.110 .0241275
969.727 .0241195
970.342 .0241108
970.958 .0241016
971.573 .0240924
972.188 .0240838
972.802 .0240756
973.416 .0240678
974.030 .0240603
974.643 .0240521
975.256 .0240430
975.869 .0240331
976.481 .0240227
977.093 .0240122
977.705 .0240021
978.316 .0239935
978.927 .0239866
979.538 .0239810
980.148 .0239764
980.758 .0239720
981.367 .0239672
981.977 .0239615
982.586 .0239545
983.194 .0239469
983.802 .0239388
984.410 .0239306
985.018 .0239227
985.625 .0239150
986.232 .0239079
986.838 .0239002
987.445 .0238916
988.050 .0238828
988.656 .0238729
989.261 .0238625
989.866 .0238518
990.471 .0238419
991.075 .0238328
991.679 .0238244
992.282 .0238169
992.886 .0238095
993.489 .0238025
994.091 .0237953
994.694 .0237878
995.296 .0237806
995.897 .0237739
996.499 .0237669
997.100 .0237604
997.701 .0237551
998.301 .0237502
998.901 .0237459
999.501 .0237419
1000.101 .0237382
1000.700 .0237342
1001.299 .0237300
1001.898 .0237255
1002.496 .0237203
1003.094 .0237147
1003.692 .0237076
1004.289 .0236993
1004.887 .0236907
1005.484 .0236810
1006.080 .0236704
1006.677 .0236598
1007.273 .0236490
1007.868 .0236376
1008.464 .0236258
1009.059 .0236133
1009.654 .0236005
1010.249 .0235878
1010.843 .0235752
1011.437 .0235627
1012.031 .0235512
1012.625 .0235410
1013.218 .0235319
1013.811 .0235243
1014.404 .0235178
1014.997 .0235118
1015.589 .0235063
1016.181 .0235008
1016.773 .0234951
1017.365 .0234896
1017.956 .0234836
1018.547 .0234778
1019.138 .0234718
1019.728 .0234651
1020.319 .0234573
1020.909 .0234494
1021.499 .0234403
1022.088 .0234306
1022.678 .0234201
1023.267 .0234097
1023.856 .0233992
1024.445 .0233898
1025.033 .0233808
1025.621 .0233723
1026.209 .0233642
1026.797 .0233567
1027.385 .0233492
1027.972 .0233430
1028.560 .0233367
1029.147 .0233310
1029.734 .0233261
1030.320 .0233215
1030.907 .0233158
1031.493 .0233098
1032.079 .0233035
1032.665 .0232968
1033.250 .0232886
1033.836 .0232800
1034.421 .0232702
1035.006 .0232599
1035.591 .0232485
1036.176 .0232361
1036.761 .0232224
1037.345 .0232080
1037.929 .0231917
1038.514 .0231751
1039.097 .0231587
1039.681 .0231435
1040.265 .0231288
1040.848 .0231162
1041.432 .0231061
1042.015 .0230976
1042.598 .0230901
1043.181 .0230847
1043.764 .0230806
1044.346 .0230784
1044.929 .0230773
1045.511 .0230782
1046.094 .0230811
1046.676 .0230856
1047.258 .0230904
1047.840 .0230950
1048.422 .0230986
1049.003 .0230999
1049.585 .0230984
1050.166 .0230951
1050.748 .0230897
1051.329 .0230822
1051.910 .0230738
1052.491 .0230650
1053.072 .0230564
1053.653 .0230479
1054.234 .0230392
1054.815 .0230306
1055.396 .0230228
1055.976 .0230153
1056.557 .0230071
1057.138 .0229996
1057.718 .0229929
1058.298 .0229864
1058.879 .0229809
1059.459 .0229764
1060.039 .0229728
1060.620 .0229699
1061.200 .0229682
1061.780 .0229667
1062.360 .0229645
1062.940 .0229610
1063.520 .0229559
1064.101 .0229488
1064.681 .0229406
1065.261 .0229300
1065.841 .0229173
1066.421 .0229053
1067.001 .0228929
1067.581 .0228805
1068.161 .0228693
1068.741 .0228598
1069.321 .0228518
1069.901 .0228444
1070.482 .0228384
1071.062 .0228315
1071.642 .0228245
1072.222 .0228186
1072.803 .0228112
1073.383 .0228037
1073.963 .0227959
1074.544 .0227878
1075.124 .0227788
1075.705 .0227696
1076.286 .0227592
1076.866 .0227487
1077.447 .0227391
1078.028 .0227302
1078.609 .0227225
1079.190 .0227170
1079.771 .0227139
1080.352 .0227121
1080.934 .0227126
1081.515 .0227145
1082.097 .0227154
1082.679 .0227177
1083.260 .0227196
1083.842 .0227221
1084.424 .0227257
1085.007 .0227308
1085.589 .0227385
1086.172 .0227474
1086.754 .0227581
1087.337 .0227688
1087.920 .0227796
1088.503 .0227892
1089.087 .0227955
1089.670 .0227987
1090.254 .0227987
1090.838 .0227938
1091.422 .0227860
1092.006 .0227770
1092.590 .0227666
1093.175 .0227559
1093.760 .0227444
1094.345 .0227320
1094.930 .0227183
1095.516 .0227030
1096.102 .0226869
1096.688 .0226693
1097.274 .0226527
1097.860 .0226358
1098.447 .0226201
1099.034 .0226071
1099.622 .0225967
1100.209 .0225878
1100.797 .0225831
1101.385 .0225800
1101.973 .0225778
1102.562 .0225789
1103.151 .0225813
1103.740 .0225855
1104.330 .0225916
1104.920 .0226008
1105.510 .0226103
1106.101 .0226210
1106.691 .0226338
1107.283 .0226452
1107.874 .0226566
1108.466 .0226689
1109.058 .0226798
1109.651 .0226929
1110.244 .0227063
1110.837 .0227186
1111.431 .0227295
1112.025 .0227406
1112.620 .0227482
1113.215 .0227536
1113.810 .0227566
1114.406 .0227596
1115.002 .0227622
1115.599 .0227671
1116.196 .0227728
1116.793 .0227784
1117.391 .0227850
1117.989 .0227900
1118.588 .0227920
1119.187 .0227918
1119.787 .0227877
1120.387 .0227871
1120.988 .0227897
1121.589 .0227973
1122.190 .0228102
1122.793 .0228300
1123.395 .0228544
1123.998 .0228817
1124.602 .0229101
1125.206 .0229377
1125.811 .0229676
1126.416 .0229994
1127.022 .0230312
1127.628 .0230669
1128.235 .0231046
1128.843 .0231438
1129.451 .0231866
1130.059 .0232286
1130.669 .0232641
1131.278 .0232942
1131.889 .0233205
1132.500 .0233402
1133.112 .0233564
1133.724 .0233733
1134.337 .0233931
1134.950 .0234162
1135.564 .0234471
1136.179 .0234794
1136.795 .0235209
1137.411 .0235707
1138.028 .0236214
1138.645 .0236755
1139.263 .0237329
1139.882 .0238022
1140.502 .0238783
1141.122 .0239634
1141.743 .0240697
1142.365 .0241720
1142.987 .0243548
1143.611 .0244370
1144.235 .0245085
1144.859 .0248681
1145.485 .0245347
