Measurement Sequence started on: 10-20-44-796
Integration time: 35
Scans to Average: 2 
>>>>>Begin Spectral Data<<<<<
432.953 .0517880
433.882 .0358802
434.810 .0320362
435.737 .0317730
436.662 .0323626
437.586 .0330543
438.509 .0321760
439.431 .0319157
440.351 .0317694
441.269 .0316235
442.187 .0314780
443.103 .0313605
444.018 .0312946
444.932 .0312534
445.844 .0312385
446.756 .0312302
447.666 .0312148
448.575 .0311824
449.482 .0311466
450.388 .0311082
451.294 .0310744
452.198 .0310501
453.100 .0310354
454.002 .0310295
454.902 .0310333
455.801 .0310335
456.699 .0310387
457.596 .0310419
458.492 .0310384
459.387 .0310254
460.280 .0310070
461.172 .0309829
462.064 .0309552
462.954 .0309240
463.843 .0308940
464.730 .0308680
465.617 .0308496
466.503 .0308416
467.387 .0308399
468.271 .0308471
469.153 .0308604
470.035 .0308774
470.915 .0308959
471.794 .0309131
472.673 .0309280
473.550 .0309416
474.426 .0309537
475.301 .0309622
476.175 .0309671
477.048 .0309695
477.920 .0309699
478.791 .0309677
479.661 .0309633
480.530 .0309580
481.398 .0309506
482.266 .0309452
483.132 .0309408
483.997 .0309358
484.861 .0309307
485.724 .0309258
486.587 .0309229
487.448 .0309200
488.308 .0309178
489.168 .0309156
490.026 .0309135
490.884 .0309107
491.741 .0309060
492.597 .0308975
493.452 .0308877
494.306 .0308743
495.159 .0308559
496.011 .0308310
496.862 .0308019
497.713 .0307645
498.562 .0307196
499.411 .0306660
500.259 .0306058
501.106 .0305347
501.952 .0304537
502.798 .0303643
503.642 .0302690
504.486 .0301672
505.329 .0300598
506.171 .0299478
507.012 .0298356
507.852 .0297166
508.692 .0295938
509.531 .0294673
510.369 .0293401
511.206 .0292125
512.043 .0290831
512.878 .0289512
513.713 .0288215
514.547 .0286875
515.381 .0285479
516.213 .0284038
517.045 .0282556
517.876 .0281025
518.706 .0279476
519.536 .0277968
520.365 .0276480
521.193 .0275011
522.020 .0273594
522.847 .0272118
523.673 .0270566
524.498 .0268873
525.323 .0266985
526.146 .0264985
526.969 .0262952
527.792 .0260893
528.614 .0258916
529.435 .0257193
530.255 .0255727
531.075 .0254429
531.894 .0253351
532.712 .0252420
533.530 .0251613
534.347 .0250905
535.163 .0250224
535.979 .0249621
536.794 .0249176
537.608 .0248851
538.422 .0248625
539.235 .0248537
540.048 .0248551
540.860 .0248607
541.671 .0248710
542.481 .0248845
543.292 .0248936
544.101 .0249059
544.910 .0249223
545.718 .0249384
546.526 .0249577
547.333 .0249781
548.139 .0250034
548.945 .0250346
549.750 .0250646
550.555 .0251023
551.359 .0251452
552.162 .0251989
552.965 .0252569
553.768 .0253161
554.569 .0253797
555.371 .0254429
556.171 .0255036
556.972 .0255625
557.771 .0256201
558.570 .0256756
559.369 .0257271
560.167 .0257819
560.964 .0258396
561.761 .0258980
562.558 .0259601
563.354 .0260278
564.149 .0260944
564.944 .0261619
565.738 .0262284
566.532 .0262954
567.325 .0263672
568.118 .0264384
568.910 .0265072
569.702 .0265779
570.494 .0266514
571.285 .0267251
572.075 .0268006
572.865 .0268814
573.654 .0269658
574.443 .0270527
575.232 .0271432
576.020 .0272358
576.807 .0273323
577.594 .0274313
578.381 .0275278
579.167 .0276212
579.952 .0277114
580.738 .0277970
581.522 .0278785
582.307 .0279557
583.091 .0280274
583.874 .0280941
584.657 .0281549
585.440 .0282099
586.222 .0282595
587.004 .0283029
587.785 .0283396
588.566 .0283719
589.346 .0284002
590.126 .0284250
590.906 .0284479
591.685 .0284708
592.464 .0284930
593.242 .0285138
594.020 .0285325
594.797 .0285487
595.575 .0285633
596.351 .0285761
597.128 .0285859
597.904 .0285931
598.679 .0285992
599.454 .0286026
600.229 .0286041
601.004 .0286044
601.778 .0286027
602.551 .0285989
603.325 .0285924
604.097 .0285838
604.870 .0285734
605.642 .0285626
606.414 .0285520
607.185 .0285412
607.956 .0285315
608.727 .0285222
609.497 .0285135
610.267 .0285053
611.037 .0284980
611.806 .0284900
612.575 .0284814
613.344 .0284718
614.112 .0284613
614.880 .0284502
615.647 .0284387
616.414 .0284273
617.181 .0284158
617.948 .0284041
618.714 .0283920
619.480 .0283794
620.245 .0283667
621.011 .0283531
621.775 .0283393
622.540 .0283249
623.304 .0283103
624.068 .0282956
624.832 .0282809
625.595 .0282666
626.358 .0282529
627.120 .0282396
627.883 .0282259
628.645 .0282127
629.406 .0281997
630.168 .0281871
630.929 .0281751
631.689 .0281635
632.450 .0281517
633.210 .0281399
633.970 .0281275
634.729 .0281131
635.489 .0280972
636.248 .0280799
637.006 .0280601
637.765 .0280384
638.523 .0280149
639.280 .0279900
640.038 .0279644
640.795 .0279388
641.552 .0279131
642.309 .0278882
643.065 .0278645
643.821 .0278417
644.577 .0278196
645.332 .0277987
646.088 .0277781
646.843 .0277579
647.597 .0277381
648.352 .0277191
649.106 .0277011
649.860 .0276847
650.613 .0276697
651.367 .0276572
652.120 .0276466
652.872 .0276375
653.625 .0276295
654.377 .0276225
655.129 .0276156
655.881 .0276070
656.632 .0275965
657.384 .0275838
658.135 .0275692
658.885 .0275528
659.636 .0275350
660.386 .0275170
661.136 .0274995
661.885 .0274819
662.635 .0274651
663.384 .0274493
664.133 .0274340
664.881 .0274188
665.630 .0274033
666.378 .0273870
667.126 .0273701
667.874 .0273525
668.621 .0273349
669.368 .0273174
670.115 .0273009
670.862 .0272847
671.608 .0272698
672.354 .0272567
673.100 .0272448
673.846 .0272339
674.591 .0272238
675.337 .0272142
676.082 .0272045
676.826 .0271944
677.571 .0271840
678.315 .0271736
679.059 .0271638
679.803 .0271542
680.547 .0271453
681.290 .0271374
682.033 .0271301
682.776 .0271230
683.518 .0271162
684.261 .0271091
685.003 .0271016
685.745 .0270932
686.487 .0270839
687.228 .0270739
687.969 .0270634
688.710 .0270528
689.451 .0270421
690.192 .0270314
690.932 .0270203
691.672 .0270086
692.412 .0269960
693.152 .0269821
693.891 .0269670
694.630 .0269509
695.369 .0269343
696.108 .0269171
696.846 .0268998
697.585 .0268830
698.323 .0268670
699.061 .0268516
699.798 .0268363
700.536 .0268214
701.273 .0268066
702.010 .0267915
702.746 .0267763
703.483 .0267613
704.219 .0267467
704.955 .0267327
705.691 .0267195
706.427 .0267074
707.162 .0266968
707.897 .0266874
708.632 .0266794
709.367 .0266727
710.101 .0266661
710.835 .0266590
711.569 .0266511
712.303 .0266426
713.037 .0266329
713.770 .0266219
714.503 .0266097
715.236 .0265969
715.969 .0265836
716.702 .0265698
717.434 .0265556
718.166 .0265414
718.898 .0265260
719.629 .0265099
720.361 .0264923
721.092 .0264734
721.823 .0264533
722.554 .0264324
723.284 .0264110
724.014 .0263890
724.744 .0263666
725.474 .0263441
726.204 .0263219
726.933 .0263004
727.662 .0262791
728.391 .0262588
729.120 .0262395
729.849 .0262214
730.577 .0262043
731.305 .0261882
732.033 .0261729
732.760 .0261578
733.488 .0261427
734.215 .0261271
734.942 .0261109
735.669 .0260939
736.395 .0260767
737.122 .0260597
737.848 .0260428
738.573 .0260260
739.299 .0260094
740.024 .0259931
740.750 .0259768
741.474 .0259599
742.199 .0259421
742.924 .0259234
743.648 .0259038
744.372 .0258832
745.096 .0258624
745.819 .0258415
746.543 .0258212
747.266 .0258020
747.989 .0257845
748.711 .0257682
749.434 .0257533
750.156 .0257397
750.878 .0257272
751.599 .0257156
752.321 .0257046
753.042 .0256940
753.763 .0256845
754.484 .0256759
755.205 .0256679
755.925 .0256614
756.645 .0256560
757.365 .0256509
758.085 .0256466
758.804 .0256417
759.523 .0256358
760.242 .0256285
760.961 .0256202
761.679 .0256103
762.397 .0255992
763.115 .0255870
763.833 .0255735
764.551 .0255592
765.268 .0255434
765.985 .0255258
766.702 .0255069
767.418 .0254870
768.134 .0254658
768.850 .0254442
769.566 .0254227
770.282 .0254017
770.997 .0253817
771.712 .0253628
772.427 .0253451
773.142 .0253286
773.856 .0253127
774.570 .0252972
775.284 .0252820
775.998 .0252670
776.711 .0252518
777.424 .0252367
778.137 .0252215
778.849 .0252061
779.562 .0251909
780.274 .0251757
780.986 .0251608
781.697 .0251462
782.409 .0251319
783.120 .0251175
783.831 .0251037
784.541 .0250904
785.252 .0250777
785.962 .0250656
786.671 .0250538
787.381 .0250425
788.090 .0250314
788.799 .0250204
789.508 .0250098
790.217 .0249996
790.925 .0249896
791.633 .0249793
792.341 .0249688
793.048 .0249579
793.755 .0249467
794.462 .0249348
795.169 .0249223
795.875 .0249097
796.581 .0248968
797.287 .0248838
797.993 .0248712
798.698 .0248593
799.403 .0248475
800.108 .0248360
800.812 .0248250
801.517 .0248140
802.221 .0248032
802.924 .0247927
803.628 .0247827
804.331 .0247738
805.034 .0247658
805.736 .0247586
806.439 .0247522
807.141 .0247468
807.843 .0247417
808.544 .0247360
809.245 .0247296
809.946 .0247222
810.647 .0247133
811.347 .0247035
812.047 .0246932
812.747 .0246830
813.447 .0246733
814.146 .0246642
814.845 .0246559
815.543 .0246483
816.242 .0246409
816.940 .0246331
817.638 .0246245
818.335 .0246154
819.032 .0246050
819.729 .0245934
820.426 .0245811
821.122 .0245683
821.818 .0245549
822.514 .0245415
823.209 .0245280
823.905 .0245145
824.599 .0245007
825.294 .0244867
825.988 .0244723
826.682 .0244579
827.376 .0244438
828.069 .0244295
828.762 .0244156
829.455 .0244019
830.147 .0243882
830.840 .0243750
831.531 .0243620
832.223 .0243498
832.914 .0243380
833.605 .0243274
834.296 .0243181
834.986 .0243101
835.676 .0243039
836.366 .0242990
837.055 .0242950
837.744 .0242916
838.433 .0242880
839.121 .0242839
839.809 .0242793
840.497 .0242748
841.185 .0242706
841.872 .0242667
842.559 .0242637
843.245 .0242615
843.932 .0242597
844.617 .0242582
845.303 .0242560
845.988 .0242528
846.673 .0242483
847.358 .0242421
848.042 .0242344
848.726 .0242261
849.410 .0242174
850.093 .0242088
850.776 .0242008
851.459 .0241932
852.141 .0241854
852.823 .0241775
853.505 .0241696
854.186 .0241613
854.867 .0241525
855.548 .0241437
856.228 .0241348
856.908 .0241268
857.588 .0241194
858.267 .0241128
858.946 .0241071
859.625 .0241023
860.303 .0240980
860.981 .0240938
861.659 .0240895
862.336 .0240847
863.013 .0240794
863.690 .0240739
864.366 .0240675
865.042 .0240604
865.718 .0240531
866.393 .0240460
867.068 .0240388
867.743 .0240322
868.417 .0240256
869.091 .0240203
869.765 .0240153
870.438 .0240105
871.111 .0240058
871.783 .0240009
872.456 .0239954
873.127 .0239895
873.799 .0239828
874.470 .0239756
875.141 .0239679
875.811 .0239602
876.481 .0239523
877.151 .0239448
877.820 .0239376
878.489 .0239307
879.158 .0239241
879.826 .0239173
880.494 .0239095
881.162 .0239016
881.829 .0238933
882.496 .0238840
883.163 .0238742
883.829 .0238642
884.495 .0238539
885.160 .0238442
885.825 .0238348
886.490 .0238257
887.154 .0238171
887.818 .0238089
888.482 .0238000
889.145 .0237903
889.808 .0237803
890.471 .0237695
891.133 .0237583
891.795 .0237473
892.456 .0237361
893.117 .0237256
893.778 .0237159
894.439 .0237071
895.099 .0236985
895.758 .0236904
896.417 .0236820
897.076 .0236735
897.735 .0236647
898.393 .0236560
899.051 .0236477
899.708 .0236402
900.365 .0236334
901.022 .0236276
901.678 .0236221
902.334 .0236169
902.990 .0236116
903.645 .0236059
904.300 .0235991
904.954 .0235913
905.608 .0235825
906.262 .0235735
906.915 .0235644
907.568 .0235556
908.221 .0235473
908.873 .0235399
909.525 .0235330
910.176 .0235262
910.828 .0235196
911.478 .0235126
912.129 .0235045
912.778 .0234955
913.428 .0234853
914.077 .0234742
914.726 .0234624
915.375 .0234502
916.023 .0234383
916.670 .0234268
917.318 .0234154
917.964 .0234036
918.611 .0233920
919.257 .0233802
919.903 .0233677
920.548 .0233544
921.193 .0233411
921.838 .0233276
922.482 .0233143
923.126 .0233013
923.770 .0232891
924.413 .0232772
925.056 .0232659
925.698 .0232548
926.340 .0232442
926.982 .0232337
927.623 .0232231
928.264 .0232126
928.904 .0232017
929.544 .0231902
930.184 .0231773
930.823 .0231634
931.462 .0231482
932.101 .0231313
932.739 .0231128
933.377 .0230932
934.014 .0230733
934.651 .0230536
935.288 .0230345
935.924 .0230164
936.560 .0229992
937.196 .0229831
937.831 .0229672
938.466 .0229510
939.100 .0229342
939.734 .0229170
940.368 .0228989
941.001 .0228805
941.634 .0228618
942.266 .0228436
942.899 .0228260
943.530 .0228088
944.162 .0227919
944.793 .0227746
945.423 .0227565
946.053 .0227371
946.683 .0227158
947.313 .0226932
947.942 .0226689
948.571 .0226438
949.199 .0226184
949.827 .0225935
950.455 .0225692
951.082 .0225463
951.709 .0225251
952.335 .0225055
952.961 .0224867
953.587 .0224686
954.212 .0224510
954.837 .0224339
955.462 .0224177
956.086 .0224019
956.710 .0223873
957.334 .0223739
957.957 .0223614
958.579 .0223497
959.202 .0223384
959.824 .0223281
960.445 .0223178
961.067 .0223071
961.688 .0222961
962.308 .0222842
962.928 .0222721
963.548 .0222599
964.168 .0222472
964.787 .0222339
965.406 .0222205
966.024 .0222068
966.642 .0221931
967.260 .0221800
967.877 .0221677
968.494 .0221563
969.110 .0221458
969.727 .0221357
970.342 .0221256
970.958 .0221161
971.573 .0221068
972.188 .0220971
972.802 .0220872
973.416 .0220767
974.030 .0220660
974.643 .0220557
975.256 .0220460
975.869 .0220365
976.481 .0220277
977.093 .0220197
977.705 .0220120
978.316 .0220046
978.927 .0219977
979.538 .0219910
980.148 .0219846
980.758 .0219777
981.367 .0219711
981.977 .0219649
982.586 .0219596
983.194 .0219553
983.802 .0219521
984.410 .0219497
985.018 .0219483
985.625 .0219473
986.232 .0219468
986.838 .0219463
987.445 .0219456
988.050 .0219443
988.656 .0219429
989.261 .0219413
989.866 .0219390
990.471 .0219368
991.075 .0219353
991.679 .0219337
992.282 .0219327
992.886 .0219324
993.489 .0219331
994.091 .0219344
994.694 .0219361
995.296 .0219382
995.897 .0219401
996.499 .0219415
997.100 .0219418
997.701 .0219411
998.301 .0219397
998.901 .0219373
999.501 .0219343
1000.101 .0219317
1000.700 .0219293
1001.299 .0219269
1001.898 .0219247
1002.496 .0219225
1003.094 .0219195
1003.692 .0219160
1004.289 .0219118
1004.887 .0219072
1005.484 .0219023
1006.080 .0218975
1006.677 .0218928
1007.273 .0218892
1007.868 .0218864
1008.464 .0218845
1009.059 .0218835
1009.654 .0218836
1010.249 .0218843
1010.843 .0218856
1011.437 .0218881
1012.031 .0218906
1012.625 .0218931
1013.218 .0218956
1013.811 .0218975
1014.404 .0218994
1014.997 .0219007
1015.589 .0219019
1016.181 .0219034
1016.773 .0219053
1017.365 .0219078
1017.956 .0219113
1018.547 .0219164
1019.138 .0219227
1019.728 .0219293
1020.319 .0219370
1020.909 .0219445
1021.499 .0219516
1022.088 .0219587
1022.678 .0219654
1023.267 .0219720
1023.856 .0219791
1024.445 .0219861
1025.033 .0219938
1025.621 .0220018
1026.209 .0220101
1026.797 .0220173
1027.385 .0220235
1027.972 .0220281
1028.560 .0220302
1029.147 .0220305
1029.734 .0220293
1030.320 .0220263
1030.907 .0220225
1031.493 .0220185
1032.079 .0220145
1032.665 .0220116
1033.250 .0220096
1033.836 .0220087
1034.421 .0220089
1035.006 .0220103
1035.591 .0220130
1036.176 .0220165
1036.761 .0220221
1037.345 .0220291
1037.929 .0220367
1038.514 .0220447
1039.097 .0220521
1039.681 .0220595
1040.265 .0220663
1040.848 .0220729
1041.432 .0220789
1042.015 .0220850
1042.598 .0220915
1043.181 .0220976
1043.764 .0221032
1044.346 .0221088
1044.929 .0221131
1045.511 .0221155
1046.094 .0221168
1046.676 .0221170
1047.258 .0221163
1047.840 .0221155
1048.422 .0221159
1049.003 .0221178
1049.585 .0221214
1050.166 .0221267
1050.748 .0221331
1051.329 .0221405
1051.910 .0221482
1052.491 .0221545
1053.072 .0221602
1053.653 .0221642
1054.234 .0221672
1054.815 .0221689
1055.396 .0221703
1055.976 .0221713
1056.557 .0221731
1057.138 .0221759
1057.718 .0221793
1058.298 .0221827
1058.879 .0221855
1059.459 .0221872
1060.039 .0221887
1060.620 .0221885
1061.200 .0221873
1061.780 .0221859
1062.360 .0221849
1062.940 .0221836
1063.520 .0221838
1064.101 .0221853
1064.681 .0221868
1065.261 .0221882
1065.841 .0221884
1066.421 .0221870
1067.001 .0221839
1067.581 .0221801
1068.161 .0221751
1068.741 .0221708
1069.321 .0221675
1069.901 .0221632
1070.482 .0221593
1071.062 .0221563
1071.642 .0221525
1072.222 .0221481
1072.803 .0221440
1073.383 .0221412
1073.963 .0221383
1074.544 .0221391
1075.124 .0221411
1075.705 .0221451
1076.286 .0221505
1076.866 .0221561
1077.447 .0221600
1078.028 .0221627
1078.609 .0221625
1079.190 .0221600
1079.771 .0221554
1080.352 .0221517
1080.934 .0221472
1081.515 .0221447
1082.097 .0221448
1082.679 .0221481
1083.260 .0221518
1083.842 .0221581
1084.424 .0221646
1085.007 .0221711
1085.589 .0221769
1086.172 .0221824
1086.754 .0221867
1087.337 .0221921
1087.920 .0221992
1088.503 .0222087
1089.087 .0222192
1089.670 .0222331
1090.254 .0222456
1090.838 .0222574
1091.422 .0222674
1092.006 .0222747
1092.590 .0222780
1093.175 .0222778
1093.760 .0222741
1094.345 .0222682
1094.930 .0222608
1095.516 .0222538
1096.102 .0222458
1096.688 .0222387
1097.274 .0222331
1097.860 .0222256
1098.447 .0222164
1099.034 .0222066
1099.622 .0221957
1100.209 .0221835
1100.797 .0221692
1101.385 .0221528
1101.973 .0221335
1102.562 .0221129
1103.151 .0220908
1103.740 .0220645
1104.330 .0220359
1104.920 .0220071
1105.510 .0219782
1106.101 .0219513
1106.691 .0219268
1107.283 .0219051
1107.874 .0218883
1108.466 .0218750
1109.058 .0218642
1109.651 .0218542
1110.244 .0218478
1110.837 .0218456
1111.431 .0218474
1112.025 .0218554
1112.620 .0218685
1113.215 .0218891
1113.810 .0219166
1114.406 .0219498
1115.002 .0219843
1115.599 .0220189
1116.196 .0220525
1116.793 .0220824
1117.391 .0221062
1117.989 .0221241
1118.588 .0221377
1119.187 .0221467
1119.787 .0221525
1120.387 .0221555
1120.988 .0221531
1121.589 .0221495
1122.190 .0221416
1122.793 .0221330
1123.395 .0221206
1123.998 .0221082
1124.602 .0220937
1125.206 .0220850
1125.811 .0220817
1126.416 .0220825
1127.022 .0220886
1127.628 .0221017
1128.235 .0221191
1128.843 .0221387
1129.451 .0221605
1130.059 .0221852
1130.669 .0222118
1131.278 .0222417
1131.889 .0222717
1132.500 .0223089
1133.112 .0223491
1133.724 .0223964
1134.337 .0224484
1134.950 .0225053
1135.564 .0225619
1136.179 .0226148
1136.795 .0226638
1137.411 .0227116
1138.028 .0227561
1138.645 .0228030
1139.263 .0228538
1139.882 .0229177
1140.502 .0229877
1141.122 .0230657
1141.743 .0231509
1142.365 .0232568
1142.987 .0234149
1143.611 .0234151
1144.235 .0234460
1144.859 .0235871
1145.485 .0240996
