Measurement Sequence started on: 10-20-44-796
Integration time: 35
Scans to Average: 2 
>>>>>Begin Spectral Data<<<<<
432.953 .0248927
433.882 .0317677
434.810 .0350402
435.737 .0352542
436.662 .0344665
437.586 .0352393
438.509 .0360769
439.431 .0366379
440.351 .0370946
441.269 .0375225
442.187 .0379165
443.103 .0382390
444.018 .0384699
444.932 .0386483
445.844 .0387666
446.756 .0388422
447.666 .0388910
448.575 .0388997
449.482 .0388837
450.388 .0388432
451.294 .0387858
452.198 .0387172
453.100 .0386402
454.002 .0385646
454.902 .0384845
455.801 .0384008
456.699 .0383267
457.596 .0382542
458.492 .0381894
459.387 .0381353
460.280 .0380942
461.172 .0380618
462.064 .0380388
462.954 .0380107
463.843 .0379779
464.730 .0379356
465.617 .0378857
466.503 .0378208
467.387 .0377455
468.271 .0376636
469.153 .0375795
470.035 .0374939
470.915 .0374100
471.794 .0373241
472.673 .0372401
473.550 .0371540
474.426 .0370687
475.301 .0369820
476.175 .0368996
477.048 .0368214
477.920 .0367545
478.791 .0366980
479.661 .0366578
480.530 .0366307
481.398 .0366150
482.266 .0366074
483.132 .0366027
483.997 .0365981
484.861 .0365913
485.724 .0365861
486.587 .0365806
487.448 .0365721
488.308 .0365640
489.168 .0365531
490.026 .0365417
490.884 .0365249
491.741 .0365005
492.597 .0364696
493.452 .0364331
494.306 .0363875
495.159 .0363347
496.011 .0362801
496.862 .0362241
497.713 .0361659
498.562 .0361049
499.411 .0360419
500.259 .0359742
501.106 .0359042
501.952 .0358280
502.798 .0357463
503.642 .0356623
504.486 .0355742
505.329 .0354845
506.171 .0353954
507.012 .0353038
507.852 .0352069
508.692 .0351078
509.531 .0350029
510.369 .0348867
511.206 .0347667
512.043 .0346408
512.878 .0345076
513.713 .0343735
514.547 .0342365
515.381 .0340979
516.213 .0339617
517.045 .0338290
517.876 .0336939
518.706 .0335612
519.536 .0334318
520.365 .0333000
521.193 .0331702
522.020 .0330466
522.847 .0329157
523.673 .0327808
524.498 .0326441
525.323 .0324994
526.146 .0323511
526.969 .0322049
527.792 .0320511
528.614 .0318943
529.435 .0317355
530.255 .0315811
531.075 .0314182
531.894 .0312604
532.712 .0310993
533.530 .0309368
534.347 .0307780
535.163 .0306202
535.979 .0304630
536.794 .0303264
537.608 .0302033
538.422 .0300931
539.235 .0299931
540.048 .0299140
540.860 .0298463
541.671 .0297969
542.481 .0297550
543.292 .0297272
544.101 .0297082
544.910 .0297077
545.718 .0297157
546.526 .0297363
547.333 .0297718
548.139 .0298183
548.945 .0298751
549.750 .0299428
550.555 .0300151
551.359 .0300977
552.162 .0301840
552.965 .0302790
553.768 .0303687
554.569 .0304580
555.371 .0305434
556.171 .0306258
556.972 .0307032
557.771 .0307775
558.570 .0308517
559.369 .0309306
560.167 .0310108
560.964 .0310923
561.761 .0311718
562.558 .0312481
563.354 .0313155
564.149 .0313732
564.944 .0314201
565.738 .0314617
566.532 .0314991
567.325 .0315381
568.118 .0315842
568.910 .0316405
569.702 .0317074
570.494 .0317841
571.285 .0318666
572.075 .0319511
572.865 .0320326
573.654 .0321091
574.443 .0321782
575.232 .0322423
576.020 .0323001
576.807 .0323551
577.594 .0324079
578.381 .0324618
579.167 .0325178
579.952 .0325761
580.738 .0326334
581.522 .0326885
582.307 .0327380
583.091 .0327838
583.874 .0328220
584.657 .0328549
585.440 .0328816
586.222 .0329043
587.004 .0329240
587.785 .0329419
588.566 .0329592
589.346 .0329777
590.126 .0329958
590.906 .0330125
591.685 .0330260
592.464 .0330357
593.242 .0330409
594.020 .0330417
594.797 .0330389
595.575 .0330331
596.351 .0330247
597.128 .0330160
597.904 .0330067
598.679 .0329983
599.454 .0329898
600.229 .0329811
601.004 .0329713
601.778 .0329589
602.551 .0329441
603.325 .0329267
604.097 .0329076
604.870 .0328875
605.642 .0328675
606.414 .0328473
607.185 .0328271
607.956 .0328076
608.727 .0327883
609.497 .0327693
610.267 .0327500
611.037 .0327298
611.806 .0327090
612.575 .0326876
613.344 .0326660
614.112 .0326441
614.880 .0326229
615.647 .0326011
616.414 .0325791
617.181 .0325570
617.948 .0325344
618.714 .0325109
619.480 .0324870
620.245 .0324625
621.011 .0324369
621.775 .0324103
622.540 .0323828
623.304 .0323545
624.068 .0323262
624.832 .0322969
625.595 .0322673
626.358 .0322376
627.120 .0322079
627.883 .0321777
628.645 .0321479
629.406 .0321187
630.168 .0320898
630.929 .0320619
631.689 .0320353
632.450 .0320099
633.210 .0319864
633.970 .0319643
634.729 .0319437
635.489 .0319241
636.248 .0319050
637.006 .0318853
637.765 .0318655
638.523 .0318447
639.280 .0318225
640.038 .0317995
640.795 .0317762
641.552 .0317529
642.309 .0317299
643.065 .0317076
643.821 .0316863
644.577 .0316655
645.332 .0316454
646.088 .0316249
646.843 .0316041
647.597 .0315827
648.352 .0315606
649.106 .0315379
649.860 .0315148
650.613 .0314915
651.367 .0314691
652.120 .0314480
652.872 .0314284
653.625 .0314105
654.377 .0313944
655.129 .0313803
655.881 .0313675
656.632 .0313552
657.384 .0313425
658.135 .0313293
658.885 .0313154
659.636 .0313005
660.386 .0312847
661.136 .0312683
661.885 .0312523
662.635 .0312369
663.384 .0312220
664.133 .0312074
664.881 .0311927
665.630 .0311780
666.378 .0311627
667.126 .0311471
667.874 .0311296
668.621 .0311116
669.368 .0310927
670.115 .0310732
670.862 .0310540
671.608 .0310354
672.354 .0310177
673.100 .0310011
673.846 .0309857
674.591 .0309704
675.337 .0309557
676.082 .0309419
676.826 .0309281
677.571 .0309143
678.315 .0309002
679.059 .0308854
679.803 .0308697
680.547 .0308543
681.290 .0308383
682.033 .0308214
682.776 .0308040
683.518 .0307857
684.261 .0307665
685.003 .0307470
685.745 .0307270
686.487 .0307068
687.228 .0306869
687.969 .0306670
688.710 .0306466
689.451 .0306262
690.192 .0306054
690.932 .0305841
691.672 .0305620
692.412 .0305389
693.152 .0305147
693.891 .0304899
694.630 .0304652
695.369 .0304409
696.108 .0304172
696.846 .0303942
697.585 .0303715
698.323 .0303493
699.061 .0303264
699.798 .0303028
700.536 .0302787
701.273 .0302539
702.010 .0302287
702.746 .0302035
703.483 .0301788
704.219 .0301551
704.955 .0301326
705.691 .0301112
706.427 .0300902
707.162 .0300697
707.897 .0300490
708.632 .0300284
709.367 .0300076
710.101 .0299868
710.835 .0299660
711.569 .0299455
712.303 .0299250
713.037 .0299045
713.770 .0298832
714.503 .0298613
715.236 .0298379
715.969 .0298134
716.702 .0297876
717.434 .0297612
718.166 .0297346
718.898 .0297081
719.629 .0296814
720.361 .0296550
721.092 .0296280
721.823 .0296007
722.554 .0295723
723.284 .0295433
724.014 .0295134
724.744 .0294828
725.474 .0294520
726.204 .0294216
726.933 .0293921
727.662 .0293644
728.391 .0293382
729.120 .0293142
729.849 .0292919
730.577 .0292709
731.305 .0292508
732.033 .0292318
732.760 .0292135
733.488 .0291957
734.215 .0291783
734.942 .0291618
735.669 .0291458
736.395 .0291310
737.122 .0291173
737.848 .0291046
738.573 .0290923
739.299 .0290801
740.024 .0290677
740.750 .0290548
741.474 .0290412
742.199 .0290272
742.924 .0290132
743.648 .0289995
744.372 .0289857
745.096 .0289726
745.819 .0289603
746.543 .0289488
747.266 .0289376
747.989 .0289267
748.711 .0289162
749.434 .0289056
750.156 .0288953
750.878 .0288854
751.599 .0288766
752.321 .0288684
753.042 .0288611
753.763 .0288549
754.484 .0288490
755.205 .0288430
755.925 .0288370
756.645 .0288307
757.365 .0288232
758.085 .0288139
758.804 .0288029
759.523 .0287899
760.242 .0287755
760.961 .0287591
761.679 .0287418
762.397 .0287238
763.115 .0287056
763.833 .0286867
764.551 .0286679
765.268 .0286489
765.985 .0286293
766.702 .0286096
767.418 .0285894
768.134 .0285691
768.850 .0285492
769.566 .0285301
770.282 .0285126
770.997 .0284969
771.712 .0284832
772.427 .0284707
773.142 .0284597
773.856 .0284492
774.570 .0284384
775.284 .0284272
775.998 .0284155
776.711 .0284033
777.424 .0283906
778.137 .0283778
778.849 .0283652
779.562 .0283529
780.274 .0283408
780.986 .0283288
781.697 .0283169
782.409 .0283054
783.120 .0282943
783.831 .0282840
784.541 .0282751
785.252 .0282672
785.962 .0282604
786.671 .0282543
787.381 .0282487
788.090 .0282429
788.799 .0282363
789.508 .0282289
790.217 .0282205
790.925 .0282115
791.633 .0282019
792.341 .0281918
793.048 .0281811
793.755 .0281696
794.462 .0281568
795.169 .0281426
795.875 .0281273
796.581 .0281107
797.287 .0280932
797.993 .0280755
798.698 .0280582
799.403 .0280417
800.108 .0280265
800.812 .0280133
801.517 .0280014
802.221 .0279909
802.924 .0279807
803.628 .0279711
804.331 .0279614
805.034 .0279517
805.736 .0279414
806.439 .0279308
807.141 .0279198
807.843 .0279085
808.544 .0278970
809.245 .0278852
809.946 .0278727
810.647 .0278598
811.347 .0278460
812.047 .0278318
812.747 .0278169
813.447 .0278017
814.146 .0277856
814.845 .0277696
815.543 .0277535
816.242 .0277378
816.940 .0277225
817.638 .0277084
818.335 .0276953
819.032 .0276828
819.729 .0276708
820.426 .0276591
821.122 .0276477
821.818 .0276365
822.514 .0276249
823.209 .0276129
823.905 .0276001
824.599 .0275864
825.294 .0275714
825.988 .0275552
826.682 .0275375
827.376 .0275182
828.069 .0274979
828.762 .0274768
829.455 .0274558
830.147 .0274351
830.840 .0274153
831.531 .0273965
832.223 .0273789
832.914 .0273616
833.605 .0273450
834.296 .0273286
834.986 .0273127
835.676 .0272971
836.366 .0272820
837.055 .0272671
837.744 .0272531
838.433 .0272397
839.121 .0272270
839.809 .0272148
840.497 .0272030
841.185 .0271909
841.872 .0271782
842.559 .0271650
843.245 .0271508
843.932 .0271360
844.617 .0271211
845.303 .0271060
845.988 .0270914
846.673 .0270772
847.358 .0270637
848.042 .0270505
848.726 .0270378
849.410 .0270255
850.093 .0270131
850.776 .0270008
851.459 .0269882
852.141 .0269750
852.823 .0269616
853.505 .0269479
854.186 .0269336
854.867 .0269189
855.548 .0269038
856.228 .0268881
856.908 .0268722
857.588 .0268560
858.267 .0268400
858.946 .0268238
859.625 .0268082
860.303 .0267929
860.981 .0267781
861.659 .0267640
862.336 .0267502
863.013 .0267366
863.690 .0267232
864.366 .0267094
865.042 .0266955
865.718 .0266820
866.393 .0266688
867.068 .0266562
867.743 .0266439
868.417 .0266317
869.091 .0266194
869.765 .0266065
870.438 .0265929
871.111 .0265785
871.783 .0265635
872.456 .0265479
873.127 .0265319
873.799 .0265163
874.470 .0265006
875.141 .0264857
875.811 .0264712
876.481 .0264571
877.151 .0264436
877.820 .0264309
878.489 .0264187
879.158 .0264075
879.826 .0263972
880.494 .0263876
881.162 .0263786
881.829 .0263700
882.496 .0263614
883.163 .0263531
883.829 .0263451
884.495 .0263370
885.160 .0263294
885.825 .0263230
886.490 .0263173
887.154 .0263126
887.818 .0263090
888.482 .0263054
889.145 .0263017
889.808 .0262978
890.471 .0262929
891.133 .0262871
891.795 .0262808
892.456 .0262739
893.117 .0262669
893.778 .0262602
894.439 .0262534
895.099 .0262468
895.758 .0262402
896.417 .0262329
897.076 .0262246
897.735 .0262156
898.393 .0262057
899.051 .0261950
899.708 .0261840
900.365 .0261721
901.022 .0261603
901.678 .0261489
902.334 .0261381
902.990 .0261283
903.645 .0261193
904.300 .0261113
904.954 .0261037
905.608 .0260964
906.262 .0260887
906.915 .0260808
907.568 .0260723
908.221 .0260634
908.873 .0260544
909.525 .0260452
910.176 .0260362
910.828 .0260273
911.478 .0260187
912.129 .0260096
912.778 .0259997
913.428 .0259890
914.077 .0259776
914.726 .0259659
915.375 .0259536
916.023 .0259421
916.670 .0259318
917.318 .0259228
917.964 .0259151
918.611 .0259083
919.257 .0259020
919.903 .0258955
920.548 .0258885
921.193 .0258810
921.838 .0258738
922.482 .0258672
923.126 .0258612
923.770 .0258567
924.413 .0258529
925.056 .0258499
925.698 .0258472
926.340 .0258443
926.982 .0258406
927.623 .0258357
928.264 .0258293
928.904 .0258220
929.544 .0258139
930.184 .0258051
930.823 .0257960
931.462 .0257867
932.101 .0257764
932.739 .0257652
933.377 .0257524
934.014 .0257387
934.651 .0257237
935.288 .0257077
935.924 .0256904
936.560 .0256724
937.196 .0256542
937.831 .0256357
938.466 .0256173
939.100 .0255998
939.734 .0255827
940.368 .0255663
941.001 .0255506
941.634 .0255352
942.266 .0255202
942.899 .0255058
943.530 .0254913
944.162 .0254764
944.793 .0254607
945.423 .0254440
946.053 .0254265
946.683 .0254088
947.313 .0253910
947.942 .0253726
948.571 .0253547
949.199 .0253370
949.827 .0253186
950.455 .0253000
951.082 .0252813
951.709 .0252625
952.335 .0252443
952.961 .0252263
953.587 .0252092
954.212 .0251933
954.837 .0251793
955.462 .0251667
956.086 .0251557
956.710 .0251458
957.334 .0251361
957.957 .0251262
958.579 .0251163
959.202 .0251057
959.824 .0250950
960.445 .0250844
961.067 .0250743
961.688 .0250646
962.308 .0250553
962.928 .0250464
963.548 .0250379
964.168 .0250286
964.787 .0250184
965.406 .0250071
966.024 .0249948
966.642 .0249821
967.260 .0249694
967.877 .0249574
968.494 .0249464
969.110 .0249363
969.727 .0249265
970.342 .0249167
970.958 .0249067
971.573 .0248959
972.188 .0248844
972.802 .0248726
973.416 .0248604
974.030 .0248486
974.643 .0248376
975.256 .0248275
975.869 .0248185
976.481 .0248109
977.093 .0248045
977.705 .0247993
978.316 .0247952
978.927 .0247923
979.538 .0247904
980.148 .0247887
980.758 .0247868
981.367 .0247844
981.977 .0247817
982.586 .0247785
983.194 .0247751
983.802 .0247716
984.410 .0247682
985.018 .0247649
985.625 .0247620
986.232 .0247590
986.838 .0247561
987.445 .0247526
988.050 .0247485
988.656 .0247434
989.261 .0247373
989.866 .0247297
990.471 .0247220
991.075 .0247140
991.679 .0247058
992.282 .0246975
992.886 .0246898
993.489 .0246828
994.091 .0246769
994.694 .0246718
995.296 .0246676
995.897 .0246643
996.499 .0246618
997.100 .0246588
997.701 .0246556
998.301 .0246521
998.901 .0246485
999.501 .0246451
1000.101 .0246428
1000.700 .0246415
1001.299 .0246423
1001.898 .0246452
1002.496 .0246496
1003.094 .0246547
1003.692 .0246595
1004.289 .0246630
1004.887 .0246650
1005.484 .0246644
1006.080 .0246615
1006.677 .0246570
1007.273 .0246518
1007.868 .0246466
1008.464 .0246419
1009.059 .0246374
1009.654 .0246336
1010.249 .0246301
1010.843 .0246265
1011.437 .0246225
1012.031 .0246187
1012.625 .0246149
1013.218 .0246109
1013.811 .0246072
1014.404 .0246039
1014.997 .0246015
1015.589 .0246006
1016.181 .0246006
1016.773 .0246016
1017.365 .0246042
1017.956 .0246076
1018.547 .0246111
1019.138 .0246149
1019.728 .0246183
1020.319 .0246213
1020.909 .0246239
1021.499 .0246253
1022.088 .0246252
1022.678 .0246239
1023.267 .0246223
1023.856 .0246198
1024.445 .0246174
1025.033 .0246145
1025.621 .0246113
1026.209 .0246079
1026.797 .0246041
1027.385 .0245997
1027.972 .0245949
1028.560 .0245908
1029.147 .0245867
1029.734 .0245835
1030.320 .0245807
1030.907 .0245783
1031.493 .0245770
1032.079 .0245760
1032.665 .0245758
1033.250 .0245751
1033.836 .0245744
1034.421 .0245738
1035.006 .0245735
1035.591 .0245737
1036.176 .0245739
1036.761 .0245743
1037.345 .0245743
1037.929 .0245727
1038.514 .0245690
1039.097 .0245633
1039.681 .0245565
1040.265 .0245489
1040.848 .0245413
1041.432 .0245334
1042.015 .0245267
1042.598 .0245208
1043.181 .0245170
1043.764 .0245146
1044.346 .0245130
1044.929 .0245121
1045.511 .0245113
1046.094 .0245110
1046.676 .0245105
1047.258 .0245102
1047.840 .0245104
1048.422 .0245111
1049.003 .0245127
1049.585 .0245131
1050.166 .0245128
1050.748 .0245124
1051.329 .0245117
1051.910 .0245099
1052.491 .0245074
1053.072 .0245045
1053.653 .0245005
1054.234 .0244964
1054.815 .0244915
1055.396 .0244857
1055.976 .0244786
1056.557 .0244705
1057.138 .0244603
1057.718 .0244492
1058.298 .0244376
1058.879 .0244249
1059.459 .0244125
1060.039 .0244011
1060.620 .0243882
1061.200 .0243738
1061.780 .0243574
1062.360 .0243391
1062.940 .0243189
1063.520 .0242985
1064.101 .0242781
1064.681 .0242607
1065.261 .0242479
1065.841 .0242383
1066.421 .0242332
1067.001 .0242317
1067.581 .0242325
1068.161 .0242334
1068.741 .0242354
1069.321 .0242364
1069.901 .0242372
1070.482 .0242386
1071.062 .0242408
1071.642 .0242453
1072.222 .0242519
1072.803 .0242584
1073.383 .0242645
1073.963 .0242682
1074.544 .0242684
1075.124 .0242625
1075.705 .0242531
1076.286 .0242385
1076.866 .0242211
1077.447 .0242012
1078.028 .0241814
1078.609 .0241636
1079.190 .0241486
1079.771 .0241366
1080.352 .0241273
1080.934 .0241208
1081.515 .0241163
1082.097 .0241116
1082.679 .0241086
1083.260 .0241067
1083.842 .0241063
1084.424 .0241051
1085.007 .0241055
1085.589 .0241069
1086.172 .0241090
1086.754 .0241115
1087.337 .0241146
1087.920 .0241173
1088.503 .0241198
1089.087 .0241213
1089.670 .0241197
1090.254 .0241163
1090.838 .0241105
1091.422 .0241012
1092.006 .0240896
1092.590 .0240761
1093.175 .0240610
1093.760 .0240452
1094.345 .0240325
1094.930 .0240215
1095.516 .0240145
1096.102 .0240136
1096.688 .0240172
1097.274 .0240248
1097.860 .0240342
1098.447 .0240430
1099.034 .0240509
1099.622 .0240590
1100.209 .0240670
1100.797 .0240762
1101.385 .0240882
1101.973 .0241045
1102.562 .0241238
1103.151 .0241466
1103.740 .0241688
1104.330 .0241882
1104.920 .0242047
1105.510 .0242161
1106.101 .0242201
1106.691 .0242210
1107.283 .0242195
1107.874 .0242177
1108.466 .0242147
1109.058 .0242124
1109.651 .0242086
1110.244 .0242041
1110.837 .0241956
1111.431 .0241824
1112.025 .0241646
1112.620 .0241456
1113.215 .0241234
1113.810 .0241045
1114.406 .0240902
1115.002 .0240791
1115.599 .0240719
1116.196 .0240695
1116.793 .0240677
1117.391 .0240663
1117.989 .0240658
1118.588 .0240663
1119.187 .0240650
1119.787 .0240638
1120.387 .0240600
1120.988 .0240593
1121.589 .0240624
1122.190 .0240692
1122.793 .0240774
1123.395 .0240911
1123.998 .0241090
1124.602 .0241286
1125.206 .0241517
1125.811 .0241764
1126.416 .0242017
1127.022 .0242256
1127.628 .0242500
1128.235 .0242734
1128.843 .0242989
1129.451 .0243326
1130.059 .0243736
1130.669 .0244225
1131.278 .0244800
1131.889 .0245434
1132.500 .0246098
1133.112 .0246775
1133.724 .0247439
1134.337 .0248025
1134.950 .0248560
1135.564 .0249051
1136.179 .0249516
1136.795 .0249980
1137.411 .0250524
1138.028 .0251101
1138.645 .0251767
1139.263 .0252459
1139.882 .0253100
1140.502 .0253743
1141.122 .0254400
1141.743 .0255114
1142.365 .0255778
1142.987 .0254795
1143.611 .0256796
1144.235 .0258385
1144.859 .0260720
1145.485 .0259007
