Measurement Sequence started on: 10-20-44-796
Integration time: 35
Scans to Average: 2 
>>>>>Begin Spectral Data<<<<<
432.953 .0330798
433.882 .0380356
434.810 .0426651
435.737 .0421729
436.662 .0394197
437.586 .0390033
438.509 .0389452
439.431 .0387149
440.351 .0384374
441.269 .0382716
442.187 .0382089
443.103 .0381675
444.018 .0381192
444.932 .0380578
445.844 .0379917
446.756 .0379222
447.666 .0378709
448.575 .0378331
449.482 .0378150
450.388 .0377960
451.294 .0377680
452.198 .0377325
453.100 .0376709
454.002 .0376037
454.902 .0375271
455.801 .0374505
456.699 .0373859
457.596 .0373371
458.492 .0373117
459.387 .0373072
460.280 .0373234
461.172 .0373446
462.064 .0373677
462.954 .0373847
463.843 .0373769
464.730 .0373458
465.617 .0372973
466.503 .0372301
467.387 .0371494
468.271 .0370575
469.153 .0369584
470.035 .0368559
470.915 .0367573
471.794 .0366596
472.673 .0365632
473.550 .0364734
474.426 .0363903
475.301 .0363108
476.175 .0362391
477.048 .0361716
477.920 .0361086
478.791 .0360499
479.661 .0359985
480.530 .0359522
481.398 .0359146
482.266 .0358861
483.132 .0358703
483.997 .0358645
484.861 .0358641
485.724 .0358679
486.587 .0358681
487.448 .0358616
488.308 .0358421
489.168 .0358107
490.026 .0357693
490.884 .0357223
491.741 .0356742
492.597 .0356280
493.452 .0355905
494.306 .0355633
495.159 .0355419
496.011 .0355269
496.862 .0355148
497.713 .0354998
498.562 .0354748
499.411 .0354423
500.259 .0354000
501.106 .0353517
501.952 .0352996
502.798 .0352483
503.642 .0351979
504.486 .0351492
505.329 .0351014
506.171 .0350522
507.012 .0350006
507.852 .0349435
508.692 .0348740
509.531 .0347929
510.369 .0347044
511.206 .0346060
512.043 .0345024
512.878 .0343994
513.713 .0342994
514.547 .0342002
515.381 .0341037
516.213 .0340055
517.045 .0338989
517.876 .0337819
518.706 .0336535
519.536 .0335095
520.365 .0333530
521.193 .0331884
522.020 .0330205
522.847 .0328514
523.673 .0326861
524.498 .0325142
525.323 .0323430
526.146 .0321704
526.969 .0319919
527.792 .0318081
528.614 .0316209
529.435 .0314392
530.255 .0312693
531.075 .0311143
531.894 .0309843
532.712 .0308783
533.530 .0307924
534.347 .0307225
535.163 .0306598
535.979 .0306024
536.794 .0305492
537.608 .0304942
538.422 .0304482
539.235 .0304047
540.048 .0303739
540.860 .0303568
541.671 .0303460
542.481 .0303438
543.292 .0303400
544.101 .0303338
544.910 .0303249
545.718 .0303040
546.526 .0302813
547.333 .0302579
548.139 .0302390
548.945 .0302208
549.750 .0302010
550.555 .0301857
551.359 .0301739
552.162 .0301574
552.965 .0301436
553.768 .0301299
554.569 .0301234
555.371 .0301228
556.171 .0301275
556.972 .0301409
557.771 .0301634
558.570 .0301903
559.369 .0302236
560.167 .0302567
560.964 .0302948
561.761 .0303347
562.558 .0303801
563.354 .0304364
564.149 .0305002
564.944 .0305716
565.738 .0306555
566.532 .0307461
567.325 .0308396
568.118 .0309276
568.910 .0310126
569.702 .0310924
570.494 .0311682
571.285 .0312377
572.075 .0313035
572.865 .0313692
573.654 .0314348
574.443 .0314998
575.232 .0315647
576.020 .0316296
576.807 .0316935
577.594 .0317545
578.381 .0318123
579.167 .0318647
579.952 .0319138
580.738 .0319578
581.522 .0319975
582.307 .0320354
583.091 .0320719
583.874 .0321068
584.657 .0321423
585.440 .0321786
586.222 .0322148
587.004 .0322505
587.785 .0322854
588.566 .0323182
589.346 .0323483
590.126 .0323743
590.906 .0323957
591.685 .0324136
592.464 .0324268
593.242 .0324348
594.020 .0324393
594.797 .0324412
595.575 .0324404
596.351 .0324382
597.128 .0324354
597.904 .0324315
598.679 .0324275
599.454 .0324216
600.229 .0324144
601.004 .0324061
601.778 .0323955
602.551 .0323823
603.325 .0323673
604.097 .0323508
604.870 .0323334
605.642 .0323151
606.414 .0322978
607.185 .0322813
607.956 .0322665
608.727 .0322524
609.497 .0322384
610.267 .0322250
611.037 .0322120
611.806 .0321990
612.575 .0321860
613.344 .0321722
614.112 .0321575
614.880 .0321412
615.647 .0321236
616.414 .0321044
617.181 .0320841
617.948 .0320627
618.714 .0320415
619.480 .0320206
620.245 .0320003
621.011 .0319807
621.775 .0319621
622.540 .0319447
623.304 .0319279
624.068 .0319113
624.832 .0318937
625.595 .0318758
626.358 .0318581
627.120 .0318395
627.883 .0318206
628.645 .0318019
629.406 .0317833
630.168 .0317650
630.929 .0317480
631.689 .0317317
632.450 .0317158
633.210 .0317012
633.970 .0316866
634.729 .0316705
635.489 .0316527
636.248 .0316320
637.006 .0316084
637.765 .0315824
638.523 .0315541
639.280 .0315242
640.038 .0314949
640.795 .0314679
641.552 .0314432
642.309 .0314221
643.065 .0314047
643.821 .0313892
644.577 .0313748
645.332 .0313599
646.088 .0313433
646.843 .0313257
647.597 .0313071
648.352 .0312879
649.106 .0312688
649.860 .0312502
650.613 .0312320
651.367 .0312151
652.120 .0311995
652.872 .0311839
653.625 .0311676
654.377 .0311510
655.129 .0311337
655.881 .0311156
656.632 .0310971
657.384 .0310789
658.135 .0310621
658.885 .0310457
659.636 .0310294
660.386 .0310141
661.136 .0309994
661.885 .0309854
662.635 .0309715
663.384 .0309579
664.133 .0309441
664.881 .0309303
665.630 .0309163
666.378 .0309028
667.126 .0308901
667.874 .0308774
668.621 .0308647
669.368 .0308521
670.115 .0308391
670.862 .0308253
671.608 .0308114
672.354 .0307979
673.100 .0307840
673.846 .0307705
674.591 .0307571
675.337 .0307450
676.082 .0307340
676.826 .0307239
677.571 .0307138
678.315 .0307035
679.059 .0306921
679.803 .0306794
680.547 .0306651
681.290 .0306497
682.033 .0306326
682.776 .0306144
683.518 .0305952
684.261 .0305751
685.003 .0305539
685.745 .0305327
686.487 .0305103
687.228 .0304875
687.969 .0304638
688.710 .0304394
689.451 .0304144
690.192 .0303894
690.932 .0303644
691.672 .0303396
692.412 .0303146
693.152 .0302902
693.891 .0302658
694.630 .0302424
695.369 .0302196
696.108 .0301978
696.846 .0301772
697.585 .0301575
698.323 .0301386
699.061 .0301206
699.798 .0301033
700.536 .0300866
701.273 .0300699
702.010 .0300531
702.746 .0300358
703.483 .0300186
704.219 .0300007
704.955 .0299823
705.691 .0299635
706.427 .0299442
707.162 .0299240
707.897 .0299032
708.632 .0298816
709.367 .0298592
710.101 .0298365
710.835 .0298134
711.569 .0297905
712.303 .0297672
713.037 .0297443
713.770 .0297221
714.503 .0297000
715.236 .0296792
715.969 .0296589
716.702 .0296401
717.434 .0296225
718.166 .0296056
718.898 .0295894
719.629 .0295733
720.361 .0295576
721.092 .0295417
721.823 .0295252
722.554 .0295081
723.284 .0294905
724.014 .0294719
724.744 .0294527
725.474 .0294327
726.204 .0294118
726.933 .0293904
727.662 .0293680
728.391 .0293451
729.120 .0293214
729.849 .0292975
730.577 .0292734
731.305 .0292489
732.033 .0292253
732.760 .0292019
733.488 .0291789
734.215 .0291570
734.942 .0291362
735.669 .0291161
736.395 .0290967
737.122 .0290778
737.848 .0290597
738.573 .0290420
739.299 .0290251
740.024 .0290087
740.750 .0289927
741.474 .0289772
742.199 .0289612
742.924 .0289451
743.648 .0289287
744.372 .0289117
745.096 .0288946
745.819 .0288773
746.543 .0288601
747.266 .0288433
747.989 .0288276
748.711 .0288131
749.434 .0287998
750.156 .0287869
750.878 .0287751
751.599 .0287639
752.321 .0287537
753.042 .0287447
753.763 .0287368
754.484 .0287308
755.205 .0287262
755.925 .0287234
756.645 .0287216
757.365 .0287200
758.085 .0287184
758.804 .0287149
759.523 .0287090
760.242 .0287001
760.961 .0286881
761.679 .0286741
762.397 .0286579
763.115 .0286401
763.833 .0286209
764.551 .0286005
765.268 .0285787
765.985 .0285553
766.702 .0285305
767.418 .0285047
768.134 .0284785
768.850 .0284533
769.566 .0284296
770.282 .0284085
770.997 .0283909
771.712 .0283762
772.427 .0283638
773.142 .0283533
773.856 .0283434
774.570 .0283336
775.284 .0283234
775.998 .0283129
776.711 .0283022
777.424 .0282915
778.137 .0282817
778.849 .0282723
779.562 .0282636
780.274 .0282552
780.986 .0282459
781.697 .0282358
782.409 .0282248
783.120 .0282130
783.831 .0282007
784.541 .0281888
785.252 .0281779
785.962 .0281678
786.671 .0281585
787.381 .0281504
788.090 .0281431
788.799 .0281359
789.508 .0281285
790.217 .0281208
790.925 .0281131
791.633 .0281050
792.341 .0280961
793.048 .0280867
793.755 .0280766
794.462 .0280657
795.169 .0280533
795.875 .0280410
796.581 .0280287
797.287 .0280171
797.993 .0280064
798.698 .0279975
799.403 .0279902
800.108 .0279838
800.812 .0279781
801.517 .0279725
802.221 .0279665
802.924 .0279598
803.628 .0279520
804.331 .0279439
805.034 .0279355
805.736 .0279265
806.439 .0279170
807.141 .0279072
807.843 .0278964
808.544 .0278840
809.245 .0278699
809.946 .0278538
810.647 .0278362
811.347 .0278171
812.047 .0277975
812.747 .0277782
813.447 .0277596
814.146 .0277418
814.845 .0277252
815.543 .0277103
816.242 .0276966
816.940 .0276842
817.638 .0276734
818.335 .0276641
819.032 .0276561
819.729 .0276488
820.426 .0276421
821.122 .0276354
821.818 .0276282
822.514 .0276202
823.209 .0276110
823.905 .0276009
824.599 .0275899
825.294 .0275778
825.988 .0275651
826.682 .0275519
827.376 .0275372
828.069 .0275214
828.762 .0275041
829.455 .0274855
830.147 .0274656
830.840 .0274448
831.531 .0274239
832.223 .0274037
832.914 .0273848
833.605 .0273674
834.296 .0273520
834.986 .0273390
835.676 .0273274
836.366 .0273167
837.055 .0273071
837.744 .0272975
838.433 .0272879
839.121 .0272778
839.809 .0272670
840.497 .0272559
841.185 .0272441
841.872 .0272318
842.559 .0272196
843.245 .0272072
843.932 .0271948
844.617 .0271819
845.303 .0271689
845.988 .0271555
846.673 .0271415
847.358 .0271268
848.042 .0271114
848.726 .0270957
849.410 .0270801
850.093 .0270642
850.776 .0270496
851.459 .0270359
852.141 .0270230
852.823 .0270106
853.505 .0269993
854.186 .0269880
854.867 .0269768
855.548 .0269658
856.228 .0269547
856.908 .0269435
857.588 .0269320
858.267 .0269199
858.946 .0269079
859.625 .0268963
860.303 .0268846
860.981 .0268731
861.659 .0268624
862.336 .0268519
863.013 .0268415
863.690 .0268311
864.366 .0268204
865.042 .0268091
865.718 .0267975
866.393 .0267849
867.068 .0267713
867.743 .0267576
868.417 .0267435
869.091 .0267292
869.765 .0267154
870.438 .0267015
871.111 .0266874
871.783 .0266736
872.456 .0266596
873.127 .0266451
873.799 .0266309
874.470 .0266165
875.141 .0266020
875.811 .0265875
876.481 .0265735
877.151 .0265593
877.820 .0265457
878.489 .0265327
879.158 .0265196
879.826 .0265066
880.494 .0264937
881.162 .0264803
881.829 .0264669
882.496 .0264531
883.163 .0264385
883.829 .0264233
884.495 .0264075
885.160 .0263916
885.825 .0263758
886.490 .0263613
887.154 .0263488
887.818 .0263380
888.482 .0263298
889.145 .0263235
889.808 .0263184
890.471 .0263147
891.133 .0263120
891.795 .0263100
892.456 .0263084
893.117 .0263075
893.778 .0263076
894.439 .0263087
895.099 .0263112
895.758 .0263144
896.417 .0263175
897.076 .0263208
897.735 .0263231
898.393 .0263236
899.051 .0263227
899.708 .0263193
900.365 .0263138
901.022 .0263065
901.678 .0262973
902.334 .0262862
902.990 .0262739
903.645 .0262607
904.300 .0262464
904.954 .0262310
905.608 .0262155
906.262 .0261997
906.915 .0261848
907.568 .0261703
908.221 .0261564
908.873 .0261437
909.525 .0261322
910.176 .0261215
910.828 .0261120
911.478 .0261033
912.129 .0260950
912.778 .0260873
913.428 .0260802
914.077 .0260736
914.726 .0260681
915.375 .0260633
916.023 .0260597
916.670 .0260563
917.318 .0260532
917.964 .0260497
918.611 .0260460
919.257 .0260416
919.903 .0260360
920.548 .0260292
921.193 .0260213
921.838 .0260131
922.482 .0260045
923.126 .0259959
923.770 .0259878
924.413 .0259796
925.056 .0259712
925.698 .0259623
926.340 .0259528
926.982 .0259426
927.623 .0259319
928.264 .0259206
928.904 .0259083
929.544 .0258960
930.184 .0258837
930.823 .0258720
931.462 .0258609
932.101 .0258505
932.739 .0258403
933.377 .0258302
934.014 .0258196
934.651 .0258087
935.288 .0257973
935.924 .0257855
936.560 .0257732
937.196 .0257607
937.831 .0257479
938.466 .0257349
939.100 .0257218
939.734 .0257081
940.368 .0256929
941.001 .0256763
941.634 .0256578
942.266 .0256381
942.899 .0256176
943.530 .0255966
944.162 .0255759
944.793 .0255557
945.423 .0255360
946.053 .0255167
946.683 .0254974
947.313 .0254781
947.942 .0254578
948.571 .0254369
949.199 .0254149
949.827 .0253921
950.455 .0253699
951.082 .0253486
951.709 .0253288
952.335 .0253102
952.961 .0252929
953.587 .0252767
954.212 .0252612
954.837 .0252462
955.462 .0252318
956.086 .0252181
956.710 .0252053
957.334 .0251938
957.957 .0251835
958.579 .0251747
959.202 .0251667
959.824 .0251597
960.445 .0251531
961.067 .0251467
961.688 .0251403
962.308 .0251339
962.928 .0251283
963.548 .0251226
964.168 .0251167
964.787 .0251104
965.406 .0251035
966.024 .0250960
966.642 .0250872
967.260 .0250776
967.877 .0250675
968.494 .0250571
969.110 .0250468
969.727 .0250366
970.342 .0250270
970.958 .0250180
971.573 .0250089
972.188 .0249994
972.802 .0249894
973.416 .0249779
974.030 .0249653
974.643 .0249516
975.256 .0249375
975.869 .0249238
976.481 .0249108
977.093 .0248995
977.705 .0248903
978.316 .0248835
978.927 .0248781
979.538 .0248739
980.148 .0248703
980.758 .0248668
981.367 .0248635
981.977 .0248606
982.586 .0248590
983.194 .0248588
983.802 .0248611
984.410 .0248647
985.018 .0248701
985.625 .0248760
986.232 .0248808
986.838 .0248845
987.445 .0248855
988.050 .0248834
988.656 .0248779
989.261 .0248696
989.866 .0248589
990.471 .0248462
991.075 .0248328
991.679 .0248179
992.282 .0248029
992.886 .0247876
993.489 .0247724
994.091 .0247571
994.694 .0247428
995.296 .0247288
995.897 .0247153
996.499 .0247030
997.100 .0246912
997.701 .0246807
998.301 .0246722
998.901 .0246656
999.501 .0246621
1000.101 .0246615
1000.700 .0246641
1001.299 .0246689
1001.898 .0246758
1002.496 .0246834
1003.094 .0246908
1003.692 .0246973
1004.289 .0247030
1004.887 .0247077
1005.484 .0247119
1006.080 .0247160
1006.677 .0247203
1007.273 .0247252
1007.868 .0247300
1008.464 .0247350
1009.059 .0247391
1009.654 .0247421
1010.249 .0247443
1010.843 .0247448
1011.437 .0247441
1012.031 .0247422
1012.625 .0247390
1013.218 .0247348
1013.811 .0247298
1014.404 .0247239
1014.997 .0247175
1015.589 .0247106
1016.181 .0247040
1016.773 .0246971
1017.365 .0246907
1017.956 .0246851
1018.547 .0246797
1019.138 .0246749
1019.728 .0246706
1020.319 .0246659
1020.909 .0246617
1021.499 .0246575
1022.088 .0246537
1022.678 .0246502
1023.267 .0246476
1023.856 .0246452
1024.445 .0246422
1025.033 .0246394
1025.621 .0246362
1026.209 .0246320
1026.797 .0246272
1027.385 .0246214
1027.972 .0246150
1028.560 .0246086
1029.147 .0246020
1029.734 .0245964
1030.320 .0245916
1030.907 .0245882
1031.493 .0245857
1032.079 .0245839
1032.665 .0245838
1033.250 .0245851
1033.836 .0245879
1034.421 .0245927
1035.006 .0245993
1035.591 .0246075
1036.176 .0246162
1036.761 .0246257
1037.345 .0246361
1037.929 .0246468
1038.514 .0246569
1039.097 .0246662
1039.681 .0246742
1040.265 .0246815
1040.848 .0246875
1041.432 .0246920
1042.015 .0246963
1042.598 .0247000
1043.181 .0247031
1043.764 .0247056
1044.346 .0247070
1044.929 .0247075
1045.511 .0247066
1046.094 .0247047
1046.676 .0247011
1047.258 .0246960
1047.840 .0246900
1048.422 .0246834
1049.003 .0246774
1049.585 .0246715
1050.166 .0246661
1050.748 .0246614
1051.329 .0246573
1051.910 .0246521
1052.491 .0246462
1053.072 .0246388
1053.653 .0246306
1054.234 .0246222
1054.815 .0246130
1055.396 .0246037
1055.976 .0245950
1056.557 .0245865
1057.138 .0245781
1057.718 .0245689
1058.298 .0245589
1058.879 .0245475
1059.459 .0245345
1060.039 .0245189
1060.620 .0245011
1061.200 .0244827
1061.780 .0244646
1062.360 .0244459
1062.940 .0244282
1063.520 .0244113
1064.101 .0243956
1064.681 .0243821
1065.261 .0243693
1065.841 .0243580
1066.421 .0243490
1067.001 .0243400
1067.581 .0243311
1068.161 .0243224
1068.741 .0243143
1069.321 .0243081
1069.901 .0243046
1070.482 .0243044
1071.062 .0243058
1071.642 .0243117
1072.222 .0243214
1072.803 .0243323
1073.383 .0243439
1073.963 .0243556
1074.544 .0243654
1075.124 .0243738
1075.705 .0243788
1076.286 .0243815
1076.866 .0243836
1077.447 .0243852
1078.028 .0243859
1078.609 .0243871
1079.190 .0243880
1079.771 .0243870
1080.352 .0243834
1080.934 .0243782
1081.515 .0243702
1082.097 .0243596
1082.679 .0243494
1083.260 .0243419
1083.842 .0243360
1084.424 .0243330
1085.007 .0243327
1085.589 .0243363
1086.172 .0243423
1086.754 .0243473
1087.337 .0243511
1087.920 .0243557
1088.503 .0243589
1089.087 .0243611
1089.670 .0243633
1090.254 .0243670
1090.838 .0243703
1091.422 .0243711
1092.006 .0243699
1092.590 .0243658
1093.175 .0243562
1093.760 .0243420
1094.345 .0243216
1094.930 .0242982
1095.516 .0242701
1096.102 .0242418
1096.688 .0242180
1097.274 .0241973
1097.860 .0241809
1098.447 .0241695
1099.034 .0241618
1099.622 .0241586
1100.209 .0241571
1100.797 .0241584
1101.385 .0241621
1101.973 .0241680
1102.562 .0241734
1103.151 .0241805
1103.740 .0241904
1104.330 .0242035
1104.920 .0242168
1105.510 .0242323
1106.101 .0242474
1106.691 .0242620
1107.283 .0242761
1107.874 .0242878
1108.466 .0242957
1109.058 .0243012
1109.651 .0243011
1110.244 .0242974
1110.837 .0242875
1111.431 .0242724
1112.025 .0242535
1112.620 .0242334
1113.215 .0242115
1113.810 .0241904
1114.406 .0241750
1115.002 .0241662
1115.599 .0241658
1116.196 .0241729
1116.793 .0241844
1117.391 .0242011
1117.989 .0242192
1118.588 .0242352
1119.187 .0242463
1119.787 .0242551
1120.387 .0242609
1120.988 .0242650
1121.589 .0242730
1122.190 .0242828
1122.793 .0242968
1123.395 .0243164
1123.998 .0243377
1124.602 .0243584
1125.206 .0243757
1125.811 .0243886
1126.416 .0243957
1127.022 .0243990
1127.628 .0243997
1128.235 .0244024
1128.843 .0244128
1129.451 .0244336
1130.059 .0244604
1130.669 .0244955
1131.278 .0245388
1131.889 .0245823
1132.500 .0246269
1133.112 .0246702
1133.724 .0247122
1134.337 .0247564
1134.950 .0248007
1135.564 .0248512
1136.179 .0249086
1136.795 .0249736
1137.411 .0250450
1138.028 .0251200
1138.645 .0252000
1139.263 .0252833
1139.882 .0253637
1140.502 .0254508
1141.122 .0255494
1141.743 .0256611
1142.365 .0257814
1142.987 .0257158
1143.611 .0260126
1144.235 .0263441
1144.859 .0264889
1145.485 .0264896
