Measurement Sequence started on: 10-20-44-796
Integration time: 35
Scans to Average: 2 
>>>>>Begin Spectral Data<<<<<
432.953 .0263560
433.882 .0315226
434.810 .0300099
435.737 .0309963
436.662 .0300926
437.586 .0306508
438.509 .0308406
439.431 .0308548
440.351 .0308985
441.269 .0309028
442.187 .0309232
443.103 .0309255
444.018 .0309451
444.932 .0309822
445.844 .0310369
446.756 .0311012
447.666 .0311767
448.575 .0312489
449.482 .0313181
450.388 .0313776
451.294 .0314280
452.198 .0314730
453.100 .0315125
454.002 .0315502
454.902 .0315929
455.801 .0316380
456.699 .0316860
457.596 .0317328
458.492 .0317735
459.387 .0318023
460.280 .0318190
461.172 .0318185
462.064 .0318045
462.954 .0317807
463.843 .0317544
464.730 .0317320
465.617 .0317194
466.503 .0317169
467.387 .0317234
468.271 .0317346
469.153 .0317467
470.035 .0317506
470.915 .0317442
471.794 .0317241
472.673 .0316969
473.550 .0316692
474.426 .0316451
475.301 .0316291
476.175 .0316222
477.048 .0316204
477.920 .0316195
478.791 .0316160
479.661 .0316035
480.530 .0315798
481.398 .0315446
482.266 .0315011
483.132 .0314550
483.997 .0314096
484.861 .0313707
485.724 .0313413
486.587 .0313195
487.448 .0312994
488.308 .0312743
489.168 .0312426
490.026 .0311994
490.884 .0311446
491.741 .0310798
492.597 .0310073
493.452 .0309329
494.306 .0308597
495.159 .0307917
496.011 .0307305
496.862 .0306751
497.713 .0306207
498.562 .0305641
499.411 .0305052
500.259 .0304402
501.106 .0303727
501.952 .0303059
502.798 .0302435
503.642 .0301884
504.486 .0301419
505.329 .0301065
506.171 .0300819
507.012 .0300672
507.852 .0300563
508.692 .0300433
509.531 .0300250
510.369 .0299953
511.206 .0299546
512.043 .0298993
512.878 .0298305
513.713 .0297468
514.547 .0296502
515.381 .0295403
516.213 .0294163
517.045 .0292763
517.876 .0291204
518.706 .0289515
519.536 .0287719
520.365 .0285832
521.193 .0283922
522.020 .0281948
522.847 .0279960
523.673 .0277905
524.498 .0275801
525.323 .0273624
526.146 .0271456
526.969 .0269346
527.792 .0267290
528.614 .0265386
529.435 .0263679
530.255 .0262157
531.075 .0260862
531.894 .0259698
532.712 .0258668
533.530 .0257640
534.347 .0256572
535.163 .0255376
535.979 .0254141
536.794 .0252921
537.608 .0251739
538.422 .0250728
539.235 .0249933
540.048 .0249388
540.860 .0249118
541.671 .0249095
542.481 .0249304
543.292 .0249675
544.101 .0250116
544.910 .0250571
545.718 .0251075
546.526 .0251619
547.333 .0252226
548.139 .0252929
548.945 .0253714
549.750 .0254569
550.555 .0255471
551.359 .0256474
552.162 .0257506
552.965 .0258566
553.768 .0259551
554.569 .0260432
555.371 .0261213
556.171 .0261841
556.972 .0262364
557.771 .0262816
558.570 .0263235
559.369 .0263682
560.167 .0264157
560.964 .0264739
561.761 .0265389
562.558 .0266157
563.354 .0267001
564.149 .0267861
564.944 .0268714
565.738 .0269531
566.532 .0270312
567.325 .0271075
568.118 .0271793
568.910 .0272486
569.702 .0273197
570.494 .0273945
571.285 .0274729
572.075 .0275568
572.865 .0276432
573.654 .0277321
574.443 .0278192
575.232 .0279008
576.020 .0279749
576.807 .0280449
577.594 .0281115
578.381 .0281754
579.167 .0282395
579.952 .0283035
580.738 .0283689
581.522 .0284367
582.307 .0285044
583.091 .0285704
583.874 .0286337
584.657 .0286920
585.440 .0287420
586.222 .0287845
587.004 .0288199
587.785 .0288491
588.566 .0288749
589.346 .0288977
590.126 .0289170
590.906 .0289334
591.685 .0289474
592.464 .0289591
593.242 .0289692
594.020 .0289778
594.797 .0289835
595.575 .0289878
596.351 .0289907
597.128 .0289914
597.904 .0289911
598.679 .0289904
599.454 .0289885
600.229 .0289854
601.004 .0289822
601.778 .0289785
602.551 .0289748
603.325 .0289715
604.097 .0289684
604.870 .0289655
605.642 .0289616
606.414 .0289572
607.185 .0289523
607.956 .0289478
608.727 .0289429
609.497 .0289377
610.267 .0289320
611.037 .0289250
611.806 .0289178
612.575 .0289102
613.344 .0289026
614.112 .0288956
614.880 .0288878
615.647 .0288798
616.414 .0288707
617.181 .0288610
617.948 .0288496
618.714 .0288366
619.480 .0288216
620.245 .0288044
621.011 .0287855
621.775 .0287656
622.540 .0287448
623.304 .0287249
624.068 .0287056
624.832 .0286859
625.595 .0286664
626.358 .0286469
627.120 .0286270
627.883 .0286072
628.645 .0285872
629.406 .0285677
630.168 .0285492
630.929 .0285322
631.689 .0285177
632.450 .0285056
633.210 .0284960
633.970 .0284873
634.729 .0284790
635.489 .0284702
636.248 .0284597
637.006 .0284479
637.765 .0284347
638.523 .0284203
639.280 .0284053
640.038 .0283895
640.795 .0283743
641.552 .0283601
642.309 .0283473
643.065 .0283349
643.821 .0283234
644.577 .0283114
645.332 .0282993
646.088 .0282864
646.843 .0282729
647.597 .0282589
648.352 .0282453
649.106 .0282324
649.860 .0282203
650.613 .0282091
651.367 .0281988
652.120 .0281890
652.872 .0281787
653.625 .0281675
654.377 .0281548
655.129 .0281401
655.881 .0281243
656.632 .0281078
657.384 .0280914
658.135 .0280751
658.885 .0280596
659.636 .0280452
660.386 .0280319
661.136 .0280194
661.885 .0280073
662.635 .0279963
663.384 .0279864
664.133 .0279767
664.881 .0279672
665.630 .0279585
666.378 .0279506
667.126 .0279427
667.874 .0279351
668.621 .0279272
669.368 .0279186
670.115 .0279090
670.862 .0278984
671.608 .0278870
672.354 .0278751
673.100 .0278628
673.846 .0278504
674.591 .0278382
675.337 .0278266
676.082 .0278149
676.826 .0278039
677.571 .0277930
678.315 .0277821
679.059 .0277708
679.803 .0277590
680.547 .0277466
681.290 .0277342
682.033 .0277216
682.776 .0277087
683.518 .0276962
684.261 .0276839
685.003 .0276718
685.745 .0276599
686.487 .0276481
687.228 .0276363
687.969 .0276239
688.710 .0276109
689.451 .0275967
690.192 .0275816
690.932 .0275658
691.672 .0275489
692.412 .0275321
693.152 .0275153
693.891 .0274989
694.630 .0274829
695.369 .0274682
696.108 .0274541
696.846 .0274402
697.585 .0274263
698.323 .0274122
699.061 .0273975
699.798 .0273822
700.536 .0273661
701.273 .0273501
702.010 .0273345
702.746 .0273196
703.483 .0273052
704.219 .0272916
704.955 .0272785
705.691 .0272654
706.427 .0272518
707.162 .0272376
707.897 .0272222
708.632 .0272057
709.367 .0271882
710.101 .0271703
710.835 .0271519
711.569 .0271336
712.303 .0271154
713.037 .0270978
713.770 .0270803
714.503 .0270628
715.236 .0270455
715.969 .0270280
716.702 .0270105
717.434 .0269925
718.166 .0269742
718.898 .0269557
719.629 .0269373
720.361 .0269193
721.092 .0269022
721.823 .0268862
722.554 .0268707
723.284 .0268558
724.014 .0268411
724.744 .0268261
725.474 .0268106
726.204 .0267945
726.933 .0267778
727.662 .0267606
728.391 .0267433
729.120 .0267260
729.849 .0267095
730.577 .0266939
731.305 .0266786
732.033 .0266631
732.760 .0266473
733.488 .0266307
734.215 .0266129
734.942 .0265946
735.669 .0265758
736.395 .0265564
737.122 .0265373
737.848 .0265184
738.573 .0264997
739.299 .0264812
740.024 .0264629
740.750 .0264447
741.474 .0264265
742.199 .0264084
742.924 .0263899
743.648 .0263719
744.372 .0263548
745.096 .0263381
745.819 .0263217
746.543 .0263057
747.266 .0262898
747.989 .0262743
748.711 .0262594
749.434 .0262454
750.156 .0262323
750.878 .0262212
751.599 .0262118
752.321 .0262038
753.042 .0261975
753.763 .0261930
754.484 .0261890
755.205 .0261856
755.925 .0261820
756.645 .0261779
757.365 .0261732
758.085 .0261683
758.804 .0261626
759.523 .0261563
760.242 .0261493
760.961 .0261412
761.679 .0261322
762.397 .0261218
763.115 .0261095
763.833 .0260952
764.551 .0260794
765.268 .0260616
765.985 .0260420
766.702 .0260215
767.418 .0260008
768.134 .0259799
768.850 .0259595
769.566 .0259396
770.282 .0259201
770.997 .0259014
771.712 .0258832
772.427 .0258651
773.142 .0258477
773.856 .0258302
774.570 .0258126
775.284 .0257948
775.998 .0257770
776.711 .0257586
777.424 .0257401
778.137 .0257216
778.849 .0257028
779.562 .0256840
780.274 .0256656
780.986 .0256477
781.697 .0256308
782.409 .0256150
783.120 .0256003
783.831 .0255866
784.541 .0255740
785.252 .0255621
785.962 .0255511
786.671 .0255407
787.381 .0255308
788.090 .0255216
788.799 .0255129
789.508 .0255045
790.217 .0254962
790.925 .0254883
791.633 .0254802
792.341 .0254718
793.048 .0254627
793.755 .0254526
794.462 .0254415
795.169 .0254293
795.875 .0254167
796.581 .0254038
797.287 .0253907
797.993 .0253773
798.698 .0253640
799.403 .0253508
800.108 .0253373
800.812 .0253237
801.517 .0253096
802.221 .0252955
802.924 .0252810
803.628 .0252660
804.331 .0252516
805.034 .0252379
805.736 .0252247
806.439 .0252122
807.141 .0252007
807.843 .0251900
808.544 .0251798
809.245 .0251698
809.946 .0251599
810.647 .0251498
811.347 .0251401
812.047 .0251303
812.747 .0251211
813.447 .0251126
814.146 .0251049
814.845 .0250979
815.543 .0250917
816.242 .0250856
816.940 .0250791
817.638 .0250720
818.335 .0250643
819.032 .0250549
819.729 .0250443
820.426 .0250328
821.122 .0250204
821.818 .0250074
822.514 .0249944
823.209 .0249812
823.905 .0249683
824.599 .0249554
825.294 .0249427
825.988 .0249297
826.682 .0249169
827.376 .0249043
828.069 .0248917
828.762 .0248790
829.455 .0248664
830.147 .0248535
830.840 .0248409
831.531 .0248281
832.223 .0248157
832.914 .0248033
833.605 .0247912
834.296 .0247796
834.986 .0247687
835.676 .0247588
836.366 .0247496
837.055 .0247406
837.744 .0247316
838.433 .0247222
839.121 .0247123
839.809 .0247015
840.497 .0246906
841.185 .0246794
841.872 .0246684
842.559 .0246579
843.245 .0246481
843.932 .0246389
844.617 .0246304
845.303 .0246223
845.988 .0246139
846.673 .0246051
847.358 .0245957
848.042 .0245862
848.726 .0245769
849.410 .0245680
850.093 .0245597
850.776 .0245524
851.459 .0245463
852.141 .0245405
852.823 .0245351
853.505 .0245299
854.186 .0245244
854.867 .0245184
855.548 .0245114
856.228 .0245039
856.908 .0244957
857.588 .0244874
858.267 .0244789
858.946 .0244697
859.625 .0244598
860.303 .0244494
860.981 .0244382
861.659 .0244262
862.336 .0244136
863.013 .0244010
863.690 .0243884
864.366 .0243759
865.042 .0243633
865.718 .0243507
866.393 .0243384
867.068 .0243261
867.743 .0243138
868.417 .0243014
869.091 .0242892
869.765 .0242772
870.438 .0242655
871.111 .0242539
871.783 .0242423
872.456 .0242300
873.127 .0242173
873.799 .0242031
874.470 .0241878
875.141 .0241714
875.811 .0241548
876.481 .0241382
877.151 .0241222
877.820 .0241067
878.489 .0240925
879.158 .0240791
879.826 .0240669
880.494 .0240545
881.162 .0240427
881.829 .0240309
882.496 .0240190
883.163 .0240073
883.829 .0239962
884.495 .0239861
885.160 .0239776
885.825 .0239700
886.490 .0239634
887.154 .0239571
887.818 .0239510
888.482 .0239443
889.145 .0239374
889.808 .0239299
890.471 .0239222
891.133 .0239144
891.795 .0239069
892.456 .0238993
893.117 .0238921
893.778 .0238844
894.439 .0238763
895.099 .0238673
895.758 .0238574
896.417 .0238463
897.076 .0238352
897.735 .0238243
898.393 .0238141
899.051 .0238046
899.708 .0237960
900.365 .0237877
901.022 .0237801
901.678 .0237719
902.334 .0237631
902.990 .0237533
903.645 .0237428
904.300 .0237319
904.954 .0237212
905.608 .0237111
906.262 .0237022
906.915 .0236946
907.568 .0236881
908.221 .0236814
908.873 .0236745
909.525 .0236670
910.176 .0236581
910.828 .0236481
911.478 .0236371
912.129 .0236250
912.778 .0236127
913.428 .0236004
914.077 .0235886
914.726 .0235771
915.375 .0235662
916.023 .0235558
916.670 .0235456
917.318 .0235358
917.964 .0235258
918.611 .0235156
919.257 .0235059
919.903 .0234962
920.548 .0234863
921.193 .0234768
921.838 .0234680
922.482 .0234598
923.126 .0234521
923.770 .0234449
924.413 .0234380
925.056 .0234314
925.698 .0234247
926.340 .0234175
926.982 .0234096
927.623 .0234010
928.264 .0233915
928.904 .0233808
929.544 .0233693
930.184 .0233569
930.823 .0233434
931.462 .0233293
932.101 .0233147
932.739 .0232998
933.377 .0232843
934.014 .0232685
934.651 .0232529
935.288 .0232368
935.924 .0232210
936.560 .0232053
937.196 .0231905
937.831 .0231766
938.466 .0231629
939.100 .0231496
939.734 .0231369
940.368 .0231243
941.001 .0231118
941.634 .0230996
942.266 .0230878
942.899 .0230761
943.530 .0230643
944.162 .0230522
944.793 .0230399
945.423 .0230270
946.053 .0230133
946.683 .0229984
947.313 .0229828
947.942 .0229660
948.571 .0229480
949.199 .0229300
949.827 .0229116
950.455 .0228933
951.082 .0228755
951.709 .0228581
952.335 .0228416
952.961 .0228259
953.587 .0228107
954.212 .0227960
954.837 .0227819
955.462 .0227678
956.086 .0227540
956.710 .0227412
957.334 .0227288
957.957 .0227174
958.579 .0227069
959.202 .0226972
959.824 .0226877
960.445 .0226784
961.067 .0226690
961.688 .0226592
962.308 .0226493
962.928 .0226389
963.548 .0226283
964.168 .0226182
964.787 .0226083
965.406 .0225991
966.024 .0225908
966.642 .0225836
967.260 .0225773
967.877 .0225720
968.494 .0225673
969.110 .0225631
969.727 .0225597
970.342 .0225571
970.958 .0225554
971.573 .0225550
972.188 .0225556
972.802 .0225575
973.416 .0225604
974.030 .0225641
974.643 .0225677
975.256 .0225716
975.869 .0225750
976.481 .0225781
977.093 .0225803
977.705 .0225822
978.316 .0225839
978.927 .0225855
979.538 .0225868
980.148 .0225873
980.758 .0225874
981.367 .0225869
981.977 .0225857
982.586 .0225840
983.194 .0225816
983.802 .0225794
984.410 .0225772
985.018 .0225753
985.625 .0225735
986.232 .0225723
986.838 .0225715
987.445 .0225706
988.050 .0225697
988.656 .0225688
989.261 .0225674
989.866 .0225656
990.471 .0225637
991.075 .0225612
991.679 .0225583
992.282 .0225546
992.886 .0225501
993.489 .0225453
994.091 .0225397
994.694 .0225334
995.296 .0225265
995.897 .0225196
996.499 .0225123
997.100 .0225046
997.701 .0224972
998.301 .0224902
998.901 .0224836
999.501 .0224783
1000.101 .0224742
1000.700 .0224714
1001.299 .0224695
1001.898 .0224687
1002.496 .0224685
1003.094 .0224692
1003.692 .0224703
1004.289 .0224723
1004.887 .0224752
1005.484 .0224798
1006.080 .0224851
1006.677 .0224918
1007.273 .0225000
1007.868 .0225095
1008.464 .0225192
1009.059 .0225294
1009.654 .0225392
1010.249 .0225482
1010.843 .0225568
1011.437 .0225651
1012.031 .0225722
1012.625 .0225793
1013.218 .0225857
1013.811 .0225916
1014.404 .0225968
1014.997 .0226016
1015.589 .0226052
1016.181 .0226087
1016.773 .0226115
1017.365 .0226137
1017.956 .0226154
1018.547 .0226170
1019.138 .0226179
1019.728 .0226185
1020.319 .0226186
1020.909 .0226180
1021.499 .0226165
1022.088 .0226153
1022.678 .0226135
1023.267 .0226121
1023.856 .0226108
1024.445 .0226105
1025.033 .0226103
1025.621 .0226103
1026.209 .0226098
1026.797 .0226082
1027.385 .0226046
1027.972 .0225992
1028.560 .0225923
1029.147 .0225843
1029.734 .0225757
1030.320 .0225678
1030.907 .0225606
1031.493 .0225560
1032.079 .0225533
1032.665 .0225530
1033.250 .0225543
1033.836 .0225564
1034.421 .0225584
1035.006 .0225601
1035.591 .0225623
1036.176 .0225646
1036.761 .0225681
1037.345 .0225738
1037.929 .0225804
1038.514 .0225883
1039.097 .0225970
1039.681 .0226064
1040.265 .0226153
1040.848 .0226237
1041.432 .0226303
1042.015 .0226357
1042.598 .0226397
1043.181 .0226424
1043.764 .0226438
1044.346 .0226444
1044.929 .0226441
1045.511 .0226416
1046.094 .0226380
1046.676 .0226332
1047.258 .0226268
1047.840 .0226207
1048.422 .0226153
1049.003 .0226109
1049.585 .0226076
1050.166 .0226067
1050.748 .0226071
1051.329 .0226090
1051.910 .0226118
1052.491 .0226139
1053.072 .0226152
1053.653 .0226159
1054.234 .0226147
1054.815 .0226120
1055.396 .0226095
1055.976 .0226065
1056.557 .0226024
1057.138 .0225987
1057.718 .0225937
1058.298 .0225866
1058.879 .0225774
1059.459 .0225657
1060.039 .0225504
1060.620 .0225323
1061.200 .0225126
1061.780 .0224911
1062.360 .0224695
1062.940 .0224500
1063.520 .0224319
1064.101 .0224174
1064.681 .0224075
1065.261 .0224006
1065.841 .0223960
1066.421 .0223946
1067.001 .0223950
1067.581 .0223954
1068.161 .0223968
1068.741 .0223982
1069.321 .0223980
1069.901 .0223965
1070.482 .0223935
1071.062 .0223871
1071.642 .0223787
1072.222 .0223677
1072.803 .0223526
1073.383 .0223359
1073.963 .0223178
1074.544 .0222981
1075.124 .0222771
1075.705 .0222555
1076.286 .0222329
1076.866 .0222088
1077.447 .0221845
1078.028 .0221605
1078.609 .0221371
1079.190 .0221175
1079.771 .0221006
1080.352 .0220895
1080.934 .0220836
1081.515 .0220840
1082.097 .0220908
1082.679 .0221022
1083.260 .0221157
1083.842 .0221293
1084.424 .0221400
1085.007 .0221486
1085.589 .0221524
1086.172 .0221539
1086.754 .0221526
1087.337 .0221513
1087.920 .0221501
1088.503 .0221504
1089.087 .0221515
1089.670 .0221541
1090.254 .0221565
1090.838 .0221580
1091.422 .0221576
1092.006 .0221557
1092.590 .0221523
1093.175 .0221491
1093.760 .0221469
1094.345 .0221450
1094.930 .0221428
1095.516 .0221426
1096.102 .0221409
1096.688 .0221392
1097.274 .0221359
1097.860 .0221303
1098.447 .0221221
1099.034 .0221113
1099.622 .0220962
1100.209 .0220768
1100.797 .0220543
1101.385 .0220265
1101.973 .0219957
1102.562 .0219650
1103.151 .0219326
1103.740 .0219011
1104.330 .0218736
1104.920 .0218514
1105.510 .0218357
1106.101 .0218267
1106.691 .0218233
1107.283 .0218245
1107.874 .0218285
1108.466 .0218318
1109.058 .0218346
1109.651 .0218404
1110.244 .0218466
1110.837 .0218535
1111.431 .0218642
1112.025 .0218770
1112.620 .0218946
1113.215 .0219153
1113.810 .0219375
1114.406 .0219590
1115.002 .0219762
1115.599 .0219866
1116.196 .0219867
1116.793 .0219807
1117.391 .0219708
1117.989 .0219573
1118.588 .0219456
1119.187 .0219351
1119.787 .0219268
1120.387 .0219213
1120.988 .0219184
1121.589 .0219146
1122.190 .0219063
1122.793 .0218926
1123.395 .0218743
1123.998 .0218522
1124.602 .0218320
1125.206 .0218172
1125.811 .0218095
1126.416 .0218118
1127.022 .0218200
1127.628 .0218316
1128.235 .0218456
1128.843 .0218600
1129.451 .0218728
1130.059 .0218803
1130.669 .0218850
1131.278 .0218893
1131.889 .0218934
1132.500 .0219026
1133.112 .0219178
1133.724 .0219421
1134.337 .0219751
1134.950 .0220119
1135.564 .0220555
1136.179 .0221024
1136.795 .0221531
1137.411 .0222025
1138.028 .0222511
1138.645 .0223005
1139.263 .0223534
1139.882 .0224093
1140.502 .0224746
1141.122 .0225392
1141.743 .0226116
1142.365 .0226592
1142.987 .0228076
1143.611 .0229833
1144.235 .0227814
1144.859 .0229277
1145.485 .0223180
