Measurement Sequence started on: 10-20-44-796
Integration time: 35
Scans to Average: 2 
>>>>>Begin Spectral Data<<<<<
432.953 .0301364
433.882 .0329615
434.810 .0334577
435.737 .0334382
436.662 .0326382
437.586 .0335587
438.509 .0337460
439.431 .0338010
440.351 .0337936
441.269 .0337654
442.187 .0337402
443.103 .0336752
444.018 .0336453
444.932 .0336439
445.844 .0336570
446.756 .0336895
447.666 .0337306
448.575 .0337681
449.482 .0337875
450.388 .0338049
451.294 .0337945
452.198 .0337694
453.100 .0337353
454.002 .0336960
454.902 .0336555
455.801 .0336089
456.699 .0335495
457.596 .0334844
458.492 .0334057
459.387 .0333151
460.280 .0332133
461.172 .0331077
462.064 .0329950
462.954 .0328844
463.843 .0327768
464.730 .0326865
465.617 .0326080
466.503 .0325437
467.387 .0324877
468.271 .0324360
469.153 .0323860
470.035 .0323355
470.915 .0322882
471.794 .0322472
472.673 .0322063
473.550 .0321722
474.426 .0321431
475.301 .0321166
476.175 .0320874
477.048 .0320546
477.920 .0320149
478.791 .0319678
479.661 .0319155
480.530 .0318611
481.398 .0318099
482.266 .0317675
483.132 .0317351
483.997 .0317123
484.861 .0316992
485.724 .0316926
486.587 .0316875
487.448 .0316826
488.308 .0316747
489.168 .0316598
490.026 .0316433
490.884 .0316253
491.741 .0316063
492.597 .0315879
493.452 .0315720
494.306 .0315577
495.159 .0315428
496.011 .0315267
496.862 .0315065
497.713 .0314780
498.562 .0314397
499.411 .0313876
500.259 .0313258
501.106 .0312550
501.952 .0311804
502.798 .0311053
503.642 .0310385
504.486 .0309762
505.329 .0309183
506.171 .0308631
507.012 .0308080
507.852 .0307498
508.692 .0306824
509.531 .0306051
510.369 .0305199
511.206 .0304310
512.043 .0303391
512.878 .0302427
513.713 .0301512
514.547 .0300543
515.381 .0299502
516.213 .0298312
517.045 .0296953
517.876 .0295373
518.706 .0293622
519.536 .0291762
520.365 .0289813
521.193 .0287856
522.020 .0285924
522.847 .0283978
523.673 .0282037
524.498 .0280040
525.323 .0277930
526.146 .0275769
526.969 .0273609
527.792 .0271433
528.614 .0269326
529.435 .0267438
530.255 .0265807
531.075 .0264376
531.894 .0263222
532.712 .0262313
533.530 .0261518
534.347 .0260941
535.163 .0260437
535.979 .0260044
536.794 .0259780
537.608 .0259590
538.422 .0259460
539.235 .0259414
540.048 .0259456
540.860 .0259508
541.671 .0259609
542.481 .0259873
543.292 .0260122
544.101 .0260381
544.910 .0260654
545.718 .0260854
546.526 .0261013
547.333 .0261158
548.139 .0261239
548.945 .0261329
549.750 .0261452
550.555 .0261635
551.359 .0261898
552.162 .0262248
552.965 .0262691
553.768 .0263170
554.569 .0263750
555.371 .0264342
556.171 .0264944
556.972 .0265627
557.771 .0266375
558.570 .0267198
559.369 .0268099
560.167 .0269042
560.964 .0270043
561.761 .0271035
562.558 .0271984
563.354 .0272857
564.149 .0273661
564.944 .0274354
565.738 .0274988
566.532 .0275554
567.325 .0276102
568.118 .0276620
568.910 .0277164
569.702 .0277716
570.494 .0278297
571.285 .0278887
572.075 .0279473
572.865 .0280062
573.654 .0280663
574.443 .0281239
575.232 .0281815
576.020 .0282374
576.807 .0282936
577.594 .0283496
578.381 .0284072
579.167 .0284660
579.952 .0285266
580.738 .0285892
581.522 .0286537
582.307 .0287181
583.091 .0287820
583.874 .0288423
584.657 .0288989
585.440 .0289519
586.222 .0289996
587.004 .0290429
587.785 .0290822
588.566 .0291200
589.346 .0291561
590.126 .0291910
590.906 .0292245
591.685 .0292567
592.464 .0292866
593.242 .0293144
594.020 .0293378
594.797 .0293573
595.575 .0293720
596.351 .0293824
597.128 .0293887
597.904 .0293919
598.679 .0293927
599.454 .0293911
600.229 .0293871
601.004 .0293816
601.778 .0293736
602.551 .0293639
603.325 .0293526
604.097 .0293397
604.870 .0293262
605.642 .0293120
606.414 .0292975
607.185 .0292823
607.956 .0292678
608.727 .0292540
609.497 .0292402
610.267 .0292263
611.037 .0292127
611.806 .0291984
612.575 .0291841
613.344 .0291690
614.112 .0291541
614.880 .0291390
615.647 .0291247
616.414 .0291105
617.181 .0290971
617.948 .0290849
618.714 .0290739
619.480 .0290643
620.245 .0290566
621.011 .0290503
621.775 .0290446
622.540 .0290396
623.304 .0290350
624.068 .0290297
624.832 .0290236
625.595 .0290158
626.358 .0290064
627.120 .0289950
627.883 .0289814
628.645 .0289661
629.406 .0289500
630.168 .0289328
630.929 .0289148
631.689 .0288962
632.450 .0288767
633.210 .0288560
633.970 .0288343
634.729 .0288113
635.489 .0287869
636.248 .0287613
637.006 .0287351
637.765 .0287084
638.523 .0286831
639.280 .0286591
640.038 .0286365
640.795 .0286163
641.552 .0285978
642.309 .0285800
643.065 .0285625
643.821 .0285447
644.577 .0285254
645.332 .0285047
646.088 .0284830
646.843 .0284595
647.597 .0284365
648.352 .0284146
649.106 .0283948
649.860 .0283770
650.613 .0283621
651.367 .0283485
652.120 .0283360
652.872 .0283236
653.625 .0283103
654.377 .0282960
655.129 .0282809
655.881 .0282649
656.632 .0282485
657.384 .0282325
658.135 .0282169
658.885 .0282014
659.636 .0281865
660.386 .0281712
661.136 .0281548
661.885 .0281376
662.635 .0281194
663.384 .0281002
664.133 .0280808
664.881 .0280620
665.630 .0280434
666.378 .0280258
667.126 .0280084
667.874 .0279915
668.621 .0279747
669.368 .0279586
670.115 .0279425
670.862 .0279267
671.608 .0279123
672.354 .0278988
673.100 .0278862
673.846 .0278751
674.591 .0278645
675.337 .0278539
676.082 .0278436
676.826 .0278327
677.571 .0278208
678.315 .0278090
679.059 .0277973
679.803 .0277861
680.547 .0277752
681.290 .0277651
682.033 .0277545
682.776 .0277438
683.518 .0277323
684.261 .0277187
685.003 .0277037
685.745 .0276868
686.487 .0276688
687.228 .0276498
687.969 .0276313
688.710 .0276132
689.451 .0275960
690.192 .0275802
690.932 .0275648
691.672 .0275496
692.412 .0275341
693.152 .0275184
693.891 .0275017
694.630 .0274847
695.369 .0274674
696.108 .0274501
696.846 .0274340
697.585 .0274185
698.323 .0274045
699.061 .0273911
699.798 .0273788
700.536 .0273666
701.273 .0273540
702.010 .0273411
702.746 .0273269
703.483 .0273120
704.219 .0272964
704.955 .0272806
705.691 .0272645
706.427 .0272487
707.162 .0272338
707.897 .0272196
708.632 .0272063
709.367 .0271934
710.101 .0271809
710.835 .0271686
711.569 .0271565
712.303 .0271441
713.037 .0271309
713.770 .0271179
714.503 .0271045
715.236 .0270909
715.969 .0270773
716.702 .0270639
717.434 .0270506
718.166 .0270376
718.898 .0270249
719.629 .0270118
720.361 .0269989
721.092 .0269860
721.823 .0269728
722.554 .0269594
723.284 .0269457
724.014 .0269313
724.744 .0269164
725.474 .0269013
726.204 .0268850
726.933 .0268687
727.662 .0268520
728.391 .0268351
729.120 .0268179
729.849 .0268009
730.577 .0267835
731.305 .0267660
732.033 .0267483
732.760 .0267300
733.488 .0267110
734.215 .0266916
734.942 .0266716
735.669 .0266511
736.395 .0266304
737.122 .0266099
737.848 .0265895
738.573 .0265706
739.299 .0265526
740.024 .0265361
740.750 .0265212
741.474 .0265075
742.199 .0264948
742.924 .0264825
743.648 .0264706
744.372 .0264584
745.096 .0264459
745.819 .0264333
746.543 .0264207
747.266 .0264084
747.989 .0263969
748.711 .0263863
749.434 .0263767
750.156 .0263682
750.878 .0263599
751.599 .0263520
752.321 .0263443
753.042 .0263368
753.763 .0263294
754.484 .0263222
755.205 .0263151
755.925 .0263081
756.645 .0263013
757.365 .0262943
758.085 .0262865
758.804 .0262779
759.523 .0262682
760.242 .0262573
760.961 .0262452
761.679 .0262320
762.397 .0262179
763.115 .0262028
763.833 .0261863
764.551 .0261684
765.268 .0261484
765.985 .0261271
766.702 .0261044
767.418 .0260809
768.134 .0260573
768.850 .0260343
769.566 .0260128
770.282 .0259928
770.997 .0259745
771.712 .0259573
772.427 .0259410
773.142 .0259254
773.856 .0259094
774.570 .0258927
775.284 .0258754
775.998 .0258578
776.711 .0258401
777.424 .0258227
778.137 .0258057
778.849 .0257889
779.562 .0257724
780.274 .0257558
780.986 .0257388
781.697 .0257217
782.409 .0257053
783.120 .0256895
783.831 .0256752
784.541 .0256624
785.252 .0256514
785.962 .0256420
786.671 .0256337
787.381 .0256257
788.090 .0256175
788.799 .0256084
789.508 .0255981
790.217 .0255868
790.925 .0255750
791.633 .0255631
792.341 .0255512
793.048 .0255395
793.755 .0255279
794.462 .0255158
795.169 .0255032
795.875 .0254895
796.581 .0254750
797.287 .0254596
797.993 .0254434
798.698 .0254275
799.403 .0254122
800.108 .0253982
800.812 .0253855
801.517 .0253742
802.221 .0253643
802.924 .0253552
803.628 .0253466
804.331 .0253381
805.034 .0253296
805.736 .0253209
806.439 .0253117
807.141 .0253023
807.843 .0252934
808.544 .0252844
809.245 .0252754
809.946 .0252662
810.647 .0252571
811.347 .0252482
812.047 .0252389
812.747 .0252297
813.447 .0252204
814.146 .0252107
814.845 .0252013
815.543 .0251915
816.242 .0251825
816.940 .0251735
817.638 .0251646
818.335 .0251556
819.032 .0251460
819.729 .0251357
820.426 .0251243
821.122 .0251119
821.818 .0250987
822.514 .0250844
823.209 .0250698
823.905 .0250553
824.599 .0250411
825.294 .0250272
825.988 .0250134
826.682 .0249998
827.376 .0249864
828.069 .0249727
828.762 .0249590
829.455 .0249452
830.147 .0249317
830.840 .0249189
831.531 .0249068
832.223 .0248963
832.914 .0248871
833.605 .0248793
834.296 .0248730
834.986 .0248676
835.676 .0248629
836.366 .0248585
837.055 .0248544
837.744 .0248502
838.433 .0248457
839.121 .0248409
839.809 .0248363
840.497 .0248323
841.185 .0248286
841.872 .0248253
842.559 .0248223
843.245 .0248193
843.932 .0248155
844.617 .0248110
845.303 .0248058
845.988 .0247997
846.673 .0247930
847.358 .0247857
848.042 .0247780
848.726 .0247709
849.410 .0247643
850.093 .0247583
850.776 .0247530
851.459 .0247481
852.141 .0247423
852.823 .0247363
853.505 .0247299
854.186 .0247226
854.867 .0247153
855.548 .0247079
856.228 .0247004
856.908 .0246932
857.588 .0246866
858.267 .0246804
858.946 .0246746
859.625 .0246692
860.303 .0246631
860.981 .0246569
861.659 .0246504
862.336 .0246433
863.013 .0246357
863.690 .0246281
864.366 .0246198
865.042 .0246105
865.718 .0246010
866.393 .0245913
867.068 .0245818
867.743 .0245727
868.417 .0245642
869.091 .0245560
869.765 .0245484
870.438 .0245415
871.111 .0245347
871.783 .0245284
872.456 .0245222
873.127 .0245158
873.799 .0245092
874.470 .0245027
875.141 .0244964
875.811 .0244905
876.481 .0244854
877.151 .0244811
877.820 .0244771
878.489 .0244737
879.158 .0244704
879.826 .0244671
880.494 .0244633
881.162 .0244586
881.829 .0244530
882.496 .0244466
883.163 .0244393
883.829 .0244318
884.495 .0244245
885.160 .0244182
885.825 .0244124
886.490 .0244074
887.154 .0244031
887.818 .0243997
888.482 .0243967
889.145 .0243934
889.808 .0243898
890.471 .0243859
891.133 .0243811
891.795 .0243754
892.456 .0243692
893.117 .0243624
893.778 .0243553
894.439 .0243480
895.099 .0243402
895.758 .0243324
896.417 .0243245
897.076 .0243166
897.735 .0243083
898.393 .0243005
899.051 .0242925
899.708 .0242840
900.365 .0242756
901.022 .0242667
901.678 .0242576
902.334 .0242485
902.990 .0242393
903.645 .0242303
904.300 .0242221
904.954 .0242147
905.608 .0242076
906.262 .0242012
906.915 .0241949
907.568 .0241881
908.221 .0241811
908.873 .0241732
909.525 .0241645
910.176 .0241548
910.828 .0241445
911.478 .0241334
912.129 .0241220
912.778 .0241097
913.428 .0240969
914.077 .0240837
914.726 .0240702
915.375 .0240565
916.023 .0240434
916.670 .0240310
917.318 .0240197
917.964 .0240090
918.611 .0239989
919.257 .0239889
919.903 .0239791
920.548 .0239688
921.193 .0239580
921.838 .0239468
922.482 .0239359
923.126 .0239260
923.770 .0239177
924.413 .0239112
925.056 .0239065
925.698 .0239035
926.340 .0239013
926.982 .0238990
927.623 .0238960
928.264 .0238912
928.904 .0238849
929.544 .0238762
930.184 .0238658
930.823 .0238544
931.462 .0238418
932.101 .0238287
932.739 .0238149
933.377 .0238002
934.014 .0237840
934.651 .0237666
935.288 .0237477
935.924 .0237274
936.560 .0237062
937.196 .0236844
937.831 .0236621
938.466 .0236402
939.100 .0236189
939.734 .0235984
940.368 .0235792
941.001 .0235608
941.634 .0235430
942.266 .0235265
942.899 .0235104
943.530 .0234950
944.162 .0234797
944.793 .0234646
945.423 .0234487
946.053 .0234319
946.683 .0234139
947.313 .0233946
947.942 .0233738
948.571 .0233513
949.199 .0233274
949.827 .0233028
950.455 .0232774
951.082 .0232517
951.709 .0232260
952.335 .0232005
952.961 .0231749
953.587 .0231498
954.212 .0231246
954.837 .0231001
955.462 .0230757
956.086 .0230522
956.710 .0230303
957.334 .0230100
957.957 .0229909
958.579 .0229737
959.202 .0229585
959.824 .0229444
960.445 .0229310
961.067 .0229186
961.688 .0229065
962.308 .0228950
962.928 .0228840
963.548 .0228731
964.168 .0228630
964.787 .0228536
965.406 .0228444
966.024 .0228356
966.642 .0228270
967.260 .0228180
967.877 .0228087
968.494 .0227994
969.110 .0227889
969.727 .0227777
970.342 .0227658
970.958 .0227531
971.573 .0227401
972.188 .0227267
972.802 .0227133
973.416 .0227001
974.030 .0226874
974.643 .0226749
975.256 .0226629
975.869 .0226516
976.481 .0226409
977.093 .0226312
977.705 .0226223
978.316 .0226144
978.927 .0226075
979.538 .0226017
980.148 .0225964
980.758 .0225914
981.367 .0225865
981.977 .0225815
982.586 .0225767
983.194 .0225719
983.802 .0225671
984.410 .0225626
985.018 .0225583
985.625 .0225542
986.232 .0225502
986.838 .0225461
987.445 .0225415
988.050 .0225364
988.656 .0225306
989.261 .0225242
989.866 .0225173
990.471 .0225100
991.075 .0225034
991.679 .0224971
992.282 .0224915
992.886 .0224868
993.489 .0224830
994.091 .0224800
994.694 .0224774
995.296 .0224753
995.897 .0224730
996.499 .0224710
997.100 .0224693
997.701 .0224678
998.301 .0224669
998.901 .0224667
999.501 .0224665
1000.101 .0224668
1000.700 .0224670
1001.299 .0224661
1001.898 .0224640
1002.496 .0224610
1003.094 .0224565
1003.692 .0224510
1004.289 .0224448
1004.887 .0224385
1005.484 .0224322
1006.080 .0224267
1006.677 .0224221
1007.273 .0224187
1007.868 .0224168
1008.464 .0224165
1009.059 .0224171
1009.654 .0224197
1010.249 .0224238
1010.843 .0224294
1011.437 .0224361
1012.031 .0224437
1012.625 .0224513
1013.218 .0224582
1013.811 .0224648
1014.404 .0224710
1014.997 .0224766
1015.589 .0224814
1016.181 .0224853
1016.773 .0224885
1017.365 .0224906
1017.956 .0224918
1018.547 .0224911
1019.138 .0224893
1019.728 .0224865
1020.319 .0224829
1020.909 .0224789
1021.499 .0224753
1022.088 .0224731
1022.678 .0224711
1023.267 .0224705
1023.856 .0224707
1024.445 .0224713
1025.033 .0224732
1025.621 .0224765
1026.209 .0224810
1026.797 .0224861
1027.385 .0224917
1027.972 .0224971
1028.560 .0225022
1029.147 .0225071
1029.734 .0225106
1030.320 .0225132
1030.907 .0225157
1031.493 .0225183
1032.079 .0225215
1032.665 .0225271
1033.250 .0225344
1033.836 .0225433
1034.421 .0225527
1035.006 .0225610
1035.591 .0225678
1036.176 .0225727
1036.761 .0225754
1037.345 .0225760
1037.929 .0225749
1038.514 .0225728
1039.097 .0225699
1039.681 .0225681
1040.265 .0225666
1040.848 .0225658
1041.432 .0225649
1042.015 .0225636
1042.598 .0225617
1043.181 .0225600
1043.764 .0225583
1044.346 .0225580
1044.929 .0225596
1045.511 .0225628
1046.094 .0225677
1046.676 .0225748
1047.258 .0225844
1047.840 .0225967
1048.422 .0226114
1049.003 .0226290
1049.585 .0226485
1050.166 .0226705
1050.748 .0226939
1051.329 .0227190
1051.910 .0227447
1052.491 .0227696
1053.072 .0227923
1053.653 .0228123
1054.234 .0228288
1054.815 .0228419
1055.396 .0228514
1055.976 .0228581
1056.557 .0228619
1057.138 .0228626
1057.718 .0228606
1058.298 .0228568
1058.879 .0228507
1059.459 .0228425
1060.039 .0228314
1060.620 .0228179
1061.200 .0228017
1061.780 .0227831
1062.360 .0227628
1062.940 .0227424
1063.520 .0227230
1064.101 .0227050
1064.681 .0226896
1065.261 .0226771
1065.841 .0226678
1066.421 .0226616
1067.001 .0226580
1067.581 .0226559
1068.161 .0226548
1068.741 .0226543
1069.321 .0226543
1069.901 .0226560
1070.482 .0226596
1071.062 .0226659
1071.642 .0226745
1072.222 .0226854
1072.803 .0226979
1073.383 .0227100
1073.963 .0227221
1074.544 .0227344
1075.124 .0227461
1075.705 .0227573
1076.286 .0227684
1076.866 .0227803
1077.447 .0227926
1078.028 .0228057
1078.609 .0228176
1079.190 .0228282
1079.771 .0228367
1080.352 .0228420
1080.934 .0228442
1081.515 .0228458
1082.097 .0228475
1082.679 .0228492
1083.260 .0228523
1083.842 .0228566
1084.424 .0228593
1085.007 .0228612
1085.589 .0228593
1086.172 .0228538
1086.754 .0228442
1087.337 .0228321
1087.920 .0228177
1088.503 .0228046
1089.087 .0227940
1089.670 .0227857
1090.254 .0227794
1090.838 .0227749
1091.422 .0227692
1092.006 .0227629
1092.590 .0227557
1093.175 .0227461
1093.760 .0227354
1094.345 .0227263
1094.930 .0227184
1095.516 .0227149
1096.102 .0227143
1096.688 .0227172
1097.274 .0227226
1097.860 .0227294
1098.447 .0227348
1099.034 .0227383
1099.622 .0227395
1100.209 .0227379
1100.797 .0227311
1101.385 .0227217
1101.973 .0227093
1102.562 .0226970
1103.151 .0226861
1103.740 .0226773
1104.330 .0226712
1104.920 .0226695
1105.510 .0226693
1106.101 .0226734
1106.691 .0226788
1107.283 .0226843
1107.874 .0226884
1108.466 .0226906
1109.058 .0226907
1109.651 .0226908
1110.244 .0226918
1110.837 .0226962
1111.431 .0227034
1112.025 .0227135
1112.620 .0227242
1113.215 .0227358
1113.810 .0227465
1114.406 .0227529
1115.002 .0227565
1115.599 .0227558
1116.196 .0227508
1116.793 .0227432
1117.391 .0227363
1117.989 .0227304
1118.588 .0227305
1119.187 .0227344
1119.787 .0227406
1120.387 .0227487
1120.988 .0227591
1121.589 .0227679
1122.190 .0227746
1122.793 .0227765
1123.395 .0227754
1123.998 .0227703
1124.602 .0227660
1125.206 .0227585
1125.811 .0227529
1126.416 .0227501
1127.022 .0227492
1127.628 .0227480
1128.235 .0227496
1128.843 .0227521
1129.451 .0227555
1130.059 .0227585
1130.669 .0227635
1131.278 .0227683
1131.889 .0227766
1132.500 .0227915
1133.112 .0228150
1133.724 .0228483
1134.337 .0228918
1134.950 .0229421
1135.564 .0230007
1136.179 .0230615
1136.795 .0231233
1137.411 .0231837
1138.028 .0232421
1138.645 .0232971
1139.263 .0233522
1139.882 .0234123
1140.502 .0234754
1141.122 .0235370
1141.743 .0236050
1142.365 .0236948
1142.987 .0238434
1143.611 .0238502
1144.235 .0237522
1144.859 .0239674
1145.485 .0246291
