Measurement Sequence started on: 10-20-44-796
Integration time: 35
Scans to Average: 2 
>>>>>Begin Spectral Data<<<<<
432.953 .0388801
433.882 .0436053
434.810 .0383327
435.737 .0363166
436.662 .0357781
437.586 .0371586
438.509 .0368212
439.431 .0364529
440.351 .0362789
441.269 .0361536
442.187 .0360340
443.103 .0358932
444.018 .0357723
444.932 .0356865
445.844 .0356342
446.756 .0355913
447.666 .0355629
448.575 .0355327
449.482 .0355089
450.388 .0354990
451.294 .0354976
452.198 .0355045
453.100 .0355205
454.002 .0355403
454.902 .0355692
455.801 .0356011
456.699 .0356373
457.596 .0356750
458.492 .0357096
459.387 .0357388
460.280 .0357601
461.172 .0357699
462.064 .0357691
462.954 .0357555
463.843 .0357288
464.730 .0356863
465.617 .0356321
466.503 .0355669
467.387 .0354947
468.271 .0354180
469.153 .0353379
470.035 .0352559
470.915 .0351780
471.794 .0350991
472.673 .0350265
473.550 .0349610
474.426 .0349062
475.301 .0348606
476.175 .0348269
477.048 .0348014
477.920 .0347797
478.791 .0347601
479.661 .0347399
480.530 .0347168
481.398 .0346924
482.266 .0346652
483.132 .0346398
483.997 .0346202
484.861 .0346095
485.724 .0346045
486.587 .0346095
487.448 .0346151
488.308 .0346157
489.168 .0346061
490.026 .0345835
490.884 .0345452
491.741 .0344946
492.597 .0344329
493.452 .0343665
494.306 .0343007
495.159 .0342370
496.011 .0341757
496.862 .0341220
497.713 .0340669
498.562 .0340062
499.411 .0339333
500.259 .0338487
501.106 .0337484
501.952 .0336395
502.798 .0335256
503.642 .0334098
504.486 .0332998
505.329 .0331959
506.171 .0330945
507.012 .0330037
507.852 .0329161
508.692 .0328301
509.531 .0327419
510.369 .0326552
511.206 .0325650
512.043 .0324743
512.878 .0323817
513.713 .0322878
514.547 .0321899
515.381 .0320890
516.213 .0319782
517.045 .0318605
517.876 .0317379
518.706 .0316094
519.536 .0314768
520.365 .0313468
521.193 .0312124
522.020 .0310782
522.847 .0309428
523.673 .0308084
524.498 .0306710
525.323 .0305279
526.146 .0303835
526.969 .0302393
527.792 .0300965
528.614 .0299577
529.435 .0298264
530.255 .0297137
531.075 .0296098
531.894 .0295132
532.712 .0294263
533.530 .0293430
534.347 .0292639
535.163 .0291833
535.979 .0290992
536.794 .0290167
537.608 .0289354
538.422 .0288571
539.235 .0287818
540.048 .0287197
540.860 .0286657
541.671 .0286225
542.481 .0285933
543.292 .0285714
544.101 .0285535
544.910 .0285436
545.718 .0285379
546.526 .0285323
547.333 .0285360
548.139 .0285436
548.945 .0285601
549.750 .0285912
550.555 .0286320
551.359 .0286848
552.162 .0287483
552.965 .0288233
553.768 .0288995
554.569 .0289772
555.371 .0290567
556.171 .0291307
556.972 .0292061
557.771 .0292777
558.570 .0293445
559.369 .0294070
560.167 .0294662
560.964 .0295210
561.761 .0295713
562.558 .0296211
563.354 .0296727
564.149 .0297239
564.944 .0297743
565.738 .0298242
566.532 .0298704
567.325 .0299149
568.118 .0299573
568.910 .0299952
569.702 .0300330
570.494 .0300747
571.285 .0301215
572.075 .0301770
572.865 .0302430
573.654 .0303179
574.443 .0303969
575.232 .0304788
576.020 .0305586
576.807 .0306332
577.594 .0307020
578.381 .0307663
579.167 .0308239
579.952 .0308804
580.738 .0309353
581.522 .0309920
582.307 .0310485
583.091 .0311057
583.874 .0311598
584.657 .0312093
585.440 .0312533
586.222 .0312911
587.004 .0313216
587.785 .0313486
588.566 .0313715
589.346 .0313916
590.126 .0314098
590.906 .0314290
591.685 .0314474
592.464 .0314646
593.242 .0314797
594.020 .0314910
594.797 .0314987
595.575 .0315029
596.351 .0315026
597.128 .0315001
597.904 .0314951
598.679 .0314897
599.454 .0314832
600.229 .0314766
601.004 .0314696
601.778 .0314619
602.551 .0314540
603.325 .0314450
604.097 .0314342
604.870 .0314217
605.642 .0314085
606.414 .0313949
607.185 .0313809
607.956 .0313671
608.727 .0313552
609.497 .0313446
610.267 .0313352
611.037 .0313274
611.806 .0313196
612.575 .0313117
613.344 .0313018
614.112 .0312890
614.880 .0312735
615.647 .0312545
616.414 .0312334
617.181 .0312102
617.948 .0311869
618.714 .0311640
619.480 .0311420
620.245 .0311221
621.011 .0311034
621.775 .0310853
622.540 .0310673
623.304 .0310489
624.068 .0310299
624.832 .0310099
625.595 .0309892
626.358 .0309691
627.120 .0309494
627.883 .0309304
628.645 .0309121
629.406 .0308942
630.168 .0308767
630.929 .0308583
631.689 .0308390
632.450 .0308183
633.210 .0307961
633.970 .0307726
634.729 .0307477
635.489 .0307217
636.248 .0306945
637.006 .0306656
637.765 .0306357
638.523 .0306047
639.280 .0305732
640.038 .0305423
640.795 .0305126
641.552 .0304850
642.309 .0304594
643.065 .0304364
643.821 .0304160
644.577 .0303968
645.332 .0303780
646.088 .0303584
646.843 .0303374
647.597 .0303152
648.352 .0302919
649.106 .0302690
649.860 .0302470
650.613 .0302257
651.367 .0302063
652.120 .0301880
652.872 .0301711
653.625 .0301550
654.377 .0301388
655.129 .0301225
655.881 .0301051
656.632 .0300861
657.384 .0300660
658.135 .0300453
658.885 .0300241
659.636 .0300020
660.386 .0299799
661.136 .0299583
661.885 .0299370
662.635 .0299167
663.384 .0298979
664.133 .0298801
664.881 .0298636
665.630 .0298471
666.378 .0298304
667.126 .0298135
667.874 .0297961
668.621 .0297783
669.368 .0297596
670.115 .0297405
670.862 .0297213
671.608 .0297033
672.354 .0296876
673.100 .0296738
673.846 .0296620
674.591 .0296519
675.337 .0296430
676.082 .0296345
676.826 .0296255
677.571 .0296162
678.315 .0296063
679.059 .0295962
679.803 .0295858
680.547 .0295761
681.290 .0295676
682.033 .0295604
682.776 .0295543
683.518 .0295482
684.261 .0295414
685.003 .0295335
685.745 .0295243
686.487 .0295134
687.228 .0295012
687.969 .0294879
688.710 .0294744
689.451 .0294613
690.192 .0294485
690.932 .0294360
691.672 .0294242
692.412 .0294128
693.152 .0294010
693.891 .0293886
694.630 .0293758
695.369 .0293622
696.108 .0293481
696.846 .0293329
697.585 .0293166
698.323 .0292993
699.061 .0292810
699.798 .0292615
700.536 .0292412
701.273 .0292205
702.010 .0291992
702.746 .0291776
703.483 .0291562
704.219 .0291344
704.955 .0291124
705.691 .0290899
706.427 .0290664
707.162 .0290423
707.897 .0290180
708.632 .0289940
709.367 .0289710
710.101 .0289490
710.835 .0289284
711.569 .0289085
712.303 .0288890
713.037 .0288694
713.770 .0288494
714.503 .0288287
715.236 .0288073
715.969 .0287850
716.702 .0287626
717.434 .0287401
718.166 .0287181
718.898 .0286967
719.629 .0286759
720.361 .0286557
721.092 .0286355
721.823 .0286150
722.554 .0285950
723.284 .0285749
724.014 .0285543
724.744 .0285330
725.474 .0285109
726.204 .0284879
726.933 .0284639
727.662 .0284391
728.391 .0284138
729.120 .0283878
729.849 .0283617
730.577 .0283352
731.305 .0283089
732.033 .0282830
732.760 .0282575
733.488 .0282329
734.215 .0282087
734.942 .0281846
735.669 .0281607
736.395 .0281374
737.122 .0281152
737.848 .0280935
738.573 .0280726
739.299 .0280530
740.024 .0280346
740.750 .0280168
741.474 .0279995
742.199 .0279824
742.924 .0279653
743.648 .0279478
744.372 .0279302
745.096 .0279123
745.819 .0278948
746.543 .0278779
747.266 .0278614
747.989 .0278456
748.711 .0278303
749.434 .0278154
750.156 .0278011
750.878 .0277873
751.599 .0277739
752.321 .0277610
753.042 .0277493
753.763 .0277389
754.484 .0277298
755.205 .0277219
755.925 .0277150
756.645 .0277084
757.365 .0277015
758.085 .0276945
758.804 .0276869
759.523 .0276790
760.242 .0276708
760.961 .0276623
761.679 .0276534
762.397 .0276440
763.115 .0276339
763.833 .0276222
764.551 .0276087
765.268 .0275930
765.985 .0275745
766.702 .0275534
767.418 .0275305
768.134 .0275064
768.850 .0274823
769.566 .0274588
770.282 .0274357
770.997 .0274137
771.712 .0273926
772.427 .0273722
773.142 .0273523
773.856 .0273326
774.570 .0273135
775.284 .0272946
775.998 .0272765
776.711 .0272596
777.424 .0272440
778.137 .0272305
778.849 .0272186
779.562 .0272080
780.274 .0271981
780.986 .0271880
781.697 .0271780
782.409 .0271678
783.120 .0271576
783.831 .0271479
784.541 .0271388
785.252 .0271313
785.962 .0271255
786.671 .0271209
787.381 .0271177
788.090 .0271153
788.799 .0271129
789.508 .0271104
790.217 .0271074
790.925 .0271038
791.633 .0270999
792.341 .0270964
793.048 .0270930
793.755 .0270893
794.462 .0270858
795.169 .0270814
795.875 .0270758
796.581 .0270687
797.287 .0270597
797.993 .0270492
798.698 .0270380
799.403 .0270260
800.108 .0270140
800.812 .0270027
801.517 .0269917
802.221 .0269813
802.924 .0269718
803.628 .0269626
804.331 .0269536
805.034 .0269450
805.736 .0269366
806.439 .0269282
807.141 .0269204
807.843 .0269132
808.544 .0269062
809.245 .0268997
809.946 .0268929
810.647 .0268858
811.347 .0268790
812.047 .0268720
812.747 .0268647
813.447 .0268576
814.146 .0268506
814.845 .0268433
815.543 .0268359
816.242 .0268288
816.940 .0268212
817.638 .0268134
818.335 .0268051
819.032 .0267962
819.729 .0267867
820.426 .0267769
821.122 .0267663
821.818 .0267550
822.514 .0267429
823.209 .0267300
823.905 .0267163
824.599 .0267022
825.294 .0266877
825.988 .0266724
826.682 .0266568
827.376 .0266409
828.069 .0266246
828.762 .0266081
829.455 .0265913
830.147 .0265743
830.840 .0265568
831.531 .0265396
832.223 .0265227
832.914 .0265064
833.605 .0264911
834.296 .0264762
834.986 .0264615
835.676 .0264469
836.366 .0264320
837.055 .0264162
837.744 .0263999
838.433 .0263830
839.121 .0263652
839.809 .0263471
840.497 .0263290
841.185 .0263109
841.872 .0262934
842.559 .0262764
843.245 .0262595
843.932 .0262427
844.617 .0262263
845.303 .0262099
845.988 .0261937
846.673 .0261780
847.358 .0261625
848.042 .0261477
848.726 .0261337
849.410 .0261204
850.093 .0261079
850.776 .0260967
851.459 .0260861
852.141 .0260757
852.823 .0260656
853.505 .0260557
854.186 .0260458
854.867 .0260359
855.548 .0260255
856.228 .0260146
856.908 .0260032
857.588 .0259916
858.267 .0259791
858.946 .0259661
859.625 .0259524
860.303 .0259378
860.981 .0259225
861.659 .0259065
862.336 .0258895
863.013 .0258719
863.690 .0258536
864.366 .0258345
865.042 .0258141
865.718 .0257931
866.393 .0257715
867.068 .0257497
867.743 .0257281
868.417 .0257067
869.091 .0256859
869.765 .0256660
870.438 .0256470
871.111 .0256289
871.783 .0256115
872.456 .0255945
873.127 .0255779
873.799 .0255612
874.470 .0255443
875.141 .0255276
875.811 .0255111
876.481 .0254947
877.151 .0254783
877.820 .0254619
878.489 .0254451
879.158 .0254278
879.826 .0254098
880.494 .0253907
881.162 .0253708
881.829 .0253500
882.496 .0253284
883.163 .0253065
883.829 .0252844
884.495 .0252624
885.160 .0252412
885.825 .0252209
886.490 .0252018
887.154 .0251837
887.818 .0251676
888.482 .0251526
889.145 .0251390
889.808 .0251269
890.471 .0251160
891.133 .0251064
891.795 .0250978
892.456 .0250901
893.117 .0250837
893.778 .0250779
894.439 .0250729
895.099 .0250678
895.758 .0250632
896.417 .0250581
897.076 .0250523
897.735 .0250461
898.393 .0250392
899.051 .0250319
899.708 .0250243
900.365 .0250162
901.022 .0250080
901.678 .0249990
902.334 .0249895
902.990 .0249794
903.645 .0249685
904.300 .0249571
904.954 .0249452
905.608 .0249332
906.262 .0249214
906.915 .0249097
907.568 .0248984
908.221 .0248874
908.873 .0248768
909.525 .0248666
910.176 .0248567
910.828 .0248478
911.478 .0248395
912.129 .0248319
912.778 .0248255
913.428 .0248198
914.077 .0248149
914.726 .0248103
915.375 .0248059
916.023 .0248018
916.670 .0247975
917.318 .0247932
917.964 .0247884
918.611 .0247832
919.257 .0247777
919.903 .0247711
920.548 .0247642
921.193 .0247568
921.838 .0247496
922.482 .0247427
923.126 .0247364
923.770 .0247312
924.413 .0247273
925.056 .0247249
925.698 .0247241
926.340 .0247241
926.982 .0247250
927.623 .0247259
928.264 .0247273
928.904 .0247289
929.544 .0247307
930.184 .0247328
930.823 .0247352
931.462 .0247376
932.101 .0247392
932.739 .0247396
933.377 .0247382
934.014 .0247345
934.651 .0247282
935.288 .0247189
935.924 .0247069
936.560 .0246932
937.196 .0246783
937.831 .0246632
938.466 .0246484
939.100 .0246344
939.734 .0246211
940.368 .0246084
941.001 .0245959
941.634 .0245840
942.266 .0245722
942.899 .0245605
943.530 .0245487
944.162 .0245370
944.793 .0245253
945.423 .0245135
946.053 .0245019
946.683 .0244906
947.313 .0244793
947.942 .0244680
948.571 .0244563
949.199 .0244447
949.827 .0244328
950.455 .0244209
951.082 .0244092
951.709 .0243980
952.335 .0243870
952.961 .0243765
953.587 .0243662
954.212 .0243564
954.837 .0243471
955.462 .0243382
956.086 .0243302
956.710 .0243234
957.334 .0243178
957.957 .0243131
958.579 .0243091
959.202 .0243058
959.824 .0243023
960.445 .0242984
961.067 .0242937
961.688 .0242884
962.308 .0242826
962.928 .0242763
963.548 .0242698
964.168 .0242638
964.787 .0242584
965.406 .0242533
966.024 .0242489
966.642 .0242444
967.260 .0242398
967.877 .0242351
968.494 .0242303
969.110 .0242253
969.727 .0242202
970.342 .0242151
970.958 .0242098
971.573 .0242048
972.188 .0241997
972.802 .0241946
973.416 .0241899
974.030 .0241852
974.643 .0241801
975.256 .0241750
975.869 .0241706
976.481 .0241668
977.093 .0241643
977.705 .0241635
978.316 .0241637
978.927 .0241651
979.538 .0241675
980.148 .0241699
980.758 .0241721
981.367 .0241747
981.977 .0241767
982.586 .0241784
983.194 .0241799
983.802 .0241813
984.410 .0241823
985.018 .0241834
985.625 .0241837
986.232 .0241830
986.838 .0241810
987.445 .0241776
988.050 .0241723
988.656 .0241664
989.261 .0241596
989.866 .0241517
990.471 .0241439
991.075 .0241366
991.679 .0241292
992.282 .0241224
992.886 .0241161
993.489 .0241106
994.091 .0241054
994.694 .0241014
995.296 .0240977
995.897 .0240948
996.499 .0240923
997.100 .0240899
997.701 .0240873
998.301 .0240841
998.901 .0240801
999.501 .0240750
1000.101 .0240695
1000.700 .0240631
1001.299 .0240554
1001.898 .0240481
1002.496 .0240409
1003.094 .0240341
1003.692 .0240273
1004.289 .0240215
1004.887 .0240163
1005.484 .0240121
1006.080 .0240086
1006.677 .0240058
1007.273 .0240040
1007.868 .0240029
1008.464 .0240025
1009.059 .0240027
1009.654 .0240040
1010.249 .0240059
1010.843 .0240087
1011.437 .0240125
1012.031 .0240158
1012.625 .0240195
1013.218 .0240230
1013.811 .0240263
1014.404 .0240285
1014.997 .0240295
1015.589 .0240290
1016.181 .0240270
1016.773 .0240235
1017.365 .0240185
1017.956 .0240121
1018.547 .0240051
1019.138 .0239969
1019.728 .0239878
1020.319 .0239785
1020.909 .0239691
1021.499 .0239593
1022.088 .0239497
1022.678 .0239396
1023.267 .0239296
1023.856 .0239194
1024.445 .0239093
1025.033 .0238988
1025.621 .0238887
1026.209 .0238795
1026.797 .0238709
1027.385 .0238634
1027.972 .0238578
1028.560 .0238542
1029.147 .0238528
1029.734 .0238533
1030.320 .0238550
1030.907 .0238572
1031.493 .0238603
1032.079 .0238635
1032.665 .0238661
1033.250 .0238679
1033.836 .0238688
1034.421 .0238688
1035.006 .0238677
1035.591 .0238649
1036.176 .0238601
1036.761 .0238537
1037.345 .0238451
1037.929 .0238335
1038.514 .0238195
1039.097 .0238036
1039.681 .0237869
1040.265 .0237698
1040.848 .0237532
1041.432 .0237379
1042.015 .0237236
1042.598 .0237116
1043.181 .0237013
1043.764 .0236928
1044.346 .0236862
1044.929 .0236810
1045.511 .0236770
1046.094 .0236738
1046.676 .0236715
1047.258 .0236699
1047.840 .0236689
1048.422 .0236683
1049.003 .0236673
1049.585 .0236655
1050.166 .0236634
1050.748 .0236602
1051.329 .0236547
1051.910 .0236477
1052.491 .0236378
1053.072 .0236248
1053.653 .0236087
1054.234 .0235904
1054.815 .0235713
1055.396 .0235513
1055.976 .0235325
1056.557 .0235137
1057.138 .0234963
1057.718 .0234815
1058.298 .0234679
1058.879 .0234552
1059.459 .0234426
1060.039 .0234300
1060.620 .0234158
1061.200 .0234011
1061.780 .0233854
1062.360 .0233691
1062.940 .0233539
1063.520 .0233406
1064.101 .0233281
1064.681 .0233176
1065.261 .0233089
1065.841 .0233002
1066.421 .0232916
1067.001 .0232821
1067.581 .0232697
1068.161 .0232558
1068.741 .0232416
1069.321 .0232285
1069.901 .0232160
1070.482 .0232059
1071.062 .0231971
1071.642 .0231903
1072.222 .0231847
1072.803 .0231784
1073.383 .0231706
1073.963 .0231617
1074.544 .0231507
1075.124 .0231376
1075.705 .0231242
1076.286 .0231122
1076.866 .0231015
1077.447 .0230931
1078.028 .0230863
1078.609 .0230811
1079.190 .0230753
1079.771 .0230692
1080.352 .0230619
1080.934 .0230541
1081.515 .0230457
1082.097 .0230364
1082.679 .0230285
1083.260 .0230219
1083.842 .0230157
1084.424 .0230095
1085.007 .0230032
1085.589 .0229975
1086.172 .0229909
1086.754 .0229845
1087.337 .0229791
1087.920 .0229764
1088.503 .0229755
1089.087 .0229760
1089.670 .0229782
1090.254 .0229812
1090.838 .0229841
1091.422 .0229852
1092.006 .0229846
1092.590 .0229821
1093.175 .0229782
1093.760 .0229725
1094.345 .0229663
1094.930 .0229601
1095.516 .0229523
1096.102 .0229437
1096.688 .0229353
1097.274 .0229257
1097.860 .0229138
1098.447 .0229009
1099.034 .0228873
1099.622 .0228726
1100.209 .0228612
1100.797 .0228530
1101.385 .0228501
1101.973 .0228538
1102.562 .0228618
1103.151 .0228728
1103.740 .0228864
1104.330 .0228999
1104.920 .0229110
1105.510 .0229209
1106.101 .0229303
1106.691 .0229370
1107.283 .0229442
1107.874 .0229527
1108.466 .0229603
1109.058 .0229686
1109.651 .0229785
1110.244 .0229859
1110.837 .0229905
1111.431 .0229922
1112.025 .0229902
1112.620 .0229873
1113.215 .0229853
1113.810 .0229841
1114.406 .0229872
1115.002 .0229957
1115.599 .0230080
1116.196 .0230223
1116.793 .0230395
1117.391 .0230566
1117.989 .0230719
1118.588 .0230849
1119.187 .0230925
1119.787 .0230941
1120.387 .0230907
1120.988 .0230813
1121.589 .0230688
1122.190 .0230540
1122.793 .0230361
1123.395 .0230200
1123.998 .0230077
1124.602 .0230005
1125.206 .0230011
1125.811 .0230075
1126.416 .0230191
1127.022 .0230321
1127.628 .0230466
1128.235 .0230599
1128.843 .0230744
1129.451 .0230941
1130.059 .0231169
1130.669 .0231469
1131.278 .0231844
1131.889 .0232260
1132.500 .0232745
1133.112 .0233284
1133.724 .0233837
1134.337 .0234417
1134.950 .0234974
1135.564 .0235524
1136.179 .0236044
1136.795 .0236556
1137.411 .0237077
1138.028 .0237588
1138.645 .0238117
1139.263 .0238670
1139.882 .0239231
1140.502 .0239873
1141.122 .0240545
1141.743 .0241280
1142.365 .0242163
1142.987 .0242437
1143.611 .0244211
1144.235 .0244779
1144.859 .0244816
1145.485 .0249355
