Measurement Sequence started on: 10-20-44-796
Integration time: 35
Scans to Average: 2 
>>>>>Begin Spectral Data<<<<<
432.953 .0437494
433.882 .0464035
434.810 .0390162
435.737 .0381063
436.662 .0373022
437.586 .0371585
438.509 .0361598
439.431 .0352750
440.351 .0347265
441.269 .0342793
442.187 .0339490
443.103 .0336962
444.018 .0335620
444.932 .0334774
445.844 .0334125
446.756 .0333510
447.666 .0333110
448.575 .0332695
449.482 .0332114
450.388 .0331577
451.294 .0331226
452.198 .0330808
453.100 .0330530
454.002 .0330399
454.902 .0330329
455.801 .0330230
456.699 .0330160
457.596 .0329999
458.492 .0329713
459.387 .0329308
460.280 .0328785
461.172 .0328099
462.064 .0327464
462.954 .0326834
463.843 .0326306
464.730 .0325957
465.617 .0325667
466.503 .0325397
467.387 .0325140
468.271 .0324752
469.153 .0324252
470.035 .0323590
470.915 .0322882
471.794 .0322122
472.673 .0321413
473.550 .0320807
474.426 .0320358
475.301 .0320062
476.175 .0319880
477.048 .0319720
477.920 .0319548
478.791 .0319297
479.661 .0318999
480.530 .0318606
481.398 .0318169
482.266 .0317734
483.132 .0317378
483.997 .0317066
484.861 .0316861
485.724 .0316724
486.587 .0316667
487.448 .0316634
488.308 .0316593
489.168 .0316493
490.026 .0316350
490.884 .0316168
491.741 .0315959
492.597 .0315748
493.452 .0315579
494.306 .0315418
495.159 .0315317
496.011 .0315195
496.862 .0315076
497.713 .0314878
498.562 .0314578
499.411 .0314172
500.259 .0313625
501.106 .0312917
501.952 .0312120
502.798 .0311239
503.642 .0310317
504.486 .0309367
505.329 .0308417
506.171 .0307437
507.012 .0306472
507.852 .0305492
508.692 .0304508
509.531 .0303511
510.369 .0302592
511.206 .0301665
512.043 .0300819
512.878 .0300040
513.713 .0299285
514.547 .0298555
515.381 .0297829
516.213 .0296957
517.045 .0295958
517.876 .0294763
518.706 .0293403
519.536 .0291869
520.365 .0290279
521.193 .0288606
522.020 .0286905
522.847 .0285201
523.673 .0283460
524.498 .0281658
525.323 .0279802
526.146 .0277845
526.969 .0275843
527.792 .0273736
528.614 .0271610
529.435 .0269543
530.255 .0267684
531.075 .0265980
531.894 .0264521
532.712 .0263230
533.530 .0262066
534.347 .0261016
535.163 .0259972
535.979 .0258892
536.794 .0257889
537.608 .0257024
538.422 .0256293
539.235 .0255802
540.048 .0255599
540.860 .0255677
541.671 .0256044
542.481 .0256552
543.292 .0257123
544.101 .0257697
544.910 .0258259
545.718 .0258749
546.526 .0259114
547.333 .0259465
548.139 .0259751
548.945 .0260104
549.750 .0260445
550.555 .0260825
551.359 .0261271
552.162 .0261744
552.965 .0262284
553.768 .0262838
554.569 .0263319
555.371 .0263791
556.171 .0264285
556.972 .0264809
557.771 .0265315
558.570 .0265854
559.369 .0266416
560.167 .0267035
560.964 .0267711
561.761 .0268402
562.558 .0269092
563.354 .0269845
564.149 .0270537
564.944 .0271162
565.738 .0271724
566.532 .0272184
567.325 .0272563
568.118 .0272901
568.910 .0273144
569.702 .0273388
570.494 .0273701
571.285 .0274136
572.075 .0274703
572.865 .0275441
573.654 .0276290
574.443 .0277219
575.232 .0278212
576.020 .0279246
576.807 .0280302
577.594 .0281404
578.381 .0282502
579.167 .0283598
579.952 .0284702
580.738 .0285787
581.522 .0286848
582.307 .0287904
583.091 .0288917
583.874 .0289860
584.657 .0290708
585.440 .0291468
586.222 .0292146
587.004 .0292744
587.785 .0293267
588.566 .0293709
589.346 .0294077
590.126 .0294377
590.906 .0294633
591.685 .0294866
592.464 .0295085
593.242 .0295292
594.020 .0295483
594.797 .0295668
595.575 .0295845
596.351 .0296001
597.128 .0296129
597.904 .0296224
598.679 .0296274
599.454 .0296276
600.229 .0296246
601.004 .0296187
601.778 .0296118
602.551 .0296046
603.325 .0295970
604.097 .0295881
604.870 .0295791
605.642 .0295698
606.414 .0295596
607.185 .0295487
607.956 .0295375
608.727 .0295254
609.497 .0295125
610.267 .0295002
611.037 .0294879
611.806 .0294763
612.575 .0294655
613.344 .0294547
614.112 .0294437
614.880 .0294318
615.647 .0294182
616.414 .0294023
617.181 .0293846
617.948 .0293640
618.714 .0293403
619.480 .0293151
620.245 .0292890
621.011 .0292627
621.775 .0292376
622.540 .0292134
623.304 .0291905
624.068 .0291698
624.832 .0291506
625.595 .0291326
626.358 .0291161
627.120 .0291005
627.883 .0290854
628.645 .0290716
629.406 .0290591
630.168 .0290475
630.929 .0290381
631.689 .0290295
632.450 .0290209
633.210 .0290128
633.970 .0290033
634.729 .0289917
635.489 .0289773
636.248 .0289601
637.006 .0289394
637.765 .0289167
638.523 .0288932
639.280 .0288706
640.038 .0288497
640.795 .0288313
641.552 .0288140
642.309 .0287983
643.065 .0287832
643.821 .0287673
644.577 .0287504
645.332 .0287325
646.088 .0287134
646.843 .0286943
647.597 .0286764
648.352 .0286612
649.106 .0286481
649.860 .0286374
650.613 .0286289
651.367 .0286210
652.120 .0286130
652.872 .0286047
653.625 .0285956
654.377 .0285873
655.129 .0285790
655.881 .0285715
656.632 .0285657
657.384 .0285609
658.135 .0285568
658.885 .0285530
659.636 .0285487
660.386 .0285428
661.136 .0285354
661.885 .0285270
662.635 .0285183
663.384 .0285093
664.133 .0285001
664.881 .0284899
665.630 .0284794
666.378 .0284685
667.126 .0284556
667.874 .0284413
668.621 .0284264
669.368 .0284104
670.115 .0283951
670.862 .0283800
671.608 .0283667
672.354 .0283551
673.100 .0283460
673.846 .0283381
674.591 .0283304
675.337 .0283234
676.082 .0283168
676.826 .0283092
677.571 .0283013
678.315 .0282922
679.059 .0282829
679.803 .0282739
680.547 .0282658
681.290 .0282581
682.033 .0282505
682.776 .0282424
683.518 .0282334
684.261 .0282223
685.003 .0282097
685.745 .0281955
686.487 .0281811
687.228 .0281677
687.969 .0281550
688.710 .0281429
689.451 .0281323
690.192 .0281225
690.932 .0281120
691.672 .0280996
692.412 .0280848
693.152 .0280670
693.891 .0280473
694.630 .0280254
695.369 .0280026
696.108 .0279802
696.846 .0279582
697.585 .0279358
698.323 .0279129
699.061 .0278891
699.798 .0278635
700.536 .0278366
701.273 .0278087
702.010 .0277804
702.746 .0277530
703.483 .0277275
704.219 .0277048
704.955 .0276858
705.691 .0276700
706.427 .0276558
707.162 .0276429
707.897 .0276300
708.632 .0276160
709.367 .0276011
710.101 .0275852
710.835 .0275692
711.569 .0275529
712.303 .0275366
713.037 .0275204
713.770 .0275039
714.503 .0274867
715.236 .0274680
715.969 .0274479
716.702 .0274259
717.434 .0274026
718.166 .0273785
718.898 .0273543
719.629 .0273312
720.361 .0273103
721.092 .0272911
721.823 .0272737
722.554 .0272579
723.284 .0272434
724.014 .0272291
724.744 .0272159
725.474 .0272025
726.204 .0271898
726.933 .0271774
727.662 .0271650
728.391 .0271522
729.120 .0271399
729.849 .0271266
730.577 .0271122
731.305 .0270960
732.033 .0270788
732.760 .0270596
733.488 .0270398
734.215 .0270196
734.942 .0270001
735.669 .0269809
736.395 .0269618
737.122 .0269425
737.848 .0269229
738.573 .0269023
739.299 .0268811
740.024 .0268597
740.750 .0268391
741.474 .0268196
742.199 .0268019
742.924 .0267868
743.648 .0267745
744.372 .0267641
745.096 .0267556
745.819 .0267478
746.543 .0267404
747.266 .0267325
747.989 .0267255
748.711 .0267193
749.434 .0267141
750.156 .0267104
750.878 .0267086
751.599 .0267091
752.321 .0267116
753.042 .0267148
753.763 .0267187
754.484 .0267222
755.205 .0267251
755.925 .0267266
756.645 .0267273
757.365 .0267269
758.085 .0267258
758.804 .0267236
759.523 .0267198
760.242 .0267138
760.961 .0267058
761.679 .0266955
762.397 .0266827
763.115 .0266670
763.833 .0266491
764.551 .0266297
765.268 .0266094
765.985 .0265879
766.702 .0265657
767.418 .0265433
768.134 .0265205
768.850 .0264975
769.566 .0264748
770.282 .0264528
770.997 .0264320
771.712 .0264124
772.427 .0263943
773.142 .0263777
773.856 .0263624
774.570 .0263482
775.284 .0263352
775.998 .0263228
776.711 .0263107
777.424 .0262990
778.137 .0262876
778.849 .0262766
779.562 .0262653
780.274 .0262543
780.986 .0262428
781.697 .0262307
782.409 .0262177
783.120 .0262040
783.831 .0261895
784.541 .0261741
785.252 .0261580
785.962 .0261413
786.671 .0261244
787.381 .0261070
788.090 .0260892
788.799 .0260712
789.508 .0260529
790.217 .0260347
790.925 .0260166
791.633 .0259994
792.341 .0259829
793.048 .0259670
793.755 .0259521
794.462 .0259374
795.169 .0259227
795.875 .0259082
796.581 .0258939
797.287 .0258799
797.993 .0258663
798.698 .0258532
799.403 .0258408
800.108 .0258293
800.812 .0258182
801.517 .0258072
802.221 .0257960
802.924 .0257850
803.628 .0257734
804.331 .0257619
805.034 .0257508
805.736 .0257395
806.439 .0257287
807.141 .0257183
807.843 .0257082
808.544 .0256979
809.245 .0256870
809.946 .0256751
810.647 .0256622
811.347 .0256485
812.047 .0256336
812.747 .0256184
813.447 .0256034
814.146 .0255883
814.845 .0255732
815.543 .0255583
816.242 .0255433
816.940 .0255280
817.638 .0255126
818.335 .0254970
819.032 .0254814
819.729 .0254658
820.426 .0254503
821.122 .0254352
821.818 .0254207
822.514 .0254061
823.209 .0253913
823.905 .0253765
824.599 .0253616
825.294 .0253460
825.988 .0253301
826.682 .0253142
827.376 .0252982
828.069 .0252815
828.762 .0252641
829.455 .0252457
830.147 .0252266
830.840 .0252067
831.531 .0251864
832.223 .0251666
832.914 .0251469
833.605 .0251275
834.296 .0251088
834.986 .0250918
835.676 .0250761
836.366 .0250611
837.055 .0250471
837.744 .0250336
838.433 .0250199
839.121 .0250059
839.809 .0249912
840.497 .0249772
841.185 .0249636
841.872 .0249505
842.559 .0249382
843.245 .0249274
843.932 .0249176
844.617 .0249093
845.303 .0249018
845.988 .0248950
846.673 .0248875
847.358 .0248796
848.042 .0248716
848.726 .0248630
849.410 .0248546
850.093 .0248459
850.776 .0248374
851.459 .0248294
852.141 .0248206
852.823 .0248118
853.505 .0248028
854.186 .0247938
854.867 .0247842
855.548 .0247740
856.228 .0247640
856.908 .0247542
857.588 .0247448
858.267 .0247361
858.946 .0247278
859.625 .0247194
860.303 .0247109
860.981 .0247018
861.659 .0246923
862.336 .0246825
863.013 .0246731
863.690 .0246636
864.366 .0246548
865.042 .0246465
865.718 .0246384
866.393 .0246309
867.068 .0246239
867.743 .0246167
868.417 .0246095
869.091 .0246021
869.765 .0245944
870.438 .0245868
871.111 .0245799
871.783 .0245736
872.456 .0245681
873.127 .0245635
873.799 .0245595
874.470 .0245560
875.141 .0245529
875.811 .0245496
876.481 .0245460
877.151 .0245419
877.820 .0245370
878.489 .0245318
879.158 .0245258
879.826 .0245191
880.494 .0245124
881.162 .0245059
881.829 .0244993
882.496 .0244927
883.163 .0244861
883.829 .0244799
884.495 .0244736
885.160 .0244676
885.825 .0244619
886.490 .0244572
887.154 .0244536
887.818 .0244501
888.482 .0244470
889.145 .0244449
889.808 .0244431
890.471 .0244412
891.133 .0244393
891.795 .0244372
892.456 .0244345
893.117 .0244318
893.778 .0244287
894.439 .0244255
895.099 .0244225
895.758 .0244193
896.417 .0244160
897.076 .0244125
897.735 .0244087
898.393 .0244046
899.051 .0244012
899.708 .0243978
900.365 .0243942
901.022 .0243905
901.678 .0243870
902.334 .0243835
902.990 .0243802
903.645 .0243771
904.300 .0243742
904.954 .0243718
905.608 .0243702
906.262 .0243683
906.915 .0243668
907.568 .0243646
908.221 .0243615
908.873 .0243575
909.525 .0243522
910.176 .0243454
910.828 .0243385
911.478 .0243316
912.129 .0243245
912.778 .0243178
913.428 .0243123
914.077 .0243068
914.726 .0243009
915.375 .0242943
916.023 .0242859
916.670 .0242758
917.318 .0242645
917.964 .0242513
918.611 .0242378
919.257 .0242245
919.903 .0242110
920.548 .0241979
921.193 .0241859
921.838 .0241741
922.482 .0241621
923.126 .0241505
923.770 .0241385
924.413 .0241257
925.056 .0241128
925.698 .0241004
926.340 .0240888
926.982 .0240792
927.623 .0240709
928.264 .0240642
928.904 .0240590
929.544 .0240545
930.184 .0240500
930.823 .0240451
931.462 .0240394
932.101 .0240317
932.739 .0240227
933.377 .0240124
934.014 .0240008
934.651 .0239891
935.288 .0239772
935.924 .0239655
936.560 .0239536
937.196 .0239413
937.831 .0239279
938.466 .0239132
939.100 .0238966
939.734 .0238780
940.368 .0238577
941.001 .0238366
941.634 .0238152
942.266 .0237937
942.899 .0237728
943.530 .0237519
944.162 .0237307
944.793 .0237086
945.423 .0236850
946.053 .0236599
946.683 .0236331
947.313 .0236050
947.942 .0235757
948.571 .0235464
949.199 .0235175
949.827 .0234888
950.455 .0234610
951.082 .0234346
951.709 .0234090
952.335 .0233842
952.961 .0233602
953.587 .0233375
954.212 .0233159
954.837 .0232954
955.462 .0232762
956.086 .0232583
956.710 .0232419
957.334 .0232262
957.957 .0232110
958.579 .0231963
959.202 .0231816
959.824 .0231665
960.445 .0231507
961.067 .0231343
961.688 .0231173
962.308 .0230999
962.928 .0230827
963.548 .0230656
964.168 .0230483
964.787 .0230299
965.406 .0230109
966.024 .0229908
966.642 .0229689
967.260 .0229458
967.877 .0229223
968.494 .0228982
969.110 .0228746
969.727 .0228518
970.342 .0228304
970.958 .0228117
971.573 .0227956
972.188 .0227816
972.802 .0227697
973.416 .0227602
974.030 .0227523
974.643 .0227459
975.256 .0227415
975.869 .0227381
976.481 .0227364
977.093 .0227368
977.705 .0227380
978.316 .0227398
978.927 .0227431
979.538 .0227467
980.148 .0227496
980.758 .0227521
981.367 .0227528
981.977 .0227522
982.586 .0227492
983.194 .0227433
983.802 .0227348
984.410 .0227240
985.018 .0227113
985.625 .0226970
986.232 .0226830
986.838 .0226701
987.445 .0226582
988.050 .0226482
988.656 .0226398
989.261 .0226320
989.866 .0226234
990.471 .0226142
991.075 .0226040
991.679 .0225937
992.282 .0225832
992.886 .0225742
993.489 .0225673
994.091 .0225630
994.694 .0225611
995.296 .0225606
995.897 .0225618
996.499 .0225629
997.100 .0225624
997.701 .0225609
998.301 .0225586
998.901 .0225555
999.501 .0225518
1000.101 .0225488
1000.700 .0225450
1001.299 .0225403
1001.898 .0225352
1002.496 .0225290
1003.094 .0225223
1003.692 .0225156
1004.289 .0225087
1004.887 .0225025
1005.484 .0224981
1006.080 .0224947
1006.677 .0224927
1007.273 .0224916
1007.868 .0224911
1008.464 .0224899
1009.059 .0224886
1009.654 .0224874
1010.249 .0224873
1010.843 .0224895
1011.437 .0224940
1012.031 .0224999
1012.625 .0225079
1013.218 .0225157
1013.811 .0225236
1014.404 .0225304
1014.997 .0225361
1015.589 .0225402
1016.181 .0225434
1016.773 .0225459
1017.365 .0225495
1017.956 .0225546
1018.547 .0225613
1019.138 .0225695
1019.728 .0225800
1020.319 .0225914
1020.909 .0226036
1021.499 .0226163
1022.088 .0226298
1022.678 .0226429
1023.267 .0226572
1023.856 .0226707
1024.445 .0226842
1025.033 .0226982
1025.621 .0227125
1026.209 .0227265
1026.797 .0227399
1027.385 .0227514
1027.972 .0227602
1028.560 .0227661
1029.147 .0227698
1029.734 .0227697
1030.320 .0227676
1030.907 .0227641
1031.493 .0227604
1032.079 .0227566
1032.665 .0227533
1033.250 .0227507
1033.836 .0227497
1034.421 .0227498
1035.006 .0227497
1035.591 .0227494
1036.176 .0227507
1036.761 .0227525
1037.345 .0227555
1037.929 .0227591
1038.514 .0227645
1039.097 .0227712
1039.681 .0227791
1040.265 .0227882
1040.848 .0227976
1041.432 .0228077
1042.015 .0228181
1042.598 .0228277
1043.181 .0228364
1043.764 .0228427
1044.346 .0228474
1044.929 .0228492
1045.511 .0228497
1046.094 .0228473
1046.676 .0228438
1047.258 .0228391
1047.840 .0228346
1048.422 .0228293
1049.003 .0228244
1049.585 .0228210
1050.166 .0228175
1050.748 .0228144
1051.329 .0228119
1051.910 .0228083
1052.491 .0228052
1053.072 .0228026
1053.653 .0228017
1054.234 .0228021
1054.815 .0228057
1055.396 .0228113
1055.976 .0228180
1056.557 .0228261
1057.138 .0228353
1057.718 .0228459
1058.298 .0228577
1058.879 .0228693
1059.459 .0228812
1060.039 .0228933
1060.620 .0229044
1061.200 .0229151
1061.780 .0229256
1062.360 .0229353
1062.940 .0229438
1063.520 .0229515
1064.101 .0229573
1064.681 .0229626
1065.261 .0229669
1065.841 .0229699
1066.421 .0229728
1067.001 .0229737
1067.581 .0229717
1068.161 .0229667
1068.741 .0229591
1069.321 .0229482
1069.901 .0229342
1070.482 .0229196
1071.062 .0229015
1071.642 .0228840
1072.222 .0228655
1072.803 .0228478
1073.383 .0228307
1073.963 .0228148
1074.544 .0228000
1075.124 .0227855
1075.705 .0227716
1076.286 .0227574
1076.866 .0227441
1077.447 .0227325
1078.028 .0227219
1078.609 .0227133
1079.190 .0227053
1079.771 .0226992
1080.352 .0226931
1080.934 .0226884
1081.515 .0226851
1082.097 .0226859
1082.679 .0226869
1083.260 .0226876
1083.842 .0226893
1084.424 .0226887
1085.007 .0226877
1085.589 .0226870
1086.172 .0226866
1086.754 .0226882
1087.337 .0226921
1087.920 .0227007
1088.503 .0227115
1089.087 .0227276
1089.670 .0227468
1090.254 .0227668
1090.838 .0227867
1091.422 .0228046
1092.006 .0228186
1092.590 .0228318
1093.175 .0228445
1093.760 .0228560
1094.345 .0228679
1094.930 .0228818
1095.516 .0228970
1096.102 .0229125
1096.688 .0229288
1097.274 .0229452
1097.860 .0229577
1098.447 .0229696
1099.034 .0229790
1099.622 .0229885
1100.209 .0229979
1100.797 .0230079
1101.385 .0230165
1101.973 .0230229
1102.562 .0230243
1103.151 .0230197
1103.740 .0230068
1104.330 .0229882
1104.920 .0229585
1105.510 .0229217
1106.101 .0228798
1106.691 .0228360
1107.283 .0227904
1107.874 .0227472
1108.466 .0227033
1109.058 .0226595
1109.651 .0226134
1110.244 .0225679
1110.837 .0225209
1111.431 .0224773
1112.025 .0224379
1112.620 .0224026
1113.215 .0223761
1113.810 .0223615
1114.406 .0223560
1115.002 .0223622
1115.599 .0223721
1116.196 .0223859
1116.793 .0223969
1117.391 .0224067
1117.989 .0224122
1118.588 .0224197
1119.187 .0224346
1119.787 .0224558
1120.387 .0224832
1120.988 .0225237
1121.589 .0225724
1122.190 .0226263
1122.793 .0226831
1123.395 .0227409
1123.998 .0227953
1124.602 .0228450
1125.206 .0228869
1125.811 .0229259
1126.416 .0229597
1127.022 .0229916
1127.628 .0230144
1128.235 .0230326
1128.843 .0230481
1129.451 .0230534
1130.059 .0230519
1130.669 .0230480
1131.278 .0230372
1131.889 .0230207
1132.500 .0230020
1133.112 .0229888
1133.724 .0229779
1134.337 .0229782
1134.950 .0229883
1135.564 .0230146
1136.179 .0230567
1136.795 .0231153
1137.411 .0231818
1138.028 .0232616
1138.645 .0233463
1139.263 .0234306
1139.882 .0235164
1140.502 .0236059
1141.122 .0236948
1141.743 .0237899
1142.365 .0238773
1142.987 .0239844
1143.611 .0241349
1144.235 .0241677
1144.859 .0243714
1145.485 .0241763
