Measurement Sequence started on: 10-20-44-796
Integration time: 35
Scans to Average: 2 
>>>>>Begin Spectral Data<<<<<
432.953 .0297226
433.882 .0377529
434.810 .0407507
435.737 .0384044
436.662 .0382203
437.586 .0375686
438.509 .0377950
439.431 .0378249
440.351 .0378876
441.269 .0381071
442.187 .0383907
443.103 .0387234
444.018 .0390200
444.932 .0393063
445.844 .0395473
446.756 .0397389
447.666 .0399069
448.575 .0400227
449.482 .0401152
450.388 .0401905
451.294 .0402342
452.198 .0402287
453.100 .0401948
454.002 .0401308
454.902 .0400363
455.801 .0399328
456.699 .0398270
457.596 .0397306
458.492 .0396515
459.387 .0395877
460.280 .0395540
461.172 .0395419
462.064 .0395480
462.954 .0395596
463.843 .0395720
464.730 .0395839
465.617 .0395895
466.503 .0395932
467.387 .0395948
468.271 .0395920
469.153 .0395859
470.035 .0395683
470.915 .0395466
471.794 .0395149
472.673 .0394698
473.550 .0394149
474.426 .0393567
475.301 .0392900
476.175 .0392230
477.048 .0391534
477.920 .0390843
478.791 .0390176
479.661 .0389543
480.530 .0388964
481.398 .0388437
482.266 .0388007
483.132 .0387670
483.997 .0387402
484.861 .0387223
485.724 .0387052
486.587 .0386901
487.448 .0386674
488.308 .0386383
489.168 .0385970
490.026 .0385464
490.884 .0384881
491.741 .0384254
492.597 .0383624
493.452 .0383001
494.306 .0382382
495.159 .0381777
496.011 .0381143
496.862 .0380500
497.713 .0379752
498.562 .0378901
499.411 .0377977
500.259 .0377011
501.106 .0376001
501.952 .0375049
502.798 .0374136
503.642 .0373343
504.486 .0372641
505.329 .0372018
506.171 .0371413
507.012 .0370823
507.852 .0370220
508.692 .0369530
509.531 .0368756
510.369 .0367948
511.206 .0367089
512.043 .0366254
512.878 .0365431
513.713 .0364608
514.547 .0363776
515.381 .0362964
516.213 .0362082
517.045 .0361159
517.876 .0360122
518.706 .0358937
519.536 .0357639
520.365 .0356250
521.193 .0354766
522.020 .0353217
522.847 .0351653
523.673 .0349994
524.498 .0348231
525.323 .0346342
526.146 .0344370
526.969 .0342334
527.792 .0340217
528.614 .0337986
529.435 .0335698
530.255 .0333455
531.075 .0331151
531.894 .0328814
532.712 .0326611
533.530 .0324386
534.347 .0322353
535.163 .0320299
535.979 .0318426
536.794 .0316774
537.608 .0315421
538.422 .0314292
539.235 .0313365
540.048 .0312732
540.860 .0312336
541.671 .0312048
542.481 .0311990
543.292 .0311987
544.101 .0312124
544.910 .0312262
545.718 .0312351
546.526 .0312259
547.333 .0312121
548.139 .0311815
548.945 .0311441
549.750 .0311043
550.555 .0310685
551.359 .0310417
552.162 .0310382
552.965 .0310624
553.768 .0311030
554.569 .0311620
555.371 .0312387
556.171 .0313177
556.972 .0314030
557.771 .0314889
558.570 .0315792
559.369 .0316847
560.167 .0318034
560.964 .0319314
561.761 .0320688
562.558 .0322175
563.354 .0323619
564.149 .0324951
564.944 .0326176
565.738 .0327240
566.532 .0328118
567.325 .0328880
568.118 .0329478
568.910 .0329966
569.702 .0330389
570.494 .0330772
571.285 .0331128
572.075 .0331509
572.865 .0331885
573.654 .0332279
574.443 .0332698
575.232 .0333114
576.020 .0333498
576.807 .0333881
577.594 .0334250
578.381 .0334571
579.167 .0334833
579.952 .0335068
580.738 .0335300
581.522 .0335567
582.307 .0335839
583.091 .0336104
583.874 .0336359
584.657 .0336550
585.440 .0336672
586.222 .0336705
587.004 .0336662
587.785 .0336570
588.566 .0336426
589.346 .0336257
590.126 .0336054
590.906 .0335854
591.685 .0335666
592.464 .0335482
593.242 .0335298
594.020 .0335082
594.797 .0334848
595.575 .0334604
596.351 .0334374
597.128 .0334152
597.904 .0333953
598.679 .0333793
599.454 .0333665
600.229 .0333570
601.004 .0333475
601.778 .0333386
602.551 .0333289
603.325 .0333188
604.097 .0333082
604.870 .0332955
605.642 .0332834
606.414 .0332715
607.185 .0332587
607.956 .0332456
608.727 .0332311
609.497 .0332153
610.267 .0331975
611.037 .0331785
611.806 .0331579
612.575 .0331366
613.344 .0331161
614.112 .0330966
614.880 .0330791
615.647 .0330630
616.414 .0330475
617.181 .0330319
617.948 .0330161
618.714 .0329986
619.480 .0329791
620.245 .0329587
621.011 .0329361
621.775 .0329124
622.540 .0328863
623.304 .0328589
624.068 .0328316
624.832 .0328036
625.595 .0327751
626.358 .0327459
627.120 .0327163
627.883 .0326855
628.645 .0326544
629.406 .0326231
630.168 .0325917
630.929 .0325616
631.689 .0325332
632.450 .0325071
633.210 .0324841
633.970 .0324642
634.729 .0324467
635.489 .0324314
636.248 .0324168
637.006 .0324006
637.765 .0323830
638.523 .0323627
639.280 .0323395
640.038 .0323143
640.795 .0322876
641.552 .0322600
642.309 .0322329
643.065 .0322059
643.821 .0321781
644.577 .0321496
645.332 .0321194
646.088 .0320867
646.843 .0320523
647.597 .0320155
648.352 .0319768
649.106 .0319385
649.860 .0319007
650.613 .0318639
651.367 .0318302
652.120 .0317979
652.872 .0317665
653.625 .0317353
654.377 .0317037
655.129 .0316706
655.881 .0316371
656.632 .0316034
657.384 .0315691
658.135 .0315363
658.885 .0315045
659.636 .0314734
660.386 .0314448
661.136 .0314169
661.885 .0313901
662.635 .0313638
663.384 .0313378
664.133 .0313109
664.881 .0312841
665.630 .0312580
666.378 .0312332
667.126 .0312096
667.874 .0311871
668.621 .0311656
669.368 .0311454
670.115 .0311244
670.862 .0311023
671.608 .0310795
672.354 .0310559
673.100 .0310308
673.846 .0310065
674.591 .0309824
675.337 .0309606
676.082 .0309407
676.826 .0309222
677.571 .0309044
678.315 .0308871
679.059 .0308687
679.803 .0308495
680.547 .0308297
681.290 .0308098
682.033 .0307896
682.776 .0307713
683.518 .0307538
684.261 .0307380
685.003 .0307238
685.745 .0307106
686.487 .0306976
687.228 .0306851
687.969 .0306714
688.710 .0306571
689.451 .0306428
690.192 .0306281
690.932 .0306129
691.672 .0305982
692.412 .0305835
693.152 .0305693
693.891 .0305559
694.630 .0305432
695.369 .0305314
696.108 .0305207
696.846 .0305106
697.585 .0304999
698.323 .0304900
699.061 .0304807
699.798 .0304707
700.536 .0304607
701.273 .0304509
702.010 .0304412
702.746 .0304327
703.483 .0304256
704.219 .0304193
704.955 .0304136
705.691 .0304084
706.427 .0304015
707.162 .0303929
707.897 .0303831
708.632 .0303715
709.367 .0303577
710.101 .0303433
710.835 .0303275
711.569 .0303108
712.303 .0302946
713.037 .0302788
713.770 .0302625
714.503 .0302456
715.236 .0302283
715.969 .0302097
716.702 .0301903
717.434 .0301710
718.166 .0301506
718.898 .0301307
719.629 .0301105
720.361 .0300901
721.092 .0300700
721.823 .0300509
722.554 .0300317
723.284 .0300121
724.014 .0299914
724.744 .0299690
725.474 .0299438
726.204 .0299169
726.933 .0298881
727.662 .0298579
728.391 .0298268
729.120 .0297954
729.849 .0297644
730.577 .0297350
731.305 .0297064
732.033 .0296797
732.760 .0296539
733.488 .0296289
734.215 .0296039
734.942 .0295795
735.669 .0295552
736.395 .0295315
737.122 .0295085
737.848 .0294865
738.573 .0294651
739.299 .0294447
740.024 .0294241
740.750 .0294036
741.474 .0293830
742.199 .0293615
742.924 .0293384
743.648 .0293147
744.372 .0292897
745.096 .0292639
745.819 .0292373
746.543 .0292108
747.266 .0291843
747.989 .0291584
748.711 .0291333
749.434 .0291089
750.156 .0290858
750.878 .0290641
751.599 .0290441
752.321 .0290255
753.042 .0290086
753.763 .0289934
754.484 .0289796
755.205 .0289681
755.925 .0289583
756.645 .0289497
757.365 .0289422
758.085 .0289345
758.804 .0289261
759.523 .0289156
760.242 .0289029
760.961 .0288868
761.679 .0288675
762.397 .0288452
763.115 .0288202
763.833 .0287931
764.551 .0287653
765.268 .0287365
765.985 .0287080
766.702 .0286796
767.418 .0286512
768.134 .0286228
768.850 .0285951
769.566 .0285676
770.282 .0285412
770.997 .0285155
771.712 .0284921
772.427 .0284711
773.142 .0284536
773.856 .0284388
774.570 .0284272
775.284 .0284182
775.998 .0284109
776.711 .0284042
777.424 .0283984
778.137 .0283920
778.849 .0283852
779.562 .0283772
780.274 .0283680
780.986 .0283584
781.697 .0283495
782.409 .0283412
783.120 .0283346
783.831 .0283293
784.541 .0283251
785.252 .0283214
785.962 .0283181
786.671 .0283144
787.381 .0283097
788.090 .0283044
788.799 .0282979
789.508 .0282903
790.217 .0282826
790.925 .0282744
791.633 .0282665
792.341 .0282588
793.048 .0282506
793.755 .0282414
794.462 .0282309
795.169 .0282194
795.875 .0282069
796.581 .0281937
797.287 .0281805
797.993 .0281679
798.698 .0281563
799.403 .0281458
800.108 .0281370
800.812 .0281297
801.517 .0281239
802.221 .0281187
802.924 .0281137
803.628 .0281088
804.331 .0281041
805.034 .0280997
805.736 .0280954
806.439 .0280916
807.141 .0280880
807.843 .0280839
808.544 .0280798
809.245 .0280751
809.946 .0280699
810.647 .0280645
811.347 .0280592
812.047 .0280541
812.747 .0280497
813.447 .0280460
814.146 .0280433
814.845 .0280419
815.543 .0280410
816.242 .0280408
816.940 .0280406
817.638 .0280399
818.335 .0280387
819.032 .0280368
819.729 .0280347
820.426 .0280316
821.122 .0280274
821.818 .0280215
822.514 .0280144
823.209 .0280066
823.905 .0279972
824.599 .0279868
825.294 .0279759
825.988 .0279637
826.682 .0279510
827.376 .0279376
828.069 .0279230
828.762 .0279079
829.455 .0278925
830.147 .0278762
830.840 .0278602
831.531 .0278457
832.223 .0278334
832.914 .0278231
833.605 .0278153
834.296 .0278085
834.986 .0278025
835.676 .0277967
836.366 .0277895
837.055 .0277809
837.744 .0277717
838.433 .0277611
839.121 .0277506
839.809 .0277406
840.497 .0277313
841.185 .0277229
841.872 .0277148
842.559 .0277065
843.245 .0276974
843.932 .0276873
844.617 .0276769
845.303 .0276664
845.988 .0276565
846.673 .0276471
847.358 .0276387
848.042 .0276323
848.726 .0276260
849.410 .0276198
850.093 .0276132
850.776 .0276055
851.459 .0275957
852.141 .0275837
852.823 .0275697
853.505 .0275551
854.186 .0275393
854.867 .0275227
855.548 .0275052
856.228 .0274880
856.908 .0274704
857.588 .0274522
858.267 .0274331
858.946 .0274139
859.625 .0273934
860.303 .0273730
860.981 .0273528
861.659 .0273337
862.336 .0273161
863.013 .0273002
863.690 .0272863
864.366 .0272743
865.042 .0272632
865.718 .0272530
866.393 .0272426
867.068 .0272317
867.743 .0272186
868.417 .0272035
869.091 .0271869
869.765 .0271687
870.438 .0271486
871.111 .0271277
871.783 .0271061
872.456 .0270840
873.127 .0270613
873.799 .0270379
874.470 .0270140
875.141 .0269894
875.811 .0269640
876.481 .0269378
877.151 .0269119
877.820 .0268866
878.489 .0268619
879.158 .0268386
879.826 .0268170
880.494 .0267968
881.162 .0267788
881.829 .0267624
882.496 .0267473
883.163 .0267329
883.829 .0267194
884.495 .0267056
885.160 .0266917
885.825 .0266779
886.490 .0266643
887.154 .0266508
887.818 .0266379
888.482 .0266250
889.145 .0266124
889.808 .0266004
890.471 .0265889
891.133 .0265773
891.795 .0265658
892.456 .0265545
893.117 .0265438
893.778 .0265337
894.439 .0265246
895.099 .0265157
895.758 .0265078
896.417 .0265008
897.076 .0264940
897.735 .0264866
898.393 .0264793
899.051 .0264717
899.708 .0264633
900.365 .0264537
901.022 .0264434
901.678 .0264317
902.334 .0264187
902.990 .0264036
903.645 .0263862
904.300 .0263670
904.954 .0263466
905.608 .0263247
906.262 .0263028
906.915 .0262809
907.568 .0262592
908.221 .0262386
908.873 .0262193
909.525 .0262004
910.176 .0261819
910.828 .0261641
911.478 .0261467
912.129 .0261293
912.778 .0261123
913.428 .0260959
914.077 .0260805
914.726 .0260661
915.375 .0260517
916.023 .0260379
916.670 .0260246
917.318 .0260111
917.964 .0259972
918.611 .0259829
919.257 .0259682
919.903 .0259530
920.548 .0259378
921.193 .0259235
921.838 .0259095
922.482 .0258967
923.126 .0258850
923.770 .0258743
924.413 .0258649
925.056 .0258572
925.698 .0258506
926.340 .0258453
926.982 .0258409
927.623 .0258370
928.264 .0258328
928.904 .0258286
929.544 .0258237
930.184 .0258180
930.823 .0258120
931.462 .0258053
932.101 .0257972
932.739 .0257884
933.377 .0257778
934.014 .0257654
934.651 .0257518
935.288 .0257364
935.924 .0257201
936.560 .0257036
937.196 .0256873
937.831 .0256712
938.466 .0256559
939.100 .0256412
939.734 .0256269
940.368 .0256132
941.001 .0255993
941.634 .0255855
942.266 .0255726
942.899 .0255602
943.530 .0255485
944.162 .0255381
944.793 .0255283
945.423 .0255189
946.053 .0255101
946.683 .0255006
947.313 .0254898
947.942 .0254779
948.571 .0254644
949.199 .0254492
949.827 .0254327
950.455 .0254157
951.082 .0253985
951.709 .0253826
952.335 .0253666
952.961 .0253510
953.587 .0253364
954.212 .0253222
954.837 .0253081
955.462 .0252951
956.086 .0252825
956.710 .0252709
957.334 .0252600
957.957 .0252505
958.579 .0252416
959.202 .0252345
959.824 .0252284
960.445 .0252236
961.067 .0252201
961.688 .0252172
962.308 .0252143
962.928 .0252120
963.548 .0252095
964.168 .0252062
964.787 .0252019
965.406 .0251968
966.024 .0251909
966.642 .0251848
967.260 .0251787
967.877 .0251731
968.494 .0251688
969.110 .0251650
969.727 .0251614
970.342 .0251583
970.958 .0251557
971.573 .0251531
972.188 .0251507
972.802 .0251483
973.416 .0251466
974.030 .0251457
974.643 .0251461
975.256 .0251483
975.869 .0251527
976.481 .0251590
977.093 .0251663
977.705 .0251746
978.316 .0251842
978.927 .0251937
979.538 .0252044
980.148 .0252156
980.758 .0252265
981.367 .0252374
981.977 .0252475
982.586 .0252565
983.194 .0252646
983.802 .0252719
984.410 .0252778
985.018 .0252830
985.625 .0252880
986.232 .0252920
986.838 .0252962
987.445 .0253004
988.050 .0253039
988.656 .0253064
989.261 .0253073
989.866 .0253052
990.471 .0252999
991.075 .0252938
991.679 .0252860
992.282 .0252780
992.886 .0252714
993.489 .0252668
994.091 .0252645
994.694 .0252643
995.296 .0252652
995.897 .0252667
996.499 .0252683
997.100 .0252686
997.701 .0252671
998.301 .0252658
998.901 .0252648
999.501 .0252656
1000.101 .0252688
1000.700 .0252748
1001.299 .0252824
1001.898 .0252910
1002.496 .0252993
1003.094 .0253055
1003.692 .0253091
1004.289 .0253094
1004.887 .0253075
1005.484 .0253046
1006.080 .0253018
1006.677 .0253002
1007.273 .0253002
1007.868 .0253023
1008.464 .0253051
1009.059 .0253075
1009.654 .0253085
1010.249 .0253074
1010.843 .0253033
1011.437 .0252966
1012.031 .0252878
1012.625 .0252793
1013.218 .0252712
1013.811 .0252645
1014.404 .0252598
1014.997 .0252579
1015.589 .0252582
1016.181 .0252607
1016.773 .0252653
1017.365 .0252717
1017.956 .0252789
1018.547 .0252872
1019.138 .0252950
1019.728 .0253035
1020.319 .0253120
1020.909 .0253205
1021.499 .0253282
1022.088 .0253362
1022.678 .0253428
1023.267 .0253493
1023.856 .0253550
1024.445 .0253591
1025.033 .0253606
1025.621 .0253589
1026.209 .0253524
1026.797 .0253409
1027.385 .0253253
1027.972 .0253072
1028.560 .0252870
1029.147 .0252663
1029.734 .0252465
1030.320 .0252289
1030.907 .0252151
1031.493 .0252039
1032.079 .0251948
1032.665 .0251880
1033.250 .0251814
1033.836 .0251757
1034.421 .0251713
1035.006 .0251688
1035.591 .0251702
1036.176 .0251748
1036.761 .0251836
1037.345 .0251945
1037.929 .0252076
1038.514 .0252223
1039.097 .0252374
1039.681 .0252512
1040.265 .0252628
1040.848 .0252712
1041.432 .0252781
1042.015 .0252831
1042.598 .0252854
1043.181 .0252870
1043.764 .0252869
1044.346 .0252847
1044.929 .0252803
1045.511 .0252739
1046.094 .0252665
1046.676 .0252574
1047.258 .0252482
1047.840 .0252373
1048.422 .0252247
1049.003 .0252123
1049.585 .0251988
1050.166 .0251863
1050.748 .0251751
1051.329 .0251647
1051.910 .0251559
1052.491 .0251495
1053.072 .0251440
1053.653 .0251379
1054.234 .0251324
1054.815 .0251256
1055.396 .0251160
1055.976 .0251039
1056.557 .0250893
1057.138 .0250718
1057.718 .0250526
1058.298 .0250326
1058.879 .0250102
1059.459 .0249874
1060.039 .0249637
1060.620 .0249363
1061.200 .0249070
1061.780 .0248764
1062.360 .0248446
1062.940 .0248140
1063.520 .0247868
1064.101 .0247612
1064.681 .0247387
1065.261 .0247192
1065.841 .0246998
1066.421 .0246793
1067.001 .0246590
1067.581 .0246367
1068.161 .0246120
1068.741 .0245889
1069.321 .0245680
1069.901 .0245510
1070.482 .0245416
1071.062 .0245369
1071.642 .0245377
1072.222 .0245409
1072.803 .0245461
1073.383 .0245508
1073.963 .0245573
1074.544 .0245644
1075.124 .0245688
1075.705 .0245751
1076.286 .0245828
1076.866 .0245911
1077.447 .0246006
1078.028 .0246099
1078.609 .0246179
1079.190 .0246226
1079.771 .0246219
1080.352 .0246141
1080.934 .0246025
1081.515 .0245871
1082.097 .0245675
1082.679 .0245432
1083.260 .0245155
1083.842 .0244853
1084.424 .0244521
1085.007 .0244190
1085.589 .0243844
1086.172 .0243520
1086.754 .0243225
1087.337 .0242963
1087.920 .0242749
1088.503 .0242565
1089.087 .0242413
1089.670 .0242262
1090.254 .0242109
1090.838 .0241938
1091.422 .0241742
1092.006 .0241562
1092.590 .0241383
1093.175 .0241222
1093.760 .0241059
1094.345 .0240891
1094.930 .0240729
1095.516 .0240539
1096.102 .0240330
1096.688 .0240083
1097.274 .0239820
1097.860 .0239538
1098.447 .0239238
1099.034 .0238937
1099.622 .0238644
1100.209 .0238363
1100.797 .0238098
1101.385 .0237830
1101.973 .0237592
1102.562 .0237394
1103.151 .0237253
1103.740 .0237183
1104.330 .0237212
1104.920 .0237302
1105.510 .0237486
1106.101 .0237707
1106.691 .0237961
1107.283 .0238213
1107.874 .0238470
1108.466 .0238716
1109.058 .0238949
1109.651 .0239213
1110.244 .0239518
1110.837 .0239870
1111.431 .0240286
1112.025 .0240703
1112.620 .0241101
1113.215 .0241439
1113.810 .0241689
1114.406 .0241834
1115.002 .0241889
1115.599 .0241852
1116.196 .0241728
1116.793 .0241548
1117.391 .0241351
1117.989 .0241127
1118.588 .0240944
1119.187 .0240802
1119.787 .0240655
1120.387 .0240546
1120.988 .0240446
1121.589 .0240380
1122.190 .0240369
1122.793 .0240411
1123.395 .0240514
1123.998 .0240682
1124.602 .0240938
1125.206 .0241262
1125.811 .0241667
1126.416 .0242174
1127.022 .0242691
1127.628 .0243209
1128.235 .0243740
1128.843 .0244189
1129.451 .0244606
1130.059 .0244976
1130.669 .0245263
1131.278 .0245516
1131.889 .0245720
1132.500 .0245892
1133.112 .0246027
1133.724 .0246147
1134.337 .0246264
1134.950 .0246261
1135.564 .0246266
1136.179 .0246245
1136.795 .0246230
1137.411 .0246354
1138.028 .0246605
1138.645 .0247010
1139.263 .0247613
1139.882 .0248355
1140.502 .0249217
1141.122 .0250268
1141.743 .0251778
1142.365 .0253490
1142.987 .0252436
1143.611 .0253817
1144.235 .0258696
1144.859 .0268163
1145.485 .0267211
