Measurement Sequence started on: 10-20-44-796
Integration time: 35
Scans to Average: 2 
>>>>>Begin Spectral Data<<<<<
432.953 .0234114
433.882 .0238830
434.810 .0277702
435.737 .0315610
436.662 .0326346
437.586 .0319821
438.509 .0329303
439.431 .0336337
440.351 .0340653
441.269 .0343000
442.187 .0344422
443.103 .0345136
444.018 .0345403
444.932 .0345423
445.844 .0345080
446.756 .0344707
447.666 .0344445
448.575 .0344109
449.482 .0343896
450.388 .0343574
451.294 .0343139
452.198 .0342585
453.100 .0341970
454.002 .0341380
454.902 .0340891
455.801 .0340610
456.699 .0340641
457.596 .0340928
458.492 .0341271
459.387 .0341569
460.280 .0341731
461.172 .0341642
462.064 .0341296
462.954 .0340714
463.843 .0340053
464.730 .0339405
465.617 .0338858
466.503 .0338389
467.387 .0338009
468.271 .0337653
469.153 .0337262
470.035 .0336748
470.915 .0336125
471.794 .0335397
472.673 .0334581
473.550 .0333818
474.426 .0333114
475.301 .0332502
476.175 .0332028
477.048 .0331650
477.920 .0331362
478.791 .0331121
479.661 .0330881
480.530 .0330651
481.398 .0330442
482.266 .0330271
483.132 .0330134
483.997 .0330049
484.861 .0330059
485.724 .0330122
486.587 .0330245
487.448 .0330393
488.308 .0330515
489.168 .0330648
490.026 .0330733
490.884 .0330737
491.741 .0330670
492.597 .0330532
493.452 .0330361
494.306 .0330148
495.159 .0329912
496.011 .0329651
496.862 .0329394
497.713 .0329108
498.562 .0328762
499.411 .0328360
500.259 .0327918
501.106 .0327400
501.952 .0326844
502.798 .0326279
503.642 .0325706
504.486 .0325147
505.329 .0324611
506.171 .0324075
507.012 .0323503
507.852 .0322838
508.692 .0322093
509.531 .0321218
510.369 .0320246
511.206 .0319159
512.043 .0318020
512.878 .0316875
513.713 .0315681
514.547 .0314428
515.381 .0313093
516.213 .0311716
517.045 .0310218
517.876 .0308581
518.706 .0306883
519.536 .0305148
520.365 .0303442
521.193 .0301776
522.020 .0300230
522.847 .0298797
523.673 .0297441
524.498 .0296121
525.323 .0294725
526.146 .0293289
526.969 .0291776
527.792 .0290221
528.614 .0288638
529.435 .0287109
530.255 .0285587
531.075 .0284083
531.894 .0282719
532.712 .0281398
533.530 .0280103
534.347 .0278844
535.163 .0277692
535.979 .0276614
536.794 .0275602
537.608 .0274714
538.422 .0273914
539.235 .0273248
540.048 .0272610
540.860 .0271946
541.671 .0271314
542.481 .0270705
543.292 .0270140
544.101 .0269585
544.910 .0269162
545.718 .0268851
546.526 .0268638
547.333 .0268551
548.139 .0268578
548.945 .0268718
549.750 .0268936
550.555 .0269259
551.359 .0269686
552.162 .0270186
552.965 .0270794
553.768 .0271503
554.569 .0272312
555.371 .0273172
556.171 .0274085
556.972 .0275043
557.771 .0276019
558.570 .0276979
559.369 .0277923
560.167 .0278891
560.964 .0279877
561.761 .0280857
562.558 .0281826
563.354 .0282810
564.149 .0283783
564.944 .0284712
565.738 .0285604
566.532 .0286477
567.325 .0287358
568.118 .0288203
568.910 .0289026
569.702 .0289870
570.494 .0290740
571.285 .0291626
572.075 .0292516
572.865 .0293414
573.654 .0294290
574.443 .0295155
575.232 .0296003
576.020 .0296833
576.807 .0297660
577.594 .0298471
578.381 .0299272
579.167 .0300044
579.952 .0300795
580.738 .0301499
581.522 .0302151
582.307 .0302750
583.091 .0303260
583.874 .0303688
584.657 .0304035
585.440 .0304325
586.222 .0304562
587.004 .0304758
587.785 .0304941
588.566 .0305101
589.346 .0305245
590.126 .0305378
590.906 .0305482
591.685 .0305563
592.464 .0305609
593.242 .0305611
594.020 .0305571
594.797 .0305504
595.575 .0305427
596.351 .0305344
597.128 .0305266
597.904 .0305196
598.679 .0305130
599.454 .0305065
600.229 .0305001
601.004 .0304923
601.778 .0304825
602.551 .0304701
603.325 .0304549
604.097 .0304376
604.870 .0304183
605.642 .0303978
606.414 .0303771
607.185 .0303568
607.956 .0303375
608.727 .0303176
609.497 .0302989
610.267 .0302813
611.037 .0302650
611.806 .0302498
612.575 .0302351
613.344 .0302210
614.112 .0302070
614.880 .0301930
615.647 .0301783
616.414 .0301633
617.181 .0301483
617.948 .0301335
618.714 .0301202
619.480 .0301082
620.245 .0300977
621.011 .0300891
621.775 .0300822
622.540 .0300752
623.304 .0300680
624.068 .0300602
624.832 .0300509
625.595 .0300413
626.358 .0300306
627.120 .0300192
627.883 .0300077
628.645 .0299967
629.406 .0299850
630.168 .0299726
630.929 .0299592
631.689 .0299433
632.450 .0299255
633.210 .0299055
633.970 .0298823
634.729 .0298575
635.489 .0298320
636.248 .0298053
637.006 .0297781
637.765 .0297522
638.523 .0297271
639.280 .0297039
640.038 .0296821
640.795 .0296618
641.552 .0296429
642.309 .0296255
643.065 .0296088
643.821 .0295928
644.577 .0295775
645.332 .0295626
646.088 .0295479
646.843 .0295340
647.597 .0295202
648.352 .0295071
649.106 .0294943
649.860 .0294816
650.613 .0294684
651.367 .0294545
652.120 .0294400
652.872 .0294253
653.625 .0294099
654.377 .0293943
655.129 .0293792
655.881 .0293645
656.632 .0293507
657.384 .0293379
658.135 .0293262
658.885 .0293153
659.636 .0293047
660.386 .0292940
661.136 .0292829
661.885 .0292719
662.635 .0292609
663.384 .0292495
664.133 .0292381
664.881 .0292256
665.630 .0292128
666.378 .0292001
667.126 .0291867
667.874 .0291726
668.621 .0291581
669.368 .0291427
670.115 .0291265
670.862 .0291091
671.608 .0290920
672.354 .0290752
673.100 .0290593
673.846 .0290442
674.591 .0290298
675.337 .0290166
676.082 .0290045
676.826 .0289926
677.571 .0289811
678.315 .0289693
679.059 .0289567
679.803 .0289433
680.547 .0289297
681.290 .0289162
682.033 .0289024
682.776 .0288888
683.518 .0288753
684.261 .0288610
685.003 .0288462
685.745 .0288303
686.487 .0288132
687.228 .0287950
687.969 .0287750
688.710 .0287528
689.451 .0287292
690.192 .0287046
690.932 .0286787
691.672 .0286522
692.412 .0286256
693.152 .0285985
693.891 .0285713
694.630 .0285447
695.369 .0285184
696.108 .0284927
696.846 .0284674
697.585 .0284413
698.323 .0284153
699.061 .0283894
699.798 .0283633
700.536 .0283375
701.273 .0283130
702.010 .0282902
702.746 .0282690
703.483 .0282495
704.219 .0282317
704.955 .0282149
705.691 .0281988
706.427 .0281822
707.162 .0281651
707.897 .0281480
708.632 .0281310
709.367 .0281138
710.101 .0280975
710.835 .0280814
711.569 .0280654
712.303 .0280492
713.037 .0280327
713.770 .0280153
714.503 .0279969
715.236 .0279778
715.969 .0279584
716.702 .0279388
717.434 .0279189
718.166 .0278987
718.898 .0278782
719.629 .0278571
720.361 .0278350
721.092 .0278119
721.823 .0277885
722.554 .0277652
723.284 .0277422
724.014 .0277198
724.744 .0276981
725.474 .0276768
726.204 .0276556
726.933 .0276339
727.662 .0276113
728.391 .0275878
729.120 .0275637
729.849 .0275397
730.577 .0275162
731.305 .0274940
732.033 .0274726
732.760 .0274521
733.488 .0274321
734.215 .0274124
734.942 .0273926
735.669 .0273735
736.395 .0273551
737.122 .0273378
737.848 .0273222
738.573 .0273087
739.299 .0272971
740.024 .0272871
740.750 .0272780
741.474 .0272697
742.199 .0272615
742.924 .0272535
743.648 .0272456
744.372 .0272390
745.096 .0272340
745.819 .0272304
746.543 .0272279
747.266 .0272263
747.989 .0272249
748.711 .0272230
749.434 .0272203
750.156 .0272167
750.878 .0272127
751.599 .0272089
752.321 .0272062
753.042 .0272052
753.763 .0272063
754.484 .0272093
755.205 .0272136
755.925 .0272187
756.645 .0272225
757.365 .0272246
758.085 .0272250
758.804 .0272232
759.523 .0272192
760.242 .0272127
760.961 .0272049
761.679 .0271960
762.397 .0271859
763.115 .0271742
763.833 .0271607
764.551 .0271454
765.268 .0271276
765.985 .0271073
766.702 .0270851
767.418 .0270614
768.134 .0270369
768.850 .0270131
769.566 .0269904
770.282 .0269694
770.997 .0269511
771.712 .0269356
772.427 .0269232
773.142 .0269129
773.856 .0269039
774.570 .0268961
775.284 .0268893
775.998 .0268826
776.711 .0268757
777.424 .0268693
778.137 .0268632
778.849 .0268571
779.562 .0268517
780.274 .0268473
780.986 .0268434
781.697 .0268403
782.409 .0268379
783.120 .0268354
783.831 .0268329
784.541 .0268299
785.252 .0268259
785.962 .0268209
786.671 .0268151
787.381 .0268075
788.090 .0267986
788.799 .0267887
789.508 .0267771
790.217 .0267646
790.925 .0267516
791.633 .0267381
792.341 .0267240
793.048 .0267095
793.755 .0266942
794.462 .0266780
795.169 .0266616
795.875 .0266448
796.581 .0266279
797.287 .0266116
797.993 .0265961
798.698 .0265820
799.403 .0265697
800.108 .0265599
800.812 .0265519
801.517 .0265460
802.221 .0265410
802.924 .0265360
803.628 .0265307
804.331 .0265250
805.034 .0265184
805.736 .0265107
806.439 .0265015
807.141 .0264912
807.843 .0264792
808.544 .0264661
809.245 .0264518
809.946 .0264363
810.647 .0264194
811.347 .0264015
812.047 .0263831
812.747 .0263641
813.447 .0263450
814.146 .0263267
814.845 .0263098
815.543 .0262941
816.242 .0262797
816.940 .0262666
817.638 .0262554
818.335 .0262462
819.032 .0262378
819.729 .0262303
820.426 .0262235
821.122 .0262170
821.818 .0262105
822.514 .0262037
823.209 .0261963
823.905 .0261880
824.599 .0261790
825.294 .0261684
825.988 .0261560
826.682 .0261420
827.376 .0261261
828.069 .0261086
828.762 .0260894
829.455 .0260687
830.147 .0260469
830.840 .0260248
831.531 .0260026
832.223 .0259805
832.914 .0259591
833.605 .0259379
834.296 .0259172
834.986 .0258972
835.676 .0258776
836.366 .0258583
837.055 .0258396
837.744 .0258215
838.433 .0258040
839.121 .0257877
839.809 .0257721
840.497 .0257579
841.185 .0257450
841.872 .0257328
842.559 .0257212
843.245 .0257101
843.932 .0256994
844.617 .0256889
845.303 .0256788
845.988 .0256686
846.673 .0256589
847.358 .0256493
848.042 .0256401
848.726 .0256317
849.410 .0256237
850.093 .0256159
850.776 .0256081
851.459 .0255999
852.141 .0255901
852.823 .0255786
853.505 .0255654
854.186 .0255497
854.867 .0255324
855.548 .0255135
856.228 .0254934
856.908 .0254730
857.588 .0254530
858.267 .0254335
858.946 .0254147
859.625 .0253969
860.303 .0253794
860.981 .0253624
861.659 .0253457
862.336 .0253292
863.013 .0253130
863.690 .0252980
864.366 .0252837
865.042 .0252701
865.718 .0252577
866.393 .0252462
867.068 .0252351
867.743 .0252247
868.417 .0252140
869.091 .0252028
869.765 .0251908
870.438 .0251780
871.111 .0251643
871.783 .0251500
872.456 .0251351
873.127 .0251196
873.799 .0251037
874.470 .0250874
875.141 .0250702
875.811 .0250530
876.481 .0250361
877.151 .0250199
877.820 .0250043
878.489 .0249901
879.158 .0249773
879.826 .0249662
880.494 .0249565
881.162 .0249477
881.829 .0249394
882.496 .0249310
883.163 .0249221
883.829 .0249128
884.495 .0249028
885.160 .0248933
885.825 .0248843
886.490 .0248766
887.154 .0248700
887.818 .0248647
888.482 .0248600
889.145 .0248555
889.808 .0248508
890.471 .0248449
891.133 .0248380
891.795 .0248302
892.456 .0248217
893.117 .0248134
893.778 .0248053
894.439 .0247983
895.099 .0247918
895.758 .0247863
896.417 .0247807
897.076 .0247751
897.735 .0247693
898.393 .0247631
899.051 .0247564
899.708 .0247496
900.365 .0247422
901.022 .0247350
901.678 .0247281
902.334 .0247213
902.990 .0247145
903.645 .0247083
904.300 .0247018
904.954 .0246959
905.608 .0246898
906.262 .0246841
906.915 .0246787
907.568 .0246732
908.221 .0246673
908.873 .0246611
909.525 .0246545
910.176 .0246473
910.828 .0246393
911.478 .0246310
912.129 .0246218
912.778 .0246123
913.428 .0246020
914.077 .0245913
914.726 .0245800
915.375 .0245678
916.023 .0245549
916.670 .0245415
917.318 .0245269
917.964 .0245117
918.611 .0244958
919.257 .0244798
919.903 .0244637
920.548 .0244476
921.193 .0244324
921.838 .0244188
922.482 .0244071
923.126 .0243974
923.770 .0243895
924.413 .0243835
925.056 .0243788
925.698 .0243750
926.340 .0243716
926.982 .0243685
927.623 .0243659
928.264 .0243638
928.904 .0243620
929.544 .0243608
930.184 .0243601
930.823 .0243596
931.462 .0243586
932.101 .0243566
932.739 .0243531
933.377 .0243476
934.014 .0243402
934.651 .0243312
935.288 .0243213
935.924 .0243111
936.560 .0243009
937.196 .0242916
937.831 .0242833
938.466 .0242753
939.100 .0242676
939.734 .0242600
940.368 .0242519
941.001 .0242433
941.634 .0242341
942.266 .0242251
942.899 .0242162
943.530 .0242073
944.162 .0241987
944.793 .0241902
945.423 .0241815
946.053 .0241719
946.683 .0241617
947.313 .0241512
947.942 .0241397
948.571 .0241276
949.199 .0241151
949.827 .0241021
950.455 .0240887
951.082 .0240748
951.709 .0240608
952.335 .0240468
952.961 .0240330
953.587 .0240190
954.212 .0240053
954.837 .0239925
955.462 .0239800
956.086 .0239678
956.710 .0239567
957.334 .0239459
957.957 .0239348
958.579 .0239237
959.202 .0239121
959.824 .0239002
960.445 .0238883
961.067 .0238768
961.688 .0238665
962.308 .0238575
962.928 .0238503
963.548 .0238448
964.168 .0238408
964.787 .0238378
965.406 .0238348
966.024 .0238317
966.642 .0238278
967.260 .0238233
967.877 .0238179
968.494 .0238120
969.110 .0238061
969.727 .0238001
970.342 .0237940
970.958 .0237884
971.573 .0237834
972.188 .0237784
972.802 .0237735
973.416 .0237683
974.030 .0237622
974.643 .0237555
975.256 .0237486
975.869 .0237414
976.481 .0237338
977.093 .0237271
977.705 .0237209
978.316 .0237158
978.927 .0237123
979.538 .0237097
980.148 .0237081
980.758 .0237076
981.367 .0237073
981.977 .0237071
982.586 .0237073
983.194 .0237073
983.802 .0237067
984.410 .0237061
985.018 .0237049
985.625 .0237032
986.232 .0237016
986.838 .0237003
987.445 .0236989
988.050 .0236977
988.656 .0236966
989.261 .0236958
989.866 .0236946
990.471 .0236933
991.075 .0236916
991.679 .0236900
992.282 .0236885
992.886 .0236873
993.489 .0236869
994.091 .0236878
994.694 .0236900
995.296 .0236936
995.897 .0236982
996.499 .0237042
997.100 .0237104
997.701 .0237169
998.301 .0237232
998.901 .0237291
999.501 .0237340
1000.101 .0237380
1000.700 .0237415
1001.299 .0237441
1001.898 .0237455
1002.496 .0237459
1003.094 .0237455
1003.692 .0237440
1004.289 .0237416
1004.887 .0237384
1005.484 .0237342
1006.080 .0237293
1006.677 .0237232
1007.273 .0237160
1007.868 .0237080
1008.464 .0236998
1009.059 .0236914
1009.654 .0236831
1010.249 .0236758
1010.843 .0236693
1011.437 .0236636
1012.031 .0236586
1012.625 .0236542
1013.218 .0236500
1013.811 .0236459
1014.404 .0236421
1014.997 .0236389
1015.589 .0236369
1016.181 .0236365
1016.773 .0236371
1017.365 .0236396
1017.956 .0236431
1018.547 .0236472
1019.138 .0236515
1019.728 .0236560
1020.319 .0236607
1020.909 .0236657
1021.499 .0236713
1022.088 .0236785
1022.678 .0236867
1023.267 .0236963
1023.856 .0237054
1024.445 .0237140
1025.033 .0237209
1025.621 .0237257
1026.209 .0237278
1026.797 .0237280
1027.385 .0237259
1027.972 .0237231
1028.560 .0237203
1029.147 .0237186
1029.734 .0237184
1030.320 .0237193
1030.907 .0237208
1031.493 .0237225
1032.079 .0237238
1032.665 .0237249
1033.250 .0237251
1033.836 .0237263
1034.421 .0237274
1035.006 .0237289
1035.591 .0237308
1036.176 .0237334
1036.761 .0237371
1037.345 .0237410
1037.929 .0237445
1038.514 .0237474
1039.097 .0237492
1039.681 .0237508
1040.265 .0237520
1040.848 .0237530
1041.432 .0237536
1042.015 .0237534
1042.598 .0237516
1043.181 .0237481
1043.764 .0237428
1044.346 .0237366
1044.929 .0237296
1045.511 .0237222
1046.094 .0237146
1046.676 .0237081
1047.258 .0237033
1047.840 .0237000
1048.422 .0236978
1049.003 .0236958
1049.585 .0236929
1050.166 .0236887
1050.748 .0236831
1051.329 .0236770
1051.910 .0236704
1052.491 .0236636
1053.072 .0236583
1053.653 .0236549
1054.234 .0236531
1054.815 .0236524
1055.396 .0236529
1055.976 .0236534
1056.557 .0236530
1057.138 .0236518
1057.718 .0236495
1058.298 .0236463
1058.879 .0236429
1059.459 .0236387
1060.039 .0236350
1060.620 .0236308
1061.200 .0236263
1061.780 .0236206
1062.360 .0236139
1062.940 .0236053
1063.520 .0235941
1064.101 .0235820
1064.681 .0235697
1065.261 .0235569
1065.841 .0235441
1066.421 .0235300
1067.001 .0235152
1067.581 .0234979
1068.161 .0234784
1068.741 .0234572
1069.321 .0234351
1069.901 .0234131
1070.482 .0233918
1071.062 .0233718
1071.642 .0233544
1072.222 .0233389
1072.803 .0233260
1073.383 .0233147
1073.963 .0233047
1074.544 .0232950
1075.124 .0232866
1075.705 .0232796
1076.286 .0232750
1076.866 .0232708
1077.447 .0232686
1078.028 .0232666
1078.609 .0232661
1079.190 .0232649
1079.771 .0232631
1080.352 .0232607
1080.934 .0232590
1081.515 .0232569
1082.097 .0232546
1082.679 .0232513
1083.260 .0232481
1083.842 .0232435
1084.424 .0232376
1085.007 .0232287
1085.589 .0232180
1086.172 .0232049
1086.754 .0231896
1087.337 .0231724
1087.920 .0231537
1088.503 .0231326
1089.087 .0231095
1089.670 .0230855
1090.254 .0230596
1090.838 .0230319
1091.422 .0230036
1092.006 .0229772
1092.590 .0229533
1093.175 .0229335
1093.760 .0229169
1094.345 .0229043
1094.930 .0228951
1095.516 .0228885
1096.102 .0228816
1096.688 .0228778
1097.274 .0228775
1097.860 .0228804
1098.447 .0228856
1099.034 .0228945
1099.622 .0229047
1100.209 .0229174
1100.797 .0229313
1101.385 .0229438
1101.973 .0229534
1102.562 .0229603
1103.151 .0229623
1103.740 .0229596
1104.330 .0229550
1104.920 .0229488
1105.510 .0229415
1106.101 .0229367
1106.691 .0229327
1107.283 .0229294
1107.874 .0229292
1108.466 .0229296
1109.058 .0229331
1109.651 .0229393
1110.244 .0229486
1110.837 .0229571
1111.431 .0229682
1112.025 .0229799
1112.620 .0229880
1113.215 .0229933
1113.810 .0229964
1114.406 .0229935
1115.002 .0229878
1115.599 .0229785
1116.196 .0229669
1116.793 .0229551
1117.391 .0229476
1117.989 .0229438
1118.588 .0229483
1119.187 .0229587
1119.787 .0229721
1120.387 .0229853
1120.988 .0230008
1121.589 .0230123
1122.190 .0230193
1122.793 .0230250
1123.395 .0230295
1123.998 .0230331
1124.602 .0230393
1125.206 .0230505
1125.811 .0230699
1126.416 .0230952
1127.022 .0231235
1127.628 .0231494
1128.235 .0231723
1128.843 .0231914
1129.451 .0232032
1130.059 .0232103
1130.669 .0232160
1131.278 .0232214
1131.889 .0232294
1132.500 .0232443
1133.112 .0232717
1133.724 .0233103
1134.337 .0233590
1134.950 .0234151
1135.564 .0234732
1136.179 .0235286
1136.795 .0235809
1137.411 .0236311
1138.028 .0236792
1138.645 .0237261
1139.263 .0237776
1139.882 .0238306
1140.502 .0238901
1141.122 .0239511
1141.743 .0240196
1142.365 .0241050
1142.987 .0241638
1143.611 .0242403
1144.235 .0242038
1144.859 .0244625
1145.485 .0249032
