Measurement Sequence started on: 10-20-44-796
Integration time: 35
Scans to Average: 2 
>>>>>Begin Spectral Data<<<<<
432.953 .0255805
433.882 .0331945
434.810 .0347818
435.737 .0345651
436.662 .0327524
437.586 .0338338
438.509 .0342108
439.431 .0343058
440.351 .0343643
441.269 .0344516
442.187 .0345891
443.103 .0346934
444.018 .0348126
444.932 .0349411
445.844 .0350772
446.756 .0352044
447.666 .0353105
448.575 .0353818
449.482 .0354245
450.388 .0354368
451.294 .0354226
452.198 .0353963
453.100 .0353690
454.002 .0353415
454.902 .0353242
455.801 .0353125
456.699 .0353001
457.596 .0352857
458.492 .0352635
459.387 .0352327
460.280 .0351909
461.172 .0351364
462.064 .0350760
462.954 .0350156
463.843 .0349596
464.730 .0349117
465.617 .0348739
466.503 .0348443
467.387 .0348232
468.271 .0348052
469.153 .0347908
470.035 .0347778
470.915 .0347659
471.794 .0347547
472.673 .0347389
473.550 .0347232
474.426 .0347079
475.301 .0346954
476.175 .0346866
477.048 .0346774
477.920 .0346694
478.791 .0346619
479.661 .0346525
480.530 .0346396
481.398 .0346252
482.266 .0346053
483.132 .0345803
483.997 .0345489
484.861 .0345136
485.724 .0344788
486.587 .0344446
487.448 .0344118
488.308 .0343767
489.168 .0343420
490.026 .0343071
490.884 .0342687
491.741 .0342269
492.597 .0341789
493.452 .0341253
494.306 .0340659
495.159 .0340030
496.011 .0339365
496.862 .0338714
497.713 .0338081
498.562 .0337440
499.411 .0336788
500.259 .0336081
501.106 .0335319
501.952 .0334523
502.798 .0333712
503.642 .0332890
504.486 .0332055
505.329 .0331259
506.171 .0330506
507.012 .0329831
507.852 .0329180
508.692 .0328541
509.531 .0327885
510.369 .0327201
511.206 .0326454
512.043 .0325642
512.878 .0324764
513.713 .0323859
514.547 .0322920
515.381 .0321965
516.213 .0320952
517.045 .0319902
517.876 .0318743
518.706 .0317470
519.536 .0316061
520.365 .0314521
521.193 .0312829
522.020 .0311080
522.847 .0309281
523.673 .0307452
524.498 .0305576
525.323 .0303699
526.146 .0301865
526.969 .0300080
527.792 .0298249
528.614 .0296393
529.435 .0294511
530.255 .0292700
531.075 .0290905
531.894 .0289169
532.712 .0287589
533.530 .0286150
534.347 .0284867
535.163 .0283735
535.979 .0282805
536.794 .0282108
537.608 .0281630
538.422 .0281405
539.235 .0281368
540.048 .0281463
540.860 .0281648
541.671 .0281878
542.481 .0282137
543.292 .0282389
544.101 .0282568
544.910 .0282749
545.718 .0282976
546.526 .0283234
547.333 .0283617
548.139 .0284102
548.945 .0284745
549.750 .0285469
550.555 .0286228
551.359 .0286982
552.162 .0287683
552.965 .0288361
553.768 .0288955
554.569 .0289501
555.371 .0289992
556.171 .0290436
556.972 .0290890
557.771 .0291370
558.570 .0291867
559.369 .0292401
560.167 .0292979
560.964 .0293566
561.761 .0294177
562.558 .0294776
563.354 .0295360
564.149 .0295906
564.944 .0296387
565.738 .0296800
566.532 .0297095
567.325 .0297320
568.118 .0297476
568.910 .0297603
569.702 .0297737
570.494 .0297888
571.285 .0298061
572.075 .0298252
572.865 .0298476
573.654 .0298690
574.443 .0298911
575.232 .0299138
576.020 .0299389
576.807 .0299666
577.594 .0300014
578.381 .0300445
579.167 .0300948
579.952 .0301542
580.738 .0302207
581.522 .0302907
582.307 .0303632
583.091 .0304342
583.874 .0305038
584.657 .0305700
585.440 .0306328
586.222 .0306887
587.004 .0307402
587.785 .0307868
588.566 .0308282
589.346 .0308630
590.126 .0308926
590.906 .0309167
591.685 .0309364
592.464 .0309506
593.242 .0309619
594.020 .0309704
594.797 .0309780
595.575 .0309842
596.351 .0309888
597.128 .0309904
597.904 .0309897
598.679 .0309863
599.454 .0309806
600.229 .0309729
601.004 .0309643
601.778 .0309543
602.551 .0309441
603.325 .0309339
604.097 .0309228
604.870 .0309109
605.642 .0308984
606.414 .0308839
607.185 .0308673
607.956 .0308495
608.727 .0308305
609.497 .0308105
610.267 .0307906
611.037 .0307708
611.806 .0307508
612.575 .0307313
613.344 .0307120
614.112 .0306924
614.880 .0306730
615.647 .0306532
616.414 .0306331
617.181 .0306135
617.948 .0305947
618.714 .0305761
619.480 .0305584
620.245 .0305409
621.011 .0305226
621.775 .0305035
622.540 .0304833
623.304 .0304619
624.068 .0304396
624.832 .0304169
625.595 .0303935
626.358 .0303701
627.120 .0303467
627.883 .0303226
628.645 .0302988
629.406 .0302752
630.168 .0302507
630.929 .0302257
631.689 .0302010
632.450 .0301760
633.210 .0301510
633.970 .0301265
634.729 .0301024
635.489 .0300784
636.248 .0300544
637.006 .0300299
637.765 .0300041
638.523 .0299781
639.280 .0299506
640.038 .0299214
640.795 .0298917
641.552 .0298608
642.309 .0298284
643.065 .0297954
643.821 .0297626
644.577 .0297295
645.332 .0296975
646.088 .0296676
646.843 .0296395
647.597 .0296129
648.352 .0295890
649.106 .0295675
649.860 .0295480
650.613 .0295313
651.367 .0295160
652.120 .0295028
652.872 .0294920
653.625 .0294830
654.377 .0294760
655.129 .0294701
655.881 .0294655
656.632 .0294601
657.384 .0294541
658.135 .0294469
658.885 .0294374
659.636 .0294261
660.386 .0294135
661.136 .0293997
661.885 .0293849
662.635 .0293700
663.384 .0293558
664.133 .0293427
664.881 .0293307
665.630 .0293191
666.378 .0293084
667.126 .0292980
667.874 .0292878
668.621 .0292769
669.368 .0292660
670.115 .0292547
670.862 .0292429
671.608 .0292314
672.354 .0292205
673.100 .0292101
673.846 .0292006
674.591 .0291915
675.337 .0291831
676.082 .0291739
676.826 .0291640
677.571 .0291529
678.315 .0291413
679.059 .0291287
679.803 .0291154
680.547 .0291015
681.290 .0290884
682.033 .0290755
682.776 .0290628
683.518 .0290500
684.261 .0290372
685.003 .0290241
685.745 .0290105
686.487 .0289967
687.228 .0289833
687.969 .0289699
688.710 .0289571
689.451 .0289441
690.192 .0289307
690.932 .0289166
691.672 .0289011
692.412 .0288844
693.152 .0288666
693.891 .0288476
694.630 .0288279
695.369 .0288082
696.108 .0287894
696.846 .0287708
697.585 .0287522
698.323 .0287338
699.061 .0287147
699.798 .0286947
700.536 .0286738
701.273 .0286513
702.010 .0286284
702.746 .0286051
703.483 .0285818
704.219 .0285588
704.955 .0285364
705.691 .0285148
706.427 .0284938
707.162 .0284734
707.897 .0284531
708.632 .0284329
709.367 .0284134
710.101 .0283941
710.835 .0283751
711.569 .0283561
712.303 .0283374
713.037 .0283190
713.770 .0283008
714.503 .0282820
715.236 .0282633
715.969 .0282444
716.702 .0282251
717.434 .0282052
718.166 .0281849
718.898 .0281639
719.629 .0281420
720.361 .0281192
721.092 .0280949
721.823 .0280694
722.554 .0280428
723.284 .0280151
724.014 .0279865
724.744 .0279567
725.474 .0279261
726.204 .0278952
726.933 .0278651
727.662 .0278355
728.391 .0278067
729.120 .0277792
729.849 .0277532
730.577 .0277281
731.305 .0277040
732.033 .0276811
732.760 .0276588
733.488 .0276368
734.215 .0276145
734.942 .0275920
735.669 .0275696
736.395 .0275474
737.122 .0275259
737.848 .0275050
738.573 .0274852
739.299 .0274662
740.024 .0274481
740.750 .0274307
741.474 .0274140
742.199 .0273974
742.924 .0273810
743.648 .0273646
744.372 .0273484
745.096 .0273329
745.819 .0273185
746.543 .0273048
747.266 .0272925
747.989 .0272812
748.711 .0272711
749.434 .0272616
750.156 .0272527
750.878 .0272437
751.599 .0272353
752.321 .0272267
753.042 .0272181
753.763 .0272095
754.484 .0272015
755.205 .0271931
755.925 .0271854
756.645 .0271780
757.365 .0271705
758.085 .0271633
758.804 .0271567
759.523 .0271500
760.242 .0271435
760.961 .0271365
761.679 .0271289
762.397 .0271203
763.115 .0271107
763.833 .0270989
764.551 .0270855
765.268 .0270707
765.985 .0270539
766.702 .0270355
767.418 .0270165
768.134 .0269964
768.850 .0269756
769.566 .0269552
770.282 .0269349
770.997 .0269151
771.712 .0268961
772.427 .0268779
773.142 .0268609
773.856 .0268453
774.570 .0268305
775.284 .0268170
775.998 .0268050
776.711 .0267941
777.424 .0267836
778.137 .0267745
778.849 .0267661
779.562 .0267585
780.274 .0267514
780.986 .0267449
781.697 .0267384
782.409 .0267322
783.120 .0267260
783.831 .0267197
784.541 .0267134
785.252 .0267070
785.962 .0267003
786.671 .0266942
787.381 .0266882
788.090 .0266822
788.799 .0266766
789.508 .0266714
790.217 .0266658
790.925 .0266599
791.633 .0266536
792.341 .0266466
793.048 .0266392
793.755 .0266311
794.462 .0266221
795.169 .0266125
795.875 .0266026
796.581 .0265917
797.287 .0265803
797.993 .0265686
798.698 .0265562
799.403 .0265436
800.108 .0265311
800.812 .0265181
801.517 .0265052
802.221 .0264929
802.924 .0264811
803.628 .0264704
804.331 .0264611
805.034 .0264534
805.736 .0264470
806.439 .0264417
807.141 .0264372
807.843 .0264332
808.544 .0264298
809.245 .0264264
809.946 .0264225
810.647 .0264189
811.347 .0264148
812.047 .0264103
812.747 .0264060
813.447 .0264016
814.146 .0263965
814.845 .0263909
815.543 .0263842
816.242 .0263766
816.940 .0263677
817.638 .0263576
818.335 .0263464
819.032 .0263346
819.729 .0263220
820.426 .0263086
821.122 .0262952
821.818 .0262817
822.514 .0262676
823.209 .0262535
823.905 .0262393
824.599 .0262246
825.294 .0262093
825.988 .0261935
826.682 .0261774
827.376 .0261614
828.069 .0261453
828.762 .0261290
829.455 .0261128
830.147 .0260969
830.840 .0260810
831.531 .0260650
832.223 .0260495
832.914 .0260339
833.605 .0260179
834.296 .0260015
834.986 .0259845
835.676 .0259671
836.366 .0259493
837.055 .0259313
837.744 .0259133
838.433 .0258950
839.121 .0258768
839.809 .0258583
840.497 .0258400
841.185 .0258218
841.872 .0258035
842.559 .0257855
843.245 .0257677
843.932 .0257503
844.617 .0257334
845.303 .0257172
845.988 .0257017
846.673 .0256863
847.358 .0256711
848.042 .0256559
848.726 .0256410
849.410 .0256263
850.093 .0256123
850.776 .0255987
851.459 .0255857
852.141 .0255726
852.823 .0255594
853.505 .0255454
854.186 .0255307
854.867 .0255151
855.548 .0254981
856.228 .0254807
856.908 .0254633
857.588 .0254462
858.267 .0254302
858.946 .0254151
859.625 .0254010
860.303 .0253872
860.981 .0253734
861.659 .0253589
862.336 .0253434
863.013 .0253272
863.690 .0253105
864.366 .0252938
865.042 .0252776
865.718 .0252621
866.393 .0252474
867.068 .0252335
867.743 .0252200
868.417 .0252063
869.091 .0251918
869.765 .0251767
870.438 .0251608
871.111 .0251441
871.783 .0251272
872.456 .0251101
873.127 .0250931
873.799 .0250761
874.470 .0250590
875.141 .0250418
875.811 .0250244
876.481 .0250070
877.151 .0249899
877.820 .0249733
878.489 .0249575
879.158 .0249417
879.826 .0249266
880.494 .0249118
881.162 .0248967
881.829 .0248812
882.496 .0248654
883.163 .0248497
883.829 .0248341
884.495 .0248192
885.160 .0248053
885.825 .0247929
886.490 .0247823
887.154 .0247731
887.818 .0247651
888.482 .0247578
889.145 .0247510
889.808 .0247443
890.471 .0247376
891.133 .0247308
891.795 .0247240
892.456 .0247175
893.117 .0247114
893.778 .0247056
894.439 .0247006
895.099 .0246963
895.758 .0246927
896.417 .0246897
897.076 .0246868
897.735 .0246836
898.393 .0246804
899.051 .0246768
899.708 .0246725
900.365 .0246679
901.022 .0246631
901.678 .0246583
902.334 .0246537
902.990 .0246493
903.645 .0246451
904.300 .0246413
904.954 .0246375
905.608 .0246326
906.262 .0246267
906.915 .0246196
907.568 .0246113
908.221 .0246021
908.873 .0245923
909.525 .0245823
910.176 .0245728
910.828 .0245638
911.478 .0245552
912.129 .0245468
912.778 .0245387
913.428 .0245305
914.077 .0245220
914.726 .0245133
915.375 .0245046
916.023 .0244965
916.670 .0244894
917.318 .0244836
917.964 .0244790
918.611 .0244753
919.257 .0244724
919.903 .0244696
920.548 .0244665
921.193 .0244631
921.838 .0244596
922.482 .0244558
923.126 .0244523
923.770 .0244490
924.413 .0244461
925.056 .0244440
925.698 .0244426
926.340 .0244417
926.982 .0244414
927.623 .0244415
928.264 .0244416
928.904 .0244415
929.544 .0244415
930.184 .0244410
930.823 .0244398
931.462 .0244378
932.101 .0244346
932.739 .0244298
933.377 .0244237
934.014 .0244162
934.651 .0244076
935.288 .0243987
935.924 .0243899
936.560 .0243812
937.196 .0243731
937.831 .0243652
938.466 .0243571
939.100 .0243487
939.734 .0243398
940.368 .0243298
941.001 .0243189
941.634 .0243080
942.266 .0242969
942.899 .0242858
943.530 .0242752
944.162 .0242649
944.793 .0242548
945.423 .0242445
946.053 .0242335
946.683 .0242218
947.313 .0242099
947.942 .0241977
948.571 .0241850
949.199 .0241725
949.827 .0241601
950.455 .0241476
951.082 .0241355
951.709 .0241237
952.335 .0241123
952.961 .0241017
953.587 .0240924
954.212 .0240839
954.837 .0240764
955.462 .0240700
956.086 .0240644
956.710 .0240596
957.334 .0240551
957.957 .0240497
958.579 .0240436
959.202 .0240369
959.824 .0240295
960.445 .0240212
961.067 .0240130
961.688 .0240049
962.308 .0239973
962.928 .0239901
963.548 .0239828
964.168 .0239754
964.787 .0239679
965.406 .0239598
966.024 .0239510
966.642 .0239417
967.260 .0239326
967.877 .0239237
968.494 .0239155
969.110 .0239078
969.727 .0239009
970.342 .0238942
970.958 .0238880
971.573 .0238815
972.188 .0238751
972.802 .0238686
973.416 .0238621
974.030 .0238557
974.643 .0238497
975.256 .0238445
975.869 .0238399
976.481 .0238359
977.093 .0238329
977.705 .0238299
978.316 .0238273
978.927 .0238245
979.538 .0238215
980.148 .0238178
980.758 .0238137
981.367 .0238092
981.977 .0238049
982.586 .0238007
983.194 .0237970
983.802 .0237937
984.410 .0237910
985.018 .0237886
985.625 .0237864
986.232 .0237845
986.838 .0237834
987.445 .0237823
988.050 .0237811
988.656 .0237793
989.261 .0237774
989.866 .0237742
990.471 .0237701
991.075 .0237654
991.679 .0237597
992.282 .0237535
992.886 .0237474
993.489 .0237416
994.091 .0237366
994.694 .0237323
995.296 .0237285
995.897 .0237242
996.499 .0237192
997.100 .0237128
997.701 .0237051
998.301 .0236969
998.901 .0236883
999.501 .0236804
1000.101 .0236739
1000.700 .0236690
1001.299 .0236657
1001.898 .0236641
1002.496 .0236635
1003.094 .0236633
1003.692 .0236619
1004.289 .0236589
1004.887 .0236547
1005.484 .0236497
1006.080 .0236438
1006.677 .0236382
1007.273 .0236329
1007.868 .0236279
1008.464 .0236228
1009.059 .0236178
1009.654 .0236120
1010.249 .0236058
1010.843 .0235988
1011.437 .0235905
1012.031 .0235815
1012.625 .0235721
1013.218 .0235621
1013.811 .0235526
1014.404 .0235437
1014.997 .0235348
1015.589 .0235255
1016.181 .0235169
1016.773 .0235087
1017.365 .0235013
1017.956 .0234947
1018.547 .0234891
1019.138 .0234844
1019.728 .0234802
1020.319 .0234763
1020.909 .0234724
1021.499 .0234689
1022.088 .0234655
1022.678 .0234618
1023.267 .0234585
1023.856 .0234554
1024.445 .0234527
1025.033 .0234500
1025.621 .0234470
1026.209 .0234430
1026.797 .0234372
1027.385 .0234297
1027.972 .0234211
1028.560 .0234117
1029.147 .0234019
1029.734 .0233929
1030.320 .0233851
1030.907 .0233785
1031.493 .0233728
1032.079 .0233680
1032.665 .0233636
1033.250 .0233591
1033.836 .0233542
1034.421 .0233488
1035.006 .0233432
1035.591 .0233376
1036.176 .0233325
1036.761 .0233278
1037.345 .0233231
1037.929 .0233178
1038.514 .0233110
1039.097 .0233030
1039.681 .0232930
1040.265 .0232810
1040.848 .0232678
1041.432 .0232536
1042.015 .0232393
1042.598 .0232246
1043.181 .0232109
1043.764 .0231989
1044.346 .0231886
1044.929 .0231798
1045.511 .0231722
1046.094 .0231655
1046.676 .0231595
1047.258 .0231527
1047.840 .0231465
1048.422 .0231407
1049.003 .0231358
1049.585 .0231314
1050.166 .0231273
1050.748 .0231236
1051.329 .0231214
1051.910 .0231191
1052.491 .0231169
1053.072 .0231138
1053.653 .0231092
1054.234 .0231018
1054.815 .0230919
1055.396 .0230791
1055.976 .0230630
1056.557 .0230450
1057.138 .0230263
1057.718 .0230064
1058.298 .0229882
1058.879 .0229723
1059.459 .0229594
1060.039 .0229502
1060.620 .0229430
1061.200 .0229364
1061.780 .0229303
1062.360 .0229237
1062.940 .0229151
1063.520 .0229051
1064.101 .0228937
1064.681 .0228809
1065.261 .0228682
1065.841 .0228566
1066.421 .0228460
1067.001 .0228364
1067.581 .0228278
1068.161 .0228190
1068.741 .0228098
1069.321 .0227995
1069.901 .0227880
1070.482 .0227769
1071.062 .0227662
1071.642 .0227564
1072.222 .0227488
1072.803 .0227439
1073.383 .0227423
1073.963 .0227442
1074.544 .0227494
1075.124 .0227579
1075.705 .0227692
1076.286 .0227815
1076.866 .0227958
1077.447 .0228101
1078.028 .0228223
1078.609 .0228309
1079.190 .0228364
1079.771 .0228378
1080.352 .0228340
1080.934 .0228260
1081.515 .0228149
1082.097 .0228025
1082.679 .0227911
1083.260 .0227777
1083.842 .0227653
1084.424 .0227535
1085.007 .0227421
1085.589 .0227288
1086.172 .0227162
1086.754 .0227033
1087.337 .0226924
1087.920 .0226837
1088.503 .0226783
1089.087 .0226764
1089.670 .0226796
1090.254 .0226855
1090.838 .0226948
1091.422 .0227037
1092.006 .0227138
1092.590 .0227212
1093.175 .0227298
1093.760 .0227362
1094.345 .0227418
1094.930 .0227468
1095.516 .0227520
1096.102 .0227561
1096.688 .0227587
1097.274 .0227573
1097.860 .0227541
1098.447 .0227474
1099.034 .0227370
1099.622 .0227223
1100.209 .0227067
1100.797 .0226904
1101.385 .0226738
1101.973 .0226565
1102.562 .0226400
1103.151 .0226213
1103.740 .0226027
1104.330 .0225830
1104.920 .0225596
1105.510 .0225354
1106.101 .0225112
1106.691 .0224880
1107.283 .0224671
1107.874 .0224492
1108.466 .0224346
1109.058 .0224249
1109.651 .0224208
1110.244 .0224200
1110.837 .0224217
1111.431 .0224296
1112.025 .0224424
1112.620 .0224578
1113.215 .0224800
1113.810 .0225080
1114.406 .0225416
1115.002 .0225812
1115.599 .0226246
1116.196 .0226680
1116.793 .0227083
1117.391 .0227472
1117.989 .0227801
1118.588 .0228077
1119.187 .0228313
1119.787 .0228470
1120.387 .0228595
1120.988 .0228681
1121.589 .0228728
1122.190 .0228702
1122.793 .0228650
1123.395 .0228548
1123.998 .0228370
1124.602 .0228135
1125.206 .0227875
1125.811 .0227605
1126.416 .0227362
1127.022 .0227161
1127.628 .0226999
1128.235 .0226891
1128.843 .0226855
1129.451 .0226879
1130.059 .0226996
1130.669 .0227198
1131.278 .0227493
1131.889 .0227830
1132.500 .0228235
1133.112 .0228678
1133.724 .0229128
1134.337 .0229594
1134.950 .0230089
1135.564 .0230600
1136.179 .0231105
1136.795 .0231630
1137.411 .0232201
1138.028 .0232800
1138.645 .0233454
1139.263 .0234088
1139.882 .0234710
1140.502 .0235385
1141.122 .0236128
1141.743 .0236838
1142.365 .0237653
1142.987 .0237507
1143.611 .0239791
1144.235 .0241674
1144.859 .0240288
1145.485 .0242750
