Measurement Sequence started on: 10-20-44-796
Integration time: 35
Scans to Average: 2 
>>>>>Begin Spectral Data<<<<<
432.953 .0418453
433.882 .0318920
434.810 .0321898
435.737 .0324534
436.662 .0344226
437.586 .0342920
438.509 .0343111
439.431 .0346561
440.351 .0349589
441.269 .0352290
442.187 .0354330
443.103 .0356310
444.018 .0357929
444.932 .0359111
445.844 .0359843
446.756 .0360190
447.666 .0360165
448.575 .0359685
449.482 .0359032
450.388 .0358268
451.294 .0357413
452.198 .0356487
453.100 .0355446
454.002 .0354435
454.902 .0353364
455.801 .0352313
456.699 .0351298
457.596 .0350360
458.492 .0349568
459.387 .0348809
460.280 .0348140
461.172 .0347420
462.064 .0346728
462.954 .0346009
463.843 .0345204
464.730 .0344384
465.617 .0343576
466.503 .0342802
467.387 .0342042
468.271 .0341290
469.153 .0340638
470.035 .0340041
470.915 .0339535
471.794 .0339007
472.673 .0338521
473.550 .0338025
474.426 .0337615
475.301 .0337274
476.175 .0337061
477.048 .0337011
477.920 .0337137
478.791 .0337415
479.661 .0337833
480.530 .0338331
481.398 .0338871
482.266 .0339401
483.132 .0339951
483.997 .0340396
484.861 .0340758
485.724 .0341016
486.587 .0341223
487.448 .0341335
488.308 .0341351
489.168 .0341233
490.026 .0341008
490.884 .0340680
491.741 .0340222
492.597 .0339623
493.452 .0338962
494.306 .0338205
495.159 .0337412
496.011 .0336545
496.862 .0335685
497.713 .0334785
498.562 .0333859
499.411 .0332906
500.259 .0331908
501.106 .0330871
501.952 .0329822
502.798 .0328772
503.642 .0327752
504.486 .0326723
505.329 .0325722
506.171 .0324684
507.012 .0323686
507.852 .0322665
508.692 .0321650
509.531 .0320635
510.369 .0319687
511.206 .0318775
512.043 .0317892
512.878 .0317100
513.713 .0316370
514.547 .0315707
515.381 .0315068
516.213 .0314417
517.045 .0313731
517.876 .0312941
518.706 .0312022
519.536 .0310961
520.365 .0309783
521.193 .0308371
522.020 .0306806
522.847 .0305158
523.673 .0303424
524.498 .0301584
525.323 .0299651
526.146 .0297783
526.969 .0295896
527.792 .0294003
528.614 .0292073
529.435 .0290201
530.255 .0288414
531.075 .0286636
531.894 .0284912
532.712 .0283434
533.530 .0282188
534.347 .0281223
535.163 .0280510
535.979 .0280029
536.794 .0279758
537.608 .0279506
538.422 .0279229
539.235 .0278909
540.048 .0278424
540.860 .0277827
541.671 .0277129
542.481 .0276551
543.292 .0276092
544.101 .0275843
544.910 .0276009
545.718 .0276500
546.526 .0277222
547.333 .0278085
548.139 .0279017
548.945 .0279908
549.750 .0280670
550.555 .0281239
551.359 .0281687
552.162 .0282025
552.965 .0282313
553.768 .0282570
554.569 .0282795
555.371 .0283082
556.171 .0283314
556.972 .0283475
557.771 .0283562
558.570 .0283559
559.369 .0283540
560.167 .0283530
560.964 .0283589
561.761 .0283788
562.558 .0284124
563.354 .0284627
564.149 .0285233
564.944 .0285905
565.738 .0286688
566.532 .0287533
567.325 .0288406
568.118 .0289305
568.910 .0290230
569.702 .0291208
570.494 .0292195
571.285 .0293218
572.075 .0294246
572.865 .0295231
573.654 .0296146
574.443 .0296931
575.232 .0297617
576.020 .0298241
576.807 .0298828
577.594 .0299401
578.381 .0299995
579.167 .0300593
579.952 .0301201
580.738 .0301846
581.522 .0302497
582.307 .0303121
583.091 .0303710
583.874 .0304247
584.657 .0304702
585.440 .0305099
586.222 .0305446
587.004 .0305740
587.785 .0306010
588.566 .0306229
589.346 .0306416
590.126 .0306573
590.906 .0306715
591.685 .0306826
592.464 .0306896
593.242 .0306928
594.020 .0306910
594.797 .0306863
595.575 .0306788
596.351 .0306711
597.128 .0306638
597.904 .0306573
598.679 .0306520
599.454 .0306475
600.229 .0306450
601.004 .0306437
601.778 .0306438
602.551 .0306428
603.325 .0306404
604.097 .0306348
604.870 .0306257
605.642 .0306157
606.414 .0306037
607.185 .0305906
607.956 .0305771
608.727 .0305636
609.497 .0305482
610.267 .0305305
611.037 .0305110
611.806 .0304881
612.575 .0304618
613.344 .0304325
614.112 .0304007
614.880 .0303679
615.647 .0303359
616.414 .0303051
617.181 .0302778
617.948 .0302537
618.714 .0302310
619.480 .0302098
620.245 .0301902
621.011 .0301716
621.775 .0301527
622.540 .0301348
623.304 .0301195
624.068 .0301059
624.832 .0300946
625.595 .0300846
626.358 .0300768
627.120 .0300693
627.883 .0300598
628.645 .0300475
629.406 .0300327
630.168 .0300137
630.929 .0299914
631.689 .0299660
632.450 .0299400
633.210 .0299137
633.970 .0298874
634.729 .0298622
635.489 .0298378
636.248 .0298132
637.006 .0297881
637.765 .0297627
638.523 .0297373
639.280 .0297108
640.038 .0296841
640.795 .0296590
641.552 .0296363
642.309 .0296167
643.065 .0296004
643.821 .0295880
644.577 .0295788
645.332 .0295703
646.088 .0295607
646.843 .0295504
647.597 .0295375
648.352 .0295228
649.106 .0295060
649.860 .0294879
650.613 .0294699
651.367 .0294530
652.120 .0294366
652.872 .0294218
653.625 .0294064
654.377 .0293905
655.129 .0293719
655.881 .0293518
656.632 .0293296
657.384 .0293065
658.135 .0292845
658.885 .0292642
659.636 .0292455
660.386 .0292298
661.136 .0292159
661.885 .0292041
662.635 .0291930
663.384 .0291820
664.133 .0291704
664.881 .0291579
665.630 .0291444
666.378 .0291310
667.126 .0291167
667.874 .0291023
668.621 .0290875
669.368 .0290721
670.115 .0290564
670.862 .0290394
671.608 .0290216
672.354 .0290032
673.100 .0289842
673.846 .0289649
674.591 .0289448
675.337 .0289260
676.082 .0289077
676.826 .0288901
677.571 .0288740
678.315 .0288595
679.059 .0288469
679.803 .0288368
680.547 .0288284
681.290 .0288217
682.033 .0288156
682.776 .0288101
683.518 .0288039
684.261 .0287965
685.003 .0287875
685.745 .0287767
686.487 .0287644
687.228 .0287508
687.969 .0287353
688.710 .0287183
689.451 .0286998
690.192 .0286797
690.932 .0286575
691.672 .0286349
692.412 .0286120
693.152 .0285896
693.891 .0285682
694.630 .0285478
695.369 .0285280
696.108 .0285087
696.846 .0284896
697.585 .0284701
698.323 .0284502
699.061 .0284302
699.798 .0284105
700.536 .0283917
701.273 .0283734
702.010 .0283563
702.746 .0283400
703.483 .0283243
704.219 .0283063
704.955 .0282868
705.691 .0282650
706.427 .0282411
707.162 .0282150
707.897 .0281882
708.632 .0281625
709.367 .0281383
710.101 .0281156
710.835 .0280952
711.569 .0280758
712.303 .0280576
713.037 .0280389
713.770 .0280200
714.503 .0280002
715.236 .0279803
715.969 .0279604
716.702 .0279412
717.434 .0279233
718.166 .0279068
718.898 .0278909
719.629 .0278769
720.361 .0278633
721.092 .0278489
721.823 .0278336
722.554 .0278174
723.284 .0277998
724.014 .0277804
724.744 .0277590
725.474 .0277361
726.204 .0277122
726.933 .0276877
727.662 .0276622
728.391 .0276368
729.120 .0276119
729.849 .0275874
730.577 .0275631
731.305 .0275394
732.033 .0275160
732.760 .0274929
733.488 .0274702
734.215 .0274481
734.942 .0274267
735.669 .0274060
736.395 .0273869
737.122 .0273694
737.848 .0273536
738.573 .0273386
739.299 .0273250
740.024 .0273118
740.750 .0272986
741.474 .0272845
742.199 .0272694
742.924 .0272538
743.648 .0272380
744.372 .0272212
745.096 .0272049
745.819 .0271891
746.543 .0271743
747.266 .0271602
747.989 .0271476
748.711 .0271361
749.434 .0271260
750.156 .0271170
750.878 .0271095
751.599 .0271030
752.321 .0270982
753.042 .0270950
753.763 .0270938
754.484 .0270944
755.205 .0270961
755.925 .0270987
756.645 .0271011
757.365 .0271026
758.085 .0271022
758.804 .0270995
759.523 .0270944
760.242 .0270860
760.961 .0270750
761.679 .0270618
762.397 .0270468
763.115 .0270309
763.833 .0270142
764.551 .0269972
765.268 .0269790
765.985 .0269600
766.702 .0269395
767.418 .0269180
768.134 .0268958
768.850 .0268732
769.566 .0268509
770.282 .0268298
770.997 .0268103
771.712 .0267929
772.427 .0267778
773.142 .0267645
773.856 .0267520
774.570 .0267403
775.284 .0267286
775.998 .0267169
776.711 .0267051
777.424 .0266937
778.137 .0266824
778.849 .0266717
779.562 .0266611
780.274 .0266507
780.986 .0266405
781.697 .0266308
782.409 .0266219
783.120 .0266137
783.831 .0266065
784.541 .0266009
785.252 .0265967
785.962 .0265935
786.671 .0265902
787.381 .0265868
788.090 .0265824
788.799 .0265769
789.508 .0265693
790.217 .0265597
790.925 .0265494
791.633 .0265382
792.341 .0265262
793.048 .0265143
793.755 .0265020
794.462 .0264887
795.169 .0264745
795.875 .0264589
796.581 .0264422
797.287 .0264248
797.993 .0264073
798.698 .0263906
799.403 .0263752
800.108 .0263614
800.812 .0263488
801.517 .0263385
802.221 .0263302
802.924 .0263227
803.628 .0263170
804.331 .0263127
805.034 .0263096
805.736 .0263075
806.439 .0263056
807.141 .0263037
807.843 .0263007
808.544 .0262958
809.245 .0262887
809.946 .0262793
810.647 .0262683
811.347 .0262558
812.047 .0262430
812.747 .0262312
813.447 .0262209
814.146 .0262120
814.845 .0262046
815.543 .0261980
816.242 .0261915
816.940 .0261838
817.638 .0261750
818.335 .0261653
819.032 .0261547
819.729 .0261445
820.426 .0261352
821.122 .0261277
821.818 .0261223
822.514 .0261180
823.209 .0261148
823.905 .0261109
824.599 .0261048
825.294 .0260956
825.988 .0260829
826.682 .0260675
827.376 .0260494
828.069 .0260300
828.762 .0260100
829.455 .0259903
830.147 .0259716
830.840 .0259542
831.531 .0259375
832.223 .0259220
832.914 .0259063
833.605 .0258902
834.296 .0258730
834.986 .0258550
835.676 .0258369
836.366 .0258194
837.055 .0258030
837.744 .0257878
838.433 .0257736
839.121 .0257611
839.809 .0257496
840.497 .0257394
841.185 .0257296
841.872 .0257200
842.559 .0257103
843.245 .0257007
843.932 .0256910
844.617 .0256819
845.303 .0256741
845.988 .0256681
846.673 .0256634
847.358 .0256600
848.042 .0256576
848.726 .0256559
849.410 .0256545
850.093 .0256528
850.776 .0256500
851.459 .0256462
852.141 .0256405
852.823 .0256335
853.505 .0256261
854.186 .0256175
854.867 .0256084
855.548 .0255981
856.228 .0255867
856.908 .0255737
857.588 .0255593
858.267 .0255443
858.946 .0255289
859.625 .0255135
860.303 .0254989
860.981 .0254849
861.659 .0254731
862.336 .0254622
863.013 .0254522
863.690 .0254429
864.366 .0254332
865.042 .0254227
865.718 .0254122
866.393 .0254020
867.068 .0253927
867.743 .0253847
868.417 .0253780
869.091 .0253727
869.765 .0253678
870.438 .0253629
871.111 .0253575
871.783 .0253506
872.456 .0253426
873.127 .0253324
873.799 .0253206
874.470 .0253078
875.141 .0252945
875.811 .0252823
876.481 .0252706
877.151 .0252606
877.820 .0252517
878.489 .0252433
879.158 .0252359
879.826 .0252279
880.494 .0252195
881.162 .0252107
881.829 .0252013
882.496 .0251916
883.163 .0251826
883.829 .0251746
884.495 .0251678
885.160 .0251634
885.825 .0251605
886.490 .0251590
887.154 .0251581
887.818 .0251571
888.482 .0251554
889.145 .0251522
889.808 .0251476
890.471 .0251405
891.133 .0251328
891.795 .0251236
892.456 .0251134
893.117 .0251037
893.778 .0250943
894.439 .0250850
895.099 .0250760
895.758 .0250669
896.417 .0250580
897.076 .0250494
897.735 .0250410
898.393 .0250333
899.051 .0250267
899.708 .0250203
900.365 .0250146
901.022 .0250091
901.678 .0250042
902.334 .0249988
902.990 .0249933
903.645 .0249876
904.300 .0249818
904.954 .0249759
905.608 .0249695
906.262 .0249631
906.915 .0249570
907.568 .0249496
908.221 .0249415
908.873 .0249329
909.525 .0249238
910.176 .0249145
910.828 .0249054
911.478 .0248973
912.129 .0248909
912.778 .0248857
913.428 .0248819
914.077 .0248795
914.726 .0248778
915.375 .0248758
916.023 .0248731
916.670 .0248690
917.318 .0248639
917.964 .0248572
918.611 .0248493
919.257 .0248406
919.903 .0248311
920.548 .0248200
921.193 .0248079
921.838 .0247945
922.482 .0247796
923.126 .0247630
923.770 .0247457
924.413 .0247276
925.056 .0247097
925.698 .0246923
926.340 .0246757
926.982 .0246598
927.623 .0246453
928.264 .0246308
928.904 .0246171
929.544 .0246041
930.184 .0245915
930.823 .0245793
931.462 .0245683
932.101 .0245580
932.739 .0245492
933.377 .0245407
934.014 .0245327
934.651 .0245242
935.288 .0245158
935.924 .0245074
936.560 .0244993
937.196 .0244916
937.831 .0244846
938.466 .0244775
939.100 .0244707
939.734 .0244628
940.368 .0244540
941.001 .0244439
941.634 .0244328
942.266 .0244198
942.899 .0244061
943.530 .0243915
944.162 .0243771
944.793 .0243632
945.423 .0243497
946.053 .0243354
946.683 .0243204
947.313 .0243039
947.942 .0242851
948.571 .0242635
949.199 .0242403
949.827 .0242155
950.455 .0241903
951.082 .0241657
951.709 .0241423
952.335 .0241210
952.961 .0241025
953.587 .0240857
954.212 .0240704
954.837 .0240555
955.462 .0240402
956.086 .0240243
956.710 .0240079
957.334 .0239910
957.957 .0239736
958.579 .0239572
959.202 .0239425
959.824 .0239291
960.445 .0239177
961.067 .0239078
961.688 .0238995
962.308 .0238921
962.928 .0238842
963.548 .0238753
964.168 .0238659
964.787 .0238553
965.406 .0238444
966.024 .0238338
966.642 .0238243
967.260 .0238157
967.877 .0238085
968.494 .0238021
969.110 .0237956
969.727 .0237889
970.342 .0237813
970.958 .0237716
971.573 .0237611
972.188 .0237488
972.802 .0237353
973.416 .0237210
974.030 .0237062
974.643 .0236905
975.256 .0236744
975.869 .0236578
976.481 .0236404
977.093 .0236231
977.705 .0236071
978.316 .0235918
978.927 .0235779
979.538 .0235657
980.148 .0235551
980.758 .0235456
981.367 .0235376
981.977 .0235303
982.586 .0235238
983.194 .0235183
983.802 .0235141
984.410 .0235102
985.018 .0235070
985.625 .0235037
986.232 .0235002
986.838 .0234960
987.445 .0234909
988.050 .0234847
988.656 .0234780
989.261 .0234718
989.866 .0234658
990.471 .0234596
991.075 .0234545
991.679 .0234498
992.282 .0234457
992.886 .0234415
993.489 .0234371
994.091 .0234327
994.694 .0234287
995.296 .0234248
995.897 .0234213
996.499 .0234182
997.100 .0234157
997.701 .0234134
998.301 .0234109
998.901 .0234080
999.501 .0234041
1000.101 .0233998
1000.700 .0233948
1001.299 .0233892
1001.898 .0233839
1002.496 .0233787
1003.094 .0233746
1003.692 .0233721
1004.289 .0233705
1004.887 .0233705
1005.484 .0233713
1006.080 .0233728
1006.677 .0233745
1007.273 .0233761
1007.868 .0233765
1008.464 .0233771
1009.059 .0233774
1009.654 .0233777
1010.249 .0233778
1010.843 .0233784
1011.437 .0233791
1012.031 .0233791
1012.625 .0233778
1013.218 .0233739
1013.811 .0233672
1014.404 .0233588
1014.997 .0233486
1015.589 .0233383
1016.181 .0233291
1016.773 .0233224
1017.365 .0233191
1017.956 .0233189
1018.547 .0233218
1019.138 .0233265
1019.728 .0233324
1020.319 .0233388
1020.909 .0233448
1021.499 .0233503
1022.088 .0233565
1022.678 .0233628
1023.267 .0233703
1023.856 .0233793
1024.445 .0233895
1025.033 .0233998
1025.621 .0234104
1026.209 .0234197
1026.797 .0234266
1027.385 .0234307
1027.972 .0234329
1028.560 .0234321
1029.147 .0234296
1029.734 .0234261
1030.320 .0234222
1030.907 .0234193
1031.493 .0234174
1032.079 .0234155
1032.665 .0234149
1033.250 .0234144
1033.836 .0234127
1034.421 .0234094
1035.006 .0234062
1035.591 .0234025
1036.176 .0233985
1036.761 .0233955
1037.345 .0233930
1037.929 .0233917
1038.514 .0233917
1039.097 .0233921
1039.681 .0233923
1040.265 .0233913
1040.848 .0233881
1041.432 .0233833
1042.015 .0233768
1042.598 .0233694
1043.181 .0233621
1043.764 .0233568
1044.346 .0233543
1044.929 .0233534
1045.511 .0233542
1046.094 .0233568
1046.676 .0233597
1047.258 .0233624
1047.840 .0233628
1048.422 .0233617
1049.003 .0233595
1049.585 .0233569
1050.166 .0233561
1050.748 .0233567
1051.329 .0233595
1051.910 .0233641
1052.491 .0233688
1053.072 .0233738
1053.653 .0233772
1054.234 .0233778
1054.815 .0233749
1055.396 .0233692
1055.976 .0233620
1056.557 .0233528
1057.138 .0233450
1057.718 .0233388
1058.298 .0233337
1058.879 .0233301
1059.459 .0233259
1060.039 .0233196
1060.620 .0233115
1061.200 .0233012
1061.780 .0232879
1062.360 .0232735
1062.940 .0232597
1063.520 .0232455
1064.101 .0232334
1064.681 .0232241
1065.261 .0232146
1065.841 .0232045
1066.421 .0231950
1067.001 .0231842
1067.581 .0231725
1068.161 .0231621
1068.741 .0231530
1069.321 .0231464
1069.901 .0231435
1070.482 .0231425
1071.062 .0231403
1071.642 .0231386
1072.222 .0231354
1072.803 .0231287
1073.383 .0231208
1073.963 .0231118
1074.544 .0231029
1075.124 .0230972
1075.705 .0230944
1076.286 .0230938
1076.866 .0230940
1077.447 .0230948
1078.028 .0230935
1078.609 .0230890
1079.190 .0230820
1079.771 .0230730
1080.352 .0230643
1080.934 .0230579
1081.515 .0230543
1082.097 .0230547
1082.679 .0230593
1083.260 .0230671
1083.842 .0230762
1084.424 .0230861
1085.007 .0230952
1085.589 .0231020
1086.172 .0231061
1086.754 .0231062
1087.337 .0231021
1087.920 .0230946
1088.503 .0230860
1089.087 .0230767
1089.670 .0230679
1090.254 .0230637
1090.838 .0230630
1091.422 .0230685
1092.006 .0230775
1092.590 .0230892
1093.175 .0231016
1093.760 .0231121
1094.345 .0231177
1094.930 .0231162
1095.516 .0231107
1096.102 .0231006
1096.688 .0230882
1097.274 .0230761
1097.860 .0230637
1098.447 .0230524
1099.034 .0230410
1099.622 .0230317
1100.209 .0230193
1100.797 .0230050
1101.385 .0229869
1101.973 .0229674
1102.562 .0229465
1103.151 .0229236
1103.740 .0229038
1104.330 .0228905
1104.920 .0228849
1105.510 .0228853
1106.101 .0228922
1106.691 .0229080
1107.283 .0229318
1107.874 .0229622
1108.466 .0229983
1109.058 .0230385
1109.651 .0230820
1110.244 .0231259
1110.837 .0231688
1111.431 .0232072
1112.025 .0232376
1112.620 .0232607
1113.215 .0232769
1113.810 .0232851
1114.406 .0232897
1115.002 .0232926
1115.599 .0233008
1116.196 .0233143
1116.793 .0233315
1117.391 .0233525
1117.989 .0233754
1118.588 .0233943
1119.187 .0234063
1119.787 .0234065
1120.387 .0233969
1120.988 .0233789
1121.589 .0233575
1122.190 .0233367
1122.793 .0233186
1123.395 .0233071
1123.998 .0232998
1124.602 .0232935
1125.206 .0232871
1125.811 .0232767
1126.416 .0232630
1127.022 .0232434
1127.628 .0232216
1128.235 .0231997
1128.843 .0231848
1129.451 .0231788
1130.059 .0231831
1130.669 .0231962
1131.278 .0232194
1131.889 .0232487
1132.500 .0232835
1133.112 .0233280
1133.724 .0233818
1134.337 .0234435
1134.950 .0235136
1135.564 .0235869
1136.179 .0236649
1136.795 .0237420
1137.411 .0238196
1138.028 .0238910
1138.645 .0239547
1139.263 .0240169
1139.882 .0240784
1140.502 .0241417
1141.122 .0241969
1141.743 .0242466
1142.365 .0242755
1142.987 .0244827
1143.611 .0245412
1144.235 .0242673
1144.859 .0242677
1145.485 .0239187
