Measurement Sequence started on: 10-20-44-796
Integration time: 35
Scans to Average: 2 
>>>>>Begin Spectral Data<<<<<
432.953 .0330240
433.882 .0361563
434.810 .0368317
435.737 .0367836
436.662 .0338735
437.586 .0340254
438.509 .0336083
439.431 .0331277
440.351 .0326897
441.269 .0323302
442.187 .0321000
443.103 .0319065
444.018 .0317598
444.932 .0316750
445.844 .0316357
446.756 .0316257
447.666 .0316390
448.575 .0316670
449.482 .0316897
450.388 .0317121
451.294 .0317099
452.198 .0316830
453.100 .0316565
454.002 .0316316
454.902 .0316111
455.801 .0316103
456.699 .0316294
457.596 .0316660
458.492 .0316979
459.387 .0317230
460.280 .0317308
461.172 .0317177
462.064 .0316841
462.954 .0316214
463.843 .0315428
464.730 .0314624
465.617 .0313794
466.503 .0313117
467.387 .0312639
468.271 .0312339
469.153 .0312233
470.035 .0312292
470.915 .0312439
471.794 .0312539
472.673 .0312541
473.550 .0312455
474.426 .0312272
475.301 .0312041
476.175 .0311792
477.048 .0311572
477.920 .0311473
478.791 .0311463
479.661 .0311528
480.530 .0311670
481.398 .0311813
482.266 .0311911
483.132 .0311931
483.997 .0311821
484.861 .0311582
485.724 .0311239
486.587 .0310874
487.448 .0310494
488.308 .0310155
489.168 .0309861
490.026 .0309583
490.884 .0309339
491.741 .0309102
492.597 .0308854
493.452 .0308617
494.306 .0308327
495.159 .0307971
496.011 .0307533
496.862 .0307033
497.713 .0306419
498.562 .0305695
499.411 .0304894
500.259 .0304048
501.106 .0303132
501.952 .0302199
502.798 .0301254
503.642 .0300379
504.486 .0299571
505.329 .0298832
506.171 .0298126
507.012 .0297440
507.852 .0296734
508.692 .0296037
509.531 .0295305
510.369 .0294544
511.206 .0293687
512.043 .0292774
512.878 .0291742
513.713 .0290622
514.547 .0289359
515.381 .0287998
516.213 .0286533
517.045 .0284962
517.876 .0283216
518.706 .0281297
519.536 .0279232
520.365 .0277092
521.193 .0274862
522.020 .0272594
522.847 .0270278
523.673 .0267986
524.498 .0265758
525.323 .0263633
526.146 .0261569
526.969 .0259757
527.792 .0258135
528.614 .0256614
529.435 .0255199
530.255 .0253877
531.075 .0252603
531.894 .0251353
532.712 .0250154
533.530 .0248985
534.347 .0247875
535.163 .0246916
535.979 .0246052
536.794 .0245363
537.608 .0244944
538.422 .0244702
539.235 .0244656
540.048 .0244841
540.860 .0245187
541.671 .0245742
542.481 .0246479
543.292 .0247364
544.101 .0248335
544.910 .0249390
545.718 .0250454
546.526 .0251492
547.333 .0252502
548.139 .0253450
548.945 .0254326
549.750 .0255157
550.555 .0255929
551.359 .0256664
552.162 .0257379
552.965 .0258126
553.768 .0258863
554.569 .0259635
555.371 .0260309
556.171 .0260940
556.972 .0261559
557.771 .0262116
558.570 .0262563
559.369 .0262946
560.167 .0263313
560.964 .0263643
561.761 .0263927
562.558 .0264145
563.354 .0264369
564.149 .0264599
564.944 .0264851
565.738 .0265150
566.532 .0265519
567.325 .0266017
568.118 .0266597
568.910 .0267272
569.702 .0268045
570.494 .0268874
571.285 .0269794
572.075 .0270776
572.865 .0271810
573.654 .0272849
574.443 .0273883
575.232 .0274926
576.020 .0275948
576.807 .0276913
577.594 .0277840
578.381 .0278720
579.167 .0279566
579.952 .0280381
580.738 .0281138
581.522 .0281855
582.307 .0282512
583.091 .0283130
583.874 .0283683
584.657 .0284150
585.440 .0284569
586.222 .0284943
587.004 .0285281
587.785 .0285594
588.566 .0285871
589.346 .0286136
590.126 .0286387
590.906 .0286625
591.685 .0286825
592.464 .0287010
593.242 .0287168
594.020 .0287303
594.797 .0287430
595.575 .0287548
596.351 .0287642
597.128 .0287714
597.904 .0287779
598.679 .0287826
599.454 .0287847
600.229 .0287856
601.004 .0287857
601.778 .0287866
602.551 .0287882
603.325 .0287901
604.097 .0287915
604.870 .0287918
605.642 .0287879
606.414 .0287801
607.185 .0287674
607.956 .0287506
608.727 .0287308
609.497 .0287094
610.267 .0286886
611.037 .0286686
611.806 .0286507
612.575 .0286354
613.344 .0286227
614.112 .0286110
614.880 .0285986
615.647 .0285860
616.414 .0285718
617.181 .0285562
617.948 .0285400
618.714 .0285242
619.480 .0285089
620.245 .0284946
621.011 .0284808
621.775 .0284679
622.540 .0284563
623.304 .0284442
624.068 .0284317
624.832 .0284188
625.595 .0284056
626.358 .0283908
627.120 .0283758
627.883 .0283612
628.645 .0283461
629.406 .0283321
630.168 .0283182
630.929 .0283042
631.689 .0282912
632.450 .0282780
633.210 .0282652
633.970 .0282523
634.729 .0282401
635.489 .0282271
636.248 .0282145
637.006 .0282025
637.765 .0281891
638.523 .0281746
639.280 .0281599
640.038 .0281438
640.795 .0281271
641.552 .0281100
642.309 .0280931
643.065 .0280770
643.821 .0280617
644.577 .0280456
645.332 .0280295
646.088 .0280134
646.843 .0279968
647.597 .0279782
648.352 .0279580
649.106 .0279372
649.860 .0279154
650.613 .0278938
651.367 .0278729
652.120 .0278528
652.872 .0278344
653.625 .0278171
654.377 .0278010
655.129 .0277860
655.881 .0277725
656.632 .0277602
657.384 .0277486
658.135 .0277384
658.885 .0277284
659.636 .0277196
660.386 .0277119
661.136 .0277063
661.885 .0277011
662.635 .0276964
663.384 .0276922
664.133 .0276870
664.881 .0276813
665.630 .0276741
666.378 .0276653
667.126 .0276555
667.874 .0276439
668.621 .0276308
669.368 .0276161
670.115 .0276013
670.862 .0275859
671.608 .0275706
672.354 .0275554
673.100 .0275398
673.846 .0275235
674.591 .0275072
675.337 .0274907
676.082 .0274743
676.826 .0274583
677.571 .0274418
678.315 .0274261
679.059 .0274114
679.803 .0273968
680.547 .0273830
681.290 .0273697
682.033 .0273566
682.776 .0273430
683.518 .0273291
684.261 .0273148
685.003 .0273008
685.745 .0272874
686.487 .0272741
687.228 .0272611
687.969 .0272486
688.710 .0272355
689.451 .0272217
690.192 .0272076
690.932 .0271923
691.672 .0271759
692.412 .0271589
693.152 .0271412
693.891 .0271235
694.630 .0271059
695.369 .0270889
696.108 .0270725
696.846 .0270566
697.585 .0270402
698.323 .0270236
699.061 .0270076
699.798 .0269913
700.536 .0269753
701.273 .0269594
702.010 .0269445
702.746 .0269306
703.483 .0269173
704.219 .0269047
704.955 .0268932
705.691 .0268824
706.427 .0268713
707.162 .0268601
707.897 .0268488
708.632 .0268365
709.367 .0268239
710.101 .0268108
710.835 .0267971
711.569 .0267828
712.303 .0267681
713.037 .0267529
713.770 .0267384
714.503 .0267243
715.236 .0267103
715.969 .0266973
716.702 .0266853
717.434 .0266728
718.166 .0266600
718.898 .0266472
719.629 .0266341
720.361 .0266202
721.092 .0266058
721.823 .0265903
722.554 .0265744
723.284 .0265582
724.014 .0265412
724.744 .0265236
725.474 .0265052
726.204 .0264859
726.933 .0264655
727.662 .0264442
728.391 .0264220
729.120 .0263992
729.849 .0263769
730.577 .0263560
731.305 .0263367
732.033 .0263193
732.760 .0263042
733.488 .0262915
734.215 .0262805
734.942 .0262702
735.669 .0262599
736.395 .0262491
737.122 .0262381
737.848 .0262268
738.573 .0262149
739.299 .0262038
740.024 .0261934
740.750 .0261833
741.474 .0261732
742.199 .0261622
742.924 .0261499
743.648 .0261360
744.372 .0261202
745.096 .0261034
745.819 .0260858
746.543 .0260684
747.266 .0260521
747.989 .0260379
748.711 .0260259
749.434 .0260153
750.156 .0260062
750.878 .0259983
751.599 .0259912
752.321 .0259849
753.042 .0259790
753.763 .0259743
754.484 .0259711
755.205 .0259685
755.925 .0259663
756.645 .0259647
757.365 .0259628
758.085 .0259604
758.804 .0259567
759.523 .0259517
760.242 .0259450
760.961 .0259369
761.679 .0259270
762.397 .0259153
763.115 .0259021
763.833 .0258870
764.551 .0258697
765.268 .0258512
765.985 .0258318
766.702 .0258116
767.418 .0257910
768.134 .0257705
768.850 .0257501
769.566 .0257298
770.282 .0257088
770.997 .0256879
771.712 .0256673
772.427 .0256475
773.142 .0256284
773.856 .0256105
774.570 .0255936
775.284 .0255778
775.998 .0255620
776.711 .0255463
777.424 .0255301
778.137 .0255131
778.849 .0254946
779.562 .0254756
780.274 .0254566
780.986 .0254378
781.697 .0254195
782.409 .0254028
783.120 .0253864
783.831 .0253709
784.541 .0253551
785.252 .0253397
785.962 .0253244
786.671 .0253085
787.381 .0252919
788.090 .0252756
788.799 .0252598
789.508 .0252440
790.217 .0252283
790.925 .0252137
791.633 .0251991
792.341 .0251846
793.048 .0251702
793.755 .0251559
794.462 .0251420
795.169 .0251283
795.875 .0251143
796.581 .0251005
797.287 .0250869
797.993 .0250734
798.698 .0250602
799.403 .0250477
800.108 .0250348
800.812 .0250218
801.517 .0250096
802.221 .0249979
802.924 .0249865
803.628 .0249763
804.331 .0249667
805.034 .0249578
805.736 .0249482
806.439 .0249378
807.141 .0249265
807.843 .0249142
808.544 .0249002
809.245 .0248845
809.946 .0248678
810.647 .0248511
811.347 .0248346
812.047 .0248195
812.747 .0248054
813.447 .0247921
814.146 .0247790
814.845 .0247657
815.543 .0247513
816.242 .0247360
816.940 .0247194
817.638 .0247024
818.335 .0246854
819.032 .0246689
819.729 .0246540
820.426 .0246409
821.122 .0246296
821.818 .0246200
822.514 .0246114
823.209 .0246037
823.905 .0245961
824.599 .0245882
825.294 .0245793
825.988 .0245693
826.682 .0245587
827.376 .0245475
828.069 .0245364
828.762 .0245253
829.455 .0245150
830.147 .0245058
830.840 .0244977
831.531 .0244899
832.223 .0244829
832.914 .0244756
833.605 .0244677
834.296 .0244586
834.986 .0244485
835.676 .0244377
836.366 .0244272
837.055 .0244169
837.744 .0244078
838.433 .0243998
839.121 .0243933
839.809 .0243874
840.497 .0243828
841.185 .0243786
841.872 .0243743
842.559 .0243701
843.245 .0243661
843.932 .0243617
844.617 .0243582
845.303 .0243548
845.988 .0243512
846.673 .0243472
847.358 .0243425
848.042 .0243363
848.726 .0243287
849.410 .0243201
850.093 .0243105
850.776 .0243007
851.459 .0242913
852.141 .0242824
852.823 .0242746
853.505 .0242683
854.186 .0242628
854.867 .0242578
855.548 .0242534
856.228 .0242490
856.908 .0242448
857.588 .0242416
858.267 .0242389
858.946 .0242373
859.625 .0242366
860.303 .0242369
860.981 .0242374
861.659 .0242378
862.336 .0242371
863.013 .0242348
863.690 .0242306
864.366 .0242242
865.042 .0242160
865.718 .0242065
866.393 .0241965
867.068 .0241867
867.743 .0241775
868.417 .0241692
869.091 .0241610
869.765 .0241537
870.438 .0241465
871.111 .0241394
871.783 .0241324
872.456 .0241259
873.127 .0241203
873.799 .0241160
874.470 .0241127
875.141 .0241110
875.811 .0241103
876.481 .0241098
877.151 .0241089
877.820 .0241076
878.489 .0241055
879.158 .0241022
879.826 .0240977
880.494 .0240928
881.162 .0240871
881.829 .0240816
882.496 .0240756
883.163 .0240694
883.829 .0240630
884.495 .0240565
885.160 .0240495
885.825 .0240428
886.490 .0240365
887.154 .0240303
887.818 .0240245
888.482 .0240187
889.145 .0240126
889.808 .0240062
890.471 .0239998
891.133 .0239930
891.795 .0239860
892.456 .0239794
893.117 .0239734
893.778 .0239683
894.439 .0239642
895.099 .0239602
895.758 .0239559
896.417 .0239507
897.076 .0239438
897.735 .0239347
898.393 .0239240
899.051 .0239119
899.708 .0238994
900.365 .0238872
901.022 .0238762
901.678 .0238663
902.334 .0238579
902.990 .0238502
903.645 .0238429
904.300 .0238352
904.954 .0238274
905.608 .0238189
906.262 .0238103
906.915 .0238023
907.568 .0237953
908.221 .0237896
908.873 .0237858
909.525 .0237837
910.176 .0237827
910.828 .0237824
911.478 .0237822
912.129 .0237803
912.778 .0237767
913.428 .0237716
914.077 .0237647
914.726 .0237559
915.375 .0237457
916.023 .0237343
916.670 .0237226
917.318 .0237112
917.964 .0236994
918.611 .0236874
919.257 .0236753
919.903 .0236627
920.548 .0236486
921.193 .0236340
921.838 .0236190
922.482 .0236038
923.126 .0235888
923.770 .0235745
924.413 .0235611
925.056 .0235496
925.698 .0235397
926.340 .0235321
926.982 .0235259
927.623 .0235208
928.264 .0235157
928.904 .0235103
929.544 .0235043
930.184 .0234975
930.823 .0234891
931.462 .0234802
932.101 .0234706
932.739 .0234604
933.377 .0234493
934.014 .0234377
934.651 .0234254
935.288 .0234117
935.924 .0233967
936.560 .0233802
937.196 .0233620
937.831 .0233429
938.466 .0233227
939.100 .0233024
939.734 .0232824
940.368 .0232623
941.001 .0232421
941.634 .0232224
942.266 .0232027
942.899 .0231823
943.530 .0231615
944.162 .0231405
944.793 .0231196
945.423 .0230991
946.053 .0230796
946.683 .0230605
947.313 .0230425
947.942 .0230249
948.571 .0230063
949.199 .0229874
949.827 .0229674
950.455 .0229464
951.082 .0229251
951.709 .0229038
952.335 .0228827
952.961 .0228626
953.587 .0228437
954.212 .0228257
954.837 .0228073
955.462 .0227886
956.086 .0227688
956.710 .0227479
957.334 .0227261
957.957 .0227037
958.579 .0226819
959.202 .0226612
959.824 .0226413
960.445 .0226226
961.067 .0226045
961.688 .0225875
962.308 .0225704
962.928 .0225531
963.548 .0225358
964.168 .0225178
964.787 .0225001
965.406 .0224838
966.024 .0224688
966.642 .0224553
967.260 .0224433
967.877 .0224329
968.494 .0224233
969.110 .0224142
969.727 .0224056
970.342 .0223973
970.958 .0223896
971.573 .0223822
972.188 .0223743
972.802 .0223674
973.416 .0223605
974.030 .0223532
974.643 .0223458
975.256 .0223383
975.869 .0223306
976.481 .0223225
977.093 .0223144
977.705 .0223068
978.316 .0222990
978.927 .0222912
979.538 .0222827
980.148 .0222736
980.758 .0222640
981.367 .0222535
981.977 .0222430
982.586 .0222332
983.194 .0222237
983.802 .0222154
984.410 .0222077
985.018 .0222009
985.625 .0221943
986.232 .0221881
986.838 .0221817
987.445 .0221754
988.050 .0221685
988.656 .0221618
989.261 .0221549
989.866 .0221486
990.471 .0221416
991.075 .0221347
991.679 .0221279
992.282 .0221203
992.886 .0221121
993.489 .0221040
994.091 .0220955
994.694 .0220875
995.296 .0220795
995.897 .0220709
996.499 .0220618
997.100 .0220522
997.701 .0220425
998.301 .0220328
998.901 .0220245
999.501 .0220169
1000.101 .0220100
1000.700 .0220047
1001.299 .0220000
1001.898 .0219952
1002.496 .0219909
1003.094 .0219865
1003.692 .0219821
1004.289 .0219773
1004.887 .0219740
1005.484 .0219719
1006.080 .0219726
1006.677 .0219755
1007.273 .0219800
1007.868 .0219857
1008.464 .0219923
1009.059 .0219981
1009.654 .0220027
1010.249 .0220069
1010.843 .0220105
1011.437 .0220138
1012.031 .0220172
1012.625 .0220212
1013.218 .0220259
1013.811 .0220308
1014.404 .0220359
1014.997 .0220392
1015.589 .0220405
1016.181 .0220396
1016.773 .0220364
1017.365 .0220316
1017.956 .0220259
1018.547 .0220204
1019.138 .0220154
1019.728 .0220116
1020.319 .0220084
1020.909 .0220059
1021.499 .0220035
1022.088 .0220013
1022.678 .0219976
1023.267 .0219932
1023.856 .0219884
1024.445 .0219838
1025.033 .0219803
1025.621 .0219783
1026.209 .0219777
1026.797 .0219785
1027.385 .0219799
1027.972 .0219817
1028.560 .0219829
1029.147 .0219843
1029.734 .0219862
1030.320 .0219899
1030.907 .0219949
1031.493 .0220020
1032.079 .0220119
1032.665 .0220246
1033.250 .0220378
1033.836 .0220516
1034.421 .0220654
1035.006 .0220782
1035.591 .0220911
1036.176 .0221036
1036.761 .0221167
1037.345 .0221309
1037.929 .0221446
1038.514 .0221568
1039.097 .0221672
1039.681 .0221762
1040.265 .0221819
1040.848 .0221850
1041.432 .0221865
1042.015 .0221858
1042.598 .0221851
1043.181 .0221849
1043.764 .0221849
1044.346 .0221866
1044.929 .0221888
1045.511 .0221906
1046.094 .0221926
1046.676 .0221936
1047.258 .0221943
1047.840 .0221956
1048.422 .0221982
1049.003 .0222009
1049.585 .0222049
1050.166 .0222100
1050.748 .0222161
1051.329 .0222231
1051.910 .0222302
1052.491 .0222366
1053.072 .0222444
1053.653 .0222527
1054.234 .0222607
1054.815 .0222699
1055.396 .0222805
1055.976 .0222908
1056.557 .0223027
1057.138 .0223132
1057.718 .0223232
1058.298 .0223345
1058.879 .0223460
1059.459 .0223565
1060.039 .0223673
1060.620 .0223778
1061.200 .0223874
1061.780 .0223962
1062.360 .0224029
1062.940 .0224065
1063.520 .0224085
1064.101 .0224069
1064.681 .0224014
1065.261 .0223938
1065.841 .0223840
1066.421 .0223710
1067.001 .0223589
1067.581 .0223475
1068.161 .0223360
1068.741 .0223282
1069.321 .0223235
1069.901 .0223210
1070.482 .0223219
1071.062 .0223240
1071.642 .0223257
1072.222 .0223277
1072.803 .0223314
1073.383 .0223342
1073.963 .0223396
1074.544 .0223488
1075.124 .0223583
1075.705 .0223701
1076.286 .0223844
1076.866 .0223975
1077.447 .0224088
1078.028 .0224181
1078.609 .0224228
1079.190 .0224229
1079.771 .0224195
1080.352 .0224132
1080.934 .0224041
1081.515 .0223954
1082.097 .0223874
1082.679 .0223793
1083.260 .0223726
1083.842 .0223652
1084.424 .0223566
1085.007 .0223485
1085.589 .0223387
1086.172 .0223265
1086.754 .0223135
1087.337 .0223025
1087.920 .0222926
1088.503 .0222825
1089.087 .0222741
1089.670 .0222673
1090.254 .0222595
1090.838 .0222517
1091.422 .0222424
1092.006 .0222324
1092.590 .0222228
1093.175 .0222141
1093.760 .0222095
1094.345 .0222091
1094.930 .0222139
1095.516 .0222235
1096.102 .0222377
1096.688 .0222548
1097.274 .0222684
1097.860 .0222786
1098.447 .0222880
1099.034 .0222938
1099.622 .0222954
1100.209 .0222959
1100.797 .0222978
1101.385 .0223037
1101.973 .0223132
1102.562 .0223233
1103.151 .0223342
1103.740 .0223440
1104.330 .0223516
1104.920 .0223534
1105.510 .0223519
1106.101 .0223490
1106.691 .0223434
1107.283 .0223403
1107.874 .0223367
1108.466 .0223326
1109.058 .0223309
1109.651 .0223300
1110.244 .0223297
1110.837 .0223262
1111.431 .0223214
1112.025 .0223136
1112.620 .0223024
1113.215 .0222909
1113.810 .0222774
1114.406 .0222644
1115.002 .0222545
1115.599 .0222476
1116.196 .0222426
1116.793 .0222405
1117.391 .0222427
1117.989 .0222474
1118.588 .0222536
1119.187 .0222597
1119.787 .0222634
1120.387 .0222638
1120.988 .0222644
1121.589 .0222622
1122.190 .0222601
1122.793 .0222639
1123.395 .0222697
1123.998 .0222795
1124.602 .0222948
1125.206 .0223147
1125.811 .0223356
1126.416 .0223590
1127.022 .0223850
1127.628 .0224053
1128.235 .0224230
1128.843 .0224435
1129.451 .0224602
1130.059 .0224800
1130.669 .0225048
1131.278 .0225324
1131.889 .0225647
1132.500 .0226033
1133.112 .0226443
1133.724 .0226907
1134.337 .0227419
1134.950 .0227887
1135.564 .0228276
1136.179 .0228624
1136.795 .0228888
1137.411 .0229067
1138.028 .0229237
1138.645 .0229420
1139.263 .0229697
1139.882 .0230065
1140.502 .0230496
1141.122 .0230949
1141.743 .0231492
1142.365 .0232117
1142.987 .0233471
1143.611 .0233284
1144.235 .0231569
1144.859 .0233723
1145.485 .0237093
