Measurement Sequence started on: 10-20-44-796
Integration time: 35
Scans to Average: 2 
>>>>>Begin Spectral Data<<<<<
432.953 .0463963
433.882 .0411098
434.810 .0397166
435.737 .0388101
436.662 .0377336
437.586 .0381446
438.509 .0374636
439.431 .0370655
440.351 .0367758
441.269 .0365787
442.187 .0364719
443.103 .0364012
444.018 .0363936
444.932 .0363974
445.844 .0363958
446.756 .0363852
447.666 .0363679
448.575 .0363302
449.482 .0362785
450.388 .0362439
451.294 .0362159
452.198 .0361887
453.100 .0361575
454.002 .0361174
454.902 .0360616
455.801 .0359903
456.699 .0359073
457.596 .0358090
458.492 .0357111
459.387 .0356141
460.280 .0355308
461.172 .0354591
462.064 .0354079
462.954 .0353760
463.843 .0353602
464.730 .0353583
465.617 .0353585
466.503 .0353608
467.387 .0353634
468.271 .0353622
469.153 .0353628
470.035 .0353631
470.915 .0353675
471.794 .0353730
472.673 .0353840
473.550 .0353960
474.426 .0354099
475.301 .0354196
476.175 .0354223
477.048 .0354145
477.920 .0353957
478.791 .0353679
479.661 .0353321
480.530 .0352967
481.398 .0352599
482.266 .0352274
483.132 .0352036
483.997 .0351806
484.861 .0351613
485.724 .0351421
486.587 .0351230
487.448 .0350981
488.308 .0350666
489.168 .0350285
490.026 .0349856
490.884 .0349442
491.741 .0349015
492.597 .0348560
493.452 .0348111
494.306 .0347647
495.159 .0347133
496.011 .0346566
496.862 .0345955
497.713 .0345264
498.562 .0344542
499.411 .0343760
500.259 .0342905
501.106 .0342015
501.952 .0341107
502.798 .0340183
503.642 .0339245
504.486 .0338314
505.329 .0337377
506.171 .0336462
507.012 .0335600
507.852 .0334738
508.692 .0333886
509.531 .0333072
510.369 .0332252
511.206 .0331419
512.043 .0330539
512.878 .0329567
513.713 .0328509
514.547 .0327389
515.381 .0326153
516.213 .0324818
517.045 .0323430
517.876 .0322004
518.706 .0320502
519.536 .0318937
520.365 .0317270
521.193 .0315511
522.020 .0313676
522.847 .0311695
523.673 .0309570
524.498 .0307347
525.323 .0305000
526.146 .0302660
526.969 .0300415
527.792 .0298258
528.614 .0296236
529.435 .0294388
530.255 .0292706
531.075 .0291120
531.894 .0289709
532.712 .0288405
533.530 .0287156
534.347 .0286024
535.163 .0284949
535.979 .0284048
536.794 .0283446
537.608 .0283107
538.422 .0283053
539.235 .0283244
540.048 .0283608
540.860 .0284032
541.671 .0284521
542.481 .0285075
543.292 .0285594
544.101 .0286123
544.910 .0286672
545.718 .0287209
546.526 .0287798
547.333 .0288403
548.139 .0289036
548.945 .0289659
549.750 .0290199
550.555 .0290666
551.359 .0291015
552.162 .0291362
552.965 .0291707
553.768 .0292078
554.569 .0292538
555.371 .0293017
556.171 .0293492
556.972 .0294001
557.771 .0294543
558.570 .0295089
559.369 .0295622
560.167 .0296170
560.964 .0296716
561.761 .0297249
562.558 .0297816
563.354 .0298429
564.149 .0299034
564.944 .0299634
565.738 .0300131
566.532 .0300566
567.325 .0300958
568.118 .0301316
568.910 .0301689
569.702 .0302105
570.494 .0302619
571.285 .0303178
572.075 .0303800
572.865 .0304486
573.654 .0305200
574.443 .0305933
575.232 .0306676
576.020 .0307414
576.807 .0308148
577.594 .0308912
578.381 .0309693
579.167 .0310518
579.952 .0311390
580.738 .0312261
581.522 .0313119
582.307 .0313948
583.091 .0314736
583.874 .0315458
584.657 .0316117
585.440 .0316697
586.222 .0317183
587.004 .0317599
587.785 .0317949
588.566 .0318235
589.346 .0318465
590.126 .0318657
590.906 .0318800
591.685 .0318907
592.464 .0318970
593.242 .0319000
594.020 .0319014
594.797 .0319019
595.575 .0319020
596.351 .0319021
597.128 .0319025
597.904 .0319037
598.679 .0319050
599.454 .0319059
600.229 .0319063
601.004 .0319058
601.778 .0319038
602.551 .0319010
603.325 .0318967
604.097 .0318917
604.870 .0318857
605.642 .0318796
606.414 .0318718
607.185 .0318624
607.956 .0318510
608.727 .0318377
609.497 .0318225
610.267 .0318058
611.037 .0317869
611.806 .0317669
612.575 .0317461
613.344 .0317243
614.112 .0317021
614.880 .0316801
615.647 .0316582
616.414 .0316367
617.181 .0316154
617.948 .0315954
618.714 .0315761
619.480 .0315580
620.245 .0315408
621.011 .0315239
621.775 .0315073
622.540 .0314907
623.304 .0314737
624.068 .0314569
624.832 .0314402
625.595 .0314235
626.358 .0314068
627.120 .0313896
627.883 .0313721
628.645 .0313534
629.406 .0313340
630.168 .0313135
630.929 .0312916
631.689 .0312696
632.450 .0312471
633.210 .0312240
633.970 .0312015
634.729 .0311786
635.489 .0311550
636.248 .0311303
637.006 .0311048
637.765 .0310780
638.523 .0310510
639.280 .0310241
640.038 .0309980
640.795 .0309740
641.552 .0309526
642.309 .0309327
643.065 .0309147
643.821 .0308975
644.577 .0308795
645.332 .0308604
646.088 .0308401
646.843 .0308175
647.597 .0307935
648.352 .0307687
649.106 .0307442
649.860 .0307203
650.613 .0306974
651.367 .0306755
652.120 .0306546
652.872 .0306336
653.625 .0306118
654.377 .0305889
655.129 .0305659
655.881 .0305425
656.632 .0305194
657.384 .0304970
658.135 .0304765
658.885 .0304582
659.636 .0304418
660.386 .0304276
661.136 .0304147
661.885 .0304027
662.635 .0303917
663.384 .0303814
664.133 .0303723
664.881 .0303641
665.630 .0303578
666.378 .0303521
667.126 .0303470
667.874 .0303414
668.621 .0303346
669.368 .0303265
670.115 .0303168
670.862 .0303049
671.608 .0302916
672.354 .0302775
673.100 .0302633
673.846 .0302498
674.591 .0302371
675.337 .0302247
676.082 .0302129
676.826 .0302009
677.571 .0301884
678.315 .0301748
679.059 .0301611
679.803 .0301468
680.547 .0301326
681.290 .0301188
682.033 .0301050
682.776 .0300919
683.518 .0300797
684.261 .0300677
685.003 .0300564
685.745 .0300453
686.487 .0300351
687.228 .0300250
687.969 .0300155
688.710 .0300055
689.451 .0299946
690.192 .0299824
690.932 .0299684
691.672 .0299521
692.412 .0299341
693.152 .0299144
693.891 .0298942
694.630 .0298742
695.369 .0298549
696.108 .0298359
696.846 .0298172
697.585 .0297984
698.323 .0297790
699.061 .0297588
699.798 .0297382
700.536 .0297174
701.273 .0296967
702.010 .0296769
702.746 .0296583
703.483 .0296411
704.219 .0296255
704.955 .0296107
705.691 .0295961
706.427 .0295813
707.162 .0295657
707.897 .0295491
708.632 .0295321
709.367 .0295146
710.101 .0294971
710.835 .0294797
711.569 .0294622
712.303 .0294442
713.037 .0294253
713.770 .0294058
714.503 .0293850
715.236 .0293630
715.969 .0293403
716.702 .0293172
717.434 .0292947
718.166 .0292727
718.898 .0292515
719.629 .0292308
720.361 .0292108
721.092 .0291902
721.823 .0291693
722.554 .0291476
723.284 .0291250
724.014 .0291014
724.744 .0290767
725.474 .0290510
726.204 .0290247
726.933 .0289984
727.662 .0289719
728.391 .0289451
729.120 .0289184
729.849 .0288917
730.577 .0288657
731.305 .0288399
732.033 .0288148
732.760 .0287899
733.488 .0287658
734.215 .0287420
734.942 .0287180
735.669 .0286940
736.395 .0286699
737.122 .0286457
737.848 .0286214
738.573 .0285972
739.299 .0285736
740.024 .0285509
740.750 .0285292
741.474 .0285082
742.199 .0284876
742.924 .0284671
743.648 .0284467
744.372 .0284258
745.096 .0284050
745.819 .0283842
746.543 .0283639
747.266 .0283449
747.989 .0283276
748.711 .0283120
749.434 .0282984
750.156 .0282866
750.878 .0282762
751.599 .0282663
752.321 .0282570
753.042 .0282477
753.763 .0282386
754.484 .0282295
755.205 .0282202
755.925 .0282113
756.645 .0282031
757.365 .0281952
758.085 .0281882
758.804 .0281813
759.523 .0281740
760.242 .0281660
760.961 .0281567
761.679 .0281456
762.397 .0281327
763.115 .0281178
763.833 .0281015
764.551 .0280833
765.268 .0280640
765.985 .0280437
766.702 .0280230
767.418 .0280022
768.134 .0279810
768.850 .0279597
769.566 .0279386
770.282 .0279173
770.997 .0278964
771.712 .0278757
772.427 .0278559
773.142 .0278367
773.856 .0278186
774.570 .0278020
775.284 .0277869
775.998 .0277733
776.711 .0277618
777.424 .0277520
778.137 .0277439
778.849 .0277369
779.562 .0277308
780.274 .0277256
780.986 .0277205
781.697 .0277149
782.409 .0277088
783.120 .0277023
783.831 .0276957
784.541 .0276890
785.252 .0276833
785.962 .0276788
786.671 .0276754
787.381 .0276729
788.090 .0276707
788.799 .0276683
789.508 .0276650
790.217 .0276602
790.925 .0276541
791.633 .0276469
792.341 .0276385
793.048 .0276300
793.755 .0276217
794.462 .0276141
795.169 .0276069
795.875 .0276006
796.581 .0275941
797.287 .0275872
797.993 .0275795
798.698 .0275704
799.403 .0275598
800.108 .0275482
800.812 .0275350
801.517 .0275211
802.221 .0275067
802.924 .0274923
803.628 .0274782
804.331 .0274653
805.034 .0274535
805.736 .0274425
806.439 .0274323
807.141 .0274229
807.843 .0274138
808.544 .0274051
809.245 .0273965
809.946 .0273875
810.647 .0273786
811.347 .0273699
812.047 .0273619
812.747 .0273547
813.447 .0273492
814.146 .0273450
814.845 .0273417
815.543 .0273390
816.242 .0273362
816.940 .0273323
817.638 .0273276
818.335 .0273212
819.032 .0273131
819.729 .0273029
820.426 .0272911
821.122 .0272773
821.818 .0272619
822.514 .0272449
823.209 .0272268
823.905 .0272074
824.599 .0271874
825.294 .0271664
825.988 .0271451
826.682 .0271238
827.376 .0271028
828.069 .0270819
828.762 .0270615
829.455 .0270416
830.147 .0270220
830.840 .0270031
831.531 .0269849
832.223 .0269678
832.914 .0269518
833.605 .0269366
834.296 .0269229
834.986 .0269104
835.676 .0268986
836.366 .0268877
837.055 .0268768
837.744 .0268657
838.433 .0268540
839.121 .0268413
839.809 .0268275
840.497 .0268128
841.185 .0267976
841.872 .0267821
842.559 .0267665
843.245 .0267514
843.932 .0267365
844.617 .0267225
845.303 .0267093
845.988 .0266966
846.673 .0266844
847.358 .0266724
848.042 .0266608
848.726 .0266494
849.410 .0266382
850.093 .0266272
850.776 .0266167
851.459 .0266067
852.141 .0265966
852.823 .0265861
853.505 .0265748
854.186 .0265627
854.867 .0265492
855.548 .0265343
856.228 .0265183
856.908 .0265016
857.588 .0264847
858.267 .0264679
858.946 .0264515
859.625 .0264353
860.303 .0264196
860.981 .0264043
861.659 .0263883
862.336 .0263712
863.013 .0263532
863.690 .0263341
864.366 .0263138
865.042 .0262927
865.718 .0262713
866.393 .0262501
867.068 .0262295
867.743 .0262095
868.417 .0261900
869.091 .0261707
869.765 .0261513
870.438 .0261311
871.111 .0261103
871.783 .0260892
872.456 .0260675
873.127 .0260460
873.799 .0260260
874.470 .0260070
875.141 .0259895
875.811 .0259733
876.481 .0259586
877.151 .0259449
877.820 .0259318
878.489 .0259190
879.158 .0259063
879.826 .0258933
880.494 .0258799
881.162 .0258657
881.829 .0258513
882.496 .0258359
883.163 .0258201
883.829 .0258042
884.495 .0257880
885.160 .0257715
885.825 .0257555
886.490 .0257403
887.154 .0257262
887.818 .0257128
888.482 .0257006
889.145 .0256890
889.808 .0256781
890.471 .0256679
891.133 .0256581
891.795 .0256487
892.456 .0256400
893.117 .0256316
893.778 .0256237
894.439 .0256158
895.099 .0256078
895.758 .0255997
896.417 .0255914
897.076 .0255824
897.735 .0255725
898.393 .0255623
899.051 .0255523
899.708 .0255415
900.365 .0255301
901.022 .0255180
901.678 .0255050
902.334 .0254908
902.990 .0254760
903.645 .0254609
904.300 .0254457
904.954 .0254308
905.608 .0254164
906.262 .0254030
906.915 .0253905
907.568 .0253781
908.221 .0253662
908.873 .0253548
909.525 .0253436
910.176 .0253321
910.828 .0253212
911.478 .0253112
912.129 .0253021
912.778 .0252934
913.428 .0252858
914.077 .0252792
914.726 .0252733
915.375 .0252682
916.023 .0252638
916.670 .0252604
917.318 .0252571
917.964 .0252539
918.611 .0252507
919.257 .0252472
919.903 .0252431
920.548 .0252383
921.193 .0252328
921.838 .0252271
922.482 .0252207
923.126 .0252142
923.770 .0252078
924.413 .0252014
925.056 .0251945
925.698 .0251875
926.340 .0251800
926.982 .0251724
927.623 .0251641
928.264 .0251557
928.904 .0251473
929.544 .0251392
930.184 .0251312
930.823 .0251231
931.462 .0251151
932.101 .0251069
932.739 .0250980
933.377 .0250890
934.014 .0250799
934.651 .0250712
935.288 .0250635
935.924 .0250567
936.560 .0250505
937.196 .0250452
937.831 .0250404
938.466 .0250351
939.100 .0250287
939.734 .0250211
940.368 .0250122
941.001 .0250023
941.634 .0249919
942.266 .0249811
942.899 .0249705
943.530 .0249606
944.162 .0249504
944.793 .0249397
945.423 .0249277
946.053 .0249141
946.683 .0248986
947.313 .0248813
947.942 .0248624
948.571 .0248424
949.199 .0248221
949.827 .0248024
950.455 .0247835
951.082 .0247660
951.709 .0247501
952.335 .0247358
952.961 .0247232
953.587 .0247120
954.212 .0247020
954.837 .0246930
955.462 .0246852
956.086 .0246786
956.710 .0246729
957.334 .0246682
957.957 .0246644
958.579 .0246616
959.202 .0246590
959.824 .0246569
960.445 .0246547
961.067 .0246523
961.688 .0246498
962.308 .0246467
962.928 .0246432
963.548 .0246393
964.168 .0246350
964.787 .0246300
965.406 .0246247
966.024 .0246190
966.642 .0246125
967.260 .0246053
967.877 .0245979
968.494 .0245904
969.110 .0245826
969.727 .0245749
970.342 .0245677
970.958 .0245615
971.573 .0245561
972.188 .0245518
972.802 .0245486
973.416 .0245461
974.030 .0245436
974.643 .0245412
975.256 .0245382
975.869 .0245348
976.481 .0245306
977.093 .0245267
977.705 .0245236
978.316 .0245220
978.927 .0245217
979.538 .0245235
980.148 .0245265
980.758 .0245300
981.367 .0245330
981.977 .0245357
982.586 .0245370
983.194 .0245373
983.802 .0245368
984.410 .0245360
985.018 .0245356
985.625 .0245366
986.232 .0245386
986.838 .0245428
987.445 .0245480
988.050 .0245534
988.656 .0245582
989.261 .0245623
989.866 .0245644
990.471 .0245648
991.075 .0245639
991.679 .0245616
992.282 .0245586
992.886 .0245556
993.489 .0245521
994.091 .0245484
994.694 .0245445
995.296 .0245397
995.897 .0245327
996.499 .0245243
997.100 .0245135
997.701 .0245012
998.301 .0244888
998.901 .0244768
999.501 .0244657
1000.101 .0244570
1000.700 .0244502
1001.299 .0244456
1001.898 .0244424
1002.496 .0244405
1003.094 .0244394
1003.692 .0244386
1004.289 .0244379
1004.887 .0244378
1005.484 .0244381
1006.080 .0244397
1006.677 .0244420
1007.273 .0244452
1007.868 .0244487
1008.464 .0244520
1009.059 .0244546
1009.654 .0244561
1010.249 .0244568
1010.843 .0244568
1011.437 .0244558
1012.031 .0244551
1012.625 .0244543
1013.218 .0244533
1013.811 .0244528
1014.404 .0244528
1014.997 .0244523
1015.589 .0244517
1016.181 .0244512
1016.773 .0244512
1017.365 .0244512
1017.956 .0244514
1018.547 .0244513
1019.138 .0244507
1019.728 .0244494
1020.319 .0244464
1020.909 .0244418
1021.499 .0244364
1022.088 .0244299
1022.678 .0244228
1023.267 .0244156
1023.856 .0244084
1024.445 .0244010
1025.033 .0243930
1025.621 .0243843
1026.209 .0243744
1026.797 .0243628
1027.385 .0243502
1027.972 .0243373
1028.560 .0243245
1029.147 .0243123
1029.734 .0243018
1030.320 .0242932
1030.907 .0242868
1031.493 .0242826
1032.079 .0242800
1032.665 .0242789
1033.250 .0242788
1033.836 .0242790
1034.421 .0242797
1035.006 .0242810
1035.591 .0242829
1036.176 .0242849
1036.761 .0242874
1037.345 .0242897
1037.929 .0242918
1038.514 .0242935
1039.097 .0242950
1039.681 .0242963
1040.265 .0242971
1040.848 .0242969
1041.432 .0242955
1042.015 .0242931
1042.598 .0242885
1043.181 .0242818
1043.764 .0242736
1044.346 .0242633
1044.929 .0242523
1045.511 .0242408
1046.094 .0242300
1046.676 .0242207
1047.258 .0242130
1047.840 .0242068
1048.422 .0242014
1049.003 .0241954
1049.585 .0241873
1050.166 .0241768
1050.748 .0241638
1051.329 .0241483
1051.910 .0241307
1052.491 .0241126
1053.072 .0240948
1053.653 .0240786
1054.234 .0240643
1054.815 .0240510
1055.396 .0240402
1055.976 .0240295
1056.557 .0240177
1057.138 .0240050
1057.718 .0239912
1058.298 .0239772
1058.879 .0239632
1059.459 .0239501
1060.039 .0239373
1060.620 .0239256
1061.200 .0239154
1061.780 .0239051
1062.360 .0238959
1062.940 .0238870
1063.520 .0238776
1064.101 .0238677
1064.681 .0238577
1065.261 .0238457
1065.841 .0238318
1066.421 .0238162
1067.001 .0237984
1067.581 .0237784
1068.161 .0237577
1068.741 .0237364
1069.321 .0237161
1069.901 .0236984
1070.482 .0236824
1071.062 .0236670
1071.642 .0236535
1072.222 .0236395
1072.803 .0236255
1073.383 .0236114
1073.963 .0235973
1074.544 .0235844
1075.124 .0235746
1075.705 .0235682
1076.286 .0235651
1076.866 .0235654
1077.447 .0235684
1078.028 .0235715
1078.609 .0235740
1079.190 .0235739
1079.771 .0235703
1080.352 .0235640
1080.934 .0235551
1081.515 .0235450
1082.097 .0235352
1082.679 .0235262
1083.260 .0235191
1083.842 .0235142
1084.424 .0235110
1085.007 .0235078
1085.589 .0235040
1086.172 .0235001
1086.754 .0234963
1087.337 .0234914
1087.920 .0234849
1088.503 .0234797
1089.087 .0234756
1089.670 .0234731
1090.254 .0234706
1090.838 .0234691
1091.422 .0234692
1092.006 .0234691
1092.590 .0234688
1093.175 .0234682
1093.760 .0234685
1094.345 .0234679
1094.930 .0234637
1095.516 .0234574
1096.102 .0234486
1096.688 .0234372
1097.274 .0234229
1097.860 .0234064
1098.447 .0233886
1099.034 .0233698
1099.622 .0233503
1100.209 .0233334
1100.797 .0233206
1101.385 .0233075
1101.973 .0232965
1102.562 .0232856
1103.151 .0232759
1103.740 .0232622
1104.330 .0232454
1104.920 .0232257
1105.510 .0232026
1106.101 .0231749
1106.691 .0231446
1107.283 .0231148
1107.874 .0230897
1108.466 .0230668
1109.058 .0230497
1109.651 .0230380
1110.244 .0230324
1110.837 .0230284
1111.431 .0230282
1112.025 .0230274
1112.620 .0230269
1113.215 .0230238
1113.810 .0230242
1114.406 .0230301
1115.002 .0230433
1115.599 .0230663
1116.196 .0231009
1116.793 .0231442
1117.391 .0231941
1117.989 .0232465
1118.588 .0233011
1119.187 .0233520
1119.787 .0233974
1120.387 .0234357
1120.988 .0234716
1121.589 .0235067
1122.190 .0235429
1122.793 .0235803
1123.395 .0236205
1123.998 .0236573
1124.602 .0236886
1125.206 .0237146
1125.811 .0237320
1126.416 .0237427
1127.022 .0237478
1127.628 .0237499
1128.235 .0237504
1128.843 .0237522
1129.451 .0237597
1130.059 .0237699
1130.669 .0237859
1131.278 .0238031
1131.889 .0238188
1132.500 .0238346
1133.112 .0238507
1133.724 .0238652
1134.337 .0238826
1134.950 .0239029
1135.564 .0239270
1136.179 .0239548
1136.795 .0239870
1137.411 .0240240
1138.028 .0240653
1138.645 .0241130
1139.263 .0241682
1139.882 .0242188
1140.502 .0242768
1141.122 .0243404
1141.743 .0244137
1142.365 .0244954
1142.987 .0244158
1143.611 .0246187
1144.235 .0247816
1144.859 .0249397
1145.485 .0250569
