Measurement Sequence started on: 10-20-44-796
Integration time: 35
Scans to Average: 2 
>>>>>Begin Spectral Data<<<<<
432.953 .0601731
433.882 .0510067
434.810 .0426467
435.737 .0364072
436.662 .0375237
437.586 .0383401
438.509 .0367303
439.431 .0357726
440.351 .0352515
441.269 .0350006
442.187 .0347684
443.103 .0346258
444.018 .0345724
444.932 .0345744
445.844 .0346130
446.756 .0346937
447.666 .0347877
448.575 .0348898
449.482 .0349961
450.388 .0350967
451.294 .0351758
452.198 .0352743
453.100 .0353628
454.002 .0354462
454.902 .0355229
455.801 .0355939
456.699 .0356460
457.596 .0356823
458.492 .0356963
459.387 .0356825
460.280 .0356443
461.172 .0355807
462.064 .0354944
462.954 .0354035
463.843 .0353031
464.730 .0352036
465.617 .0351108
466.503 .0350310
467.387 .0349568
468.271 .0348893
469.153 .0348299
470.035 .0347680
470.915 .0347092
471.794 .0346478
472.673 .0345931
473.550 .0345465
474.426 .0345141
475.301 .0344988
476.175 .0345024
477.048 .0345243
477.920 .0345559
478.791 .0345950
479.661 .0346313
480.530 .0346604
481.398 .0346796
482.266 .0346846
483.132 .0346839
483.997 .0346731
484.861 .0346604
485.724 .0346508
486.587 .0346461
487.448 .0346423
488.308 .0346377
489.168 .0346313
490.026 .0346147
490.884 .0345894
491.741 .0345505
492.597 .0345024
493.452 .0344472
494.306 .0343898
495.159 .0343303
496.011 .0342683
496.862 .0342061
497.713 .0341374
498.562 .0340635
499.411 .0339813
500.259 .0338902
501.106 .0338014
501.952 .0337146
502.798 .0336359
503.642 .0335633
504.486 .0334981
505.329 .0334392
506.171 .0333824
507.012 .0333220
507.852 .0332534
508.692 .0331813
509.531 .0331041
510.369 .0330241
511.206 .0329486
512.043 .0328783
512.878 .0328149
513.713 .0327611
514.547 .0327059
515.381 .0326398
516.213 .0325610
517.045 .0324591
517.876 .0323314
518.706 .0321771
519.536 .0320005
520.365 .0318100
521.193 .0316125
522.020 .0314177
522.847 .0312276
523.673 .0310408
524.498 .0308605
525.323 .0306768
526.146 .0305015
526.969 .0303265
527.792 .0301592
528.614 .0300011
529.435 .0298535
530.255 .0297208
531.075 .0295997
531.894 .0294897
532.712 .0293955
533.530 .0293077
534.347 .0292275
535.163 .0291478
535.979 .0290815
536.794 .0290213
537.608 .0289702
538.422 .0289325
539.235 .0289099
540.048 .0288834
540.860 .0288588
541.671 .0288280
542.481 .0287872
543.292 .0287363
544.101 .0286794
544.910 .0286191
545.718 .0285657
546.526 .0285278
547.333 .0285046
548.139 .0284962
548.945 .0285118
549.750 .0285276
550.555 .0285464
551.359 .0285677
552.162 .0285883
552.965 .0286085
553.768 .0286372
554.569 .0286773
555.371 .0287234
556.171 .0287811
556.972 .0288460
557.771 .0289070
558.570 .0289688
559.369 .0290249
560.167 .0290718
560.964 .0291136
561.761 .0291510
562.558 .0291833
563.354 .0292219
564.149 .0292591
564.944 .0292968
565.738 .0293365
566.532 .0293780
567.325 .0294164
568.118 .0294509
568.910 .0294839
569.702 .0295163
570.494 .0295531
571.285 .0295991
572.075 .0296500
572.865 .0297150
573.654 .0297847
574.443 .0298584
575.232 .0299332
576.020 .0300049
576.807 .0300731
577.594 .0301404
578.381 .0302079
579.167 .0302748
579.952 .0303424
580.738 .0304126
581.522 .0304851
582.307 .0305559
583.091 .0306198
583.874 .0306778
584.657 .0307261
585.440 .0307660
586.222 .0307973
587.004 .0308244
587.785 .0308502
588.566 .0308765
589.346 .0309040
590.126 .0309312
590.906 .0309586
591.685 .0309825
592.464 .0310001
593.242 .0310112
594.020 .0310157
594.797 .0310144
595.575 .0310085
596.351 .0310009
597.128 .0309943
597.904 .0309898
598.679 .0309878
599.454 .0309872
600.229 .0309881
601.004 .0309879
601.778 .0309868
602.551 .0309842
603.325 .0309806
604.097 .0309758
604.870 .0309704
605.642 .0309654
606.414 .0309616
607.185 .0309571
607.956 .0309518
608.727 .0309465
609.497 .0309406
610.267 .0309318
611.037 .0309201
611.806 .0309064
612.575 .0308910
613.344 .0308737
614.112 .0308542
614.880 .0308324
615.647 .0308105
616.414 .0307872
617.181 .0307623
617.948 .0307368
618.714 .0307107
619.480 .0306838
620.245 .0306572
621.011 .0306303
621.775 .0306035
622.540 .0305771
623.304 .0305506
624.068 .0305245
624.832 .0304980
625.595 .0304711
626.358 .0304436
627.120 .0304168
627.883 .0303911
628.645 .0303652
629.406 .0303408
630.168 .0303177
630.929 .0302969
631.689 .0302777
632.450 .0302591
633.210 .0302417
633.970 .0302248
634.729 .0302078
635.489 .0301900
636.248 .0301716
637.006 .0301536
637.765 .0301352
638.523 .0301154
639.280 .0300944
640.038 .0300718
640.795 .0300475
641.552 .0300211
642.309 .0299926
643.065 .0299624
643.821 .0299305
644.577 .0298985
645.332 .0298660
646.088 .0298337
646.843 .0298022
647.597 .0297710
648.352 .0297394
649.106 .0297077
649.860 .0296758
650.613 .0296443
651.367 .0296143
652.120 .0295863
652.872 .0295605
653.625 .0295386
654.377 .0295205
655.129 .0295060
655.881 .0294948
656.632 .0294865
657.384 .0294789
658.135 .0294725
658.885 .0294666
659.636 .0294606
660.386 .0294538
661.136 .0294476
661.885 .0294421
662.635 .0294374
663.384 .0294333
664.133 .0294291
664.881 .0294247
665.630 .0294202
666.378 .0294136
667.126 .0294043
667.874 .0293933
668.621 .0293802
669.368 .0293642
670.115 .0293462
670.862 .0293267
671.608 .0293070
672.354 .0292877
673.100 .0292697
673.846 .0292526
674.591 .0292377
675.337 .0292247
676.082 .0292136
676.826 .0292041
677.571 .0291963
678.315 .0291892
679.059 .0291823
679.803 .0291754
680.547 .0291673
681.290 .0291582
682.033 .0291484
682.776 .0291378
683.518 .0291269
684.261 .0291149
685.003 .0291034
685.745 .0290918
686.487 .0290814
687.228 .0290712
687.969 .0290609
688.710 .0290497
689.451 .0290372
690.192 .0290225
690.932 .0290060
691.672 .0289871
692.412 .0289665
693.152 .0289439
693.891 .0289205
694.630 .0288968
695.369 .0288734
696.108 .0288507
696.846 .0288289
697.585 .0288076
698.323 .0287871
699.061 .0287659
699.798 .0287438
700.536 .0287209
701.273 .0286972
702.010 .0286736
702.746 .0286497
703.483 .0286264
704.219 .0286043
704.955 .0285833
705.691 .0285635
706.427 .0285441
707.162 .0285254
707.897 .0285080
708.632 .0284909
709.367 .0284743
710.101 .0284575
710.835 .0284412
711.569 .0284248
712.303 .0284073
713.037 .0283882
713.770 .0283676
714.503 .0283458
715.236 .0283236
715.969 .0283009
716.702 .0282796
717.434 .0282604
718.166 .0282433
718.898 .0282285
719.629 .0282151
720.361 .0282029
721.092 .0281902
721.823 .0281756
722.554 .0281589
723.284 .0281394
724.014 .0281173
724.744 .0280927
725.474 .0280668
726.204 .0280406
726.933 .0280135
727.662 .0279863
728.391 .0279589
729.120 .0279308
729.849 .0279015
730.577 .0278717
731.305 .0278406
732.033 .0278088
732.760 .0277759
733.488 .0277435
734.215 .0277126
734.942 .0276838
735.669 .0276568
736.395 .0276329
737.122 .0276128
737.848 .0275958
738.573 .0275808
739.299 .0275679
740.024 .0275558
740.750 .0275441
741.474 .0275315
742.199 .0275179
742.924 .0275037
743.648 .0274896
744.372 .0274750
745.096 .0274607
745.819 .0274466
746.543 .0274326
747.266 .0274185
747.989 .0274046
748.711 .0273901
749.434 .0273748
750.156 .0273592
750.878 .0273434
751.599 .0273280
752.321 .0273137
753.042 .0273008
753.763 .0272899
754.484 .0272813
755.205 .0272751
755.925 .0272703
756.645 .0272668
757.365 .0272640
758.085 .0272606
758.804 .0272561
759.523 .0272498
760.242 .0272418
760.961 .0272324
761.679 .0272210
762.397 .0272076
763.115 .0271930
763.833 .0271770
764.551 .0271592
765.268 .0271397
765.985 .0271197
766.702 .0270992
767.418 .0270785
768.134 .0270580
768.850 .0270388
769.566 .0270210
770.282 .0270048
770.997 .0269893
771.712 .0269753
772.427 .0269629
773.142 .0269516
773.856 .0269416
774.570 .0269330
775.284 .0269261
775.998 .0269203
776.711 .0269157
777.424 .0269115
778.137 .0269063
778.849 .0268996
779.562 .0268907
780.274 .0268797
780.986 .0268665
781.697 .0268522
782.409 .0268379
783.120 .0268247
783.831 .0268130
784.541 .0268025
785.252 .0267938
785.962 .0267864
786.671 .0267798
787.381 .0267732
788.090 .0267672
788.799 .0267615
789.508 .0267567
790.217 .0267530
790.925 .0267504
791.633 .0267491
792.341 .0267481
793.048 .0267465
793.755 .0267432
794.462 .0267373
795.169 .0267290
795.875 .0267183
796.581 .0267059
797.287 .0266919
797.993 .0266779
798.698 .0266651
799.403 .0266534
800.108 .0266427
800.812 .0266335
801.517 .0266248
802.221 .0266161
802.924 .0266066
803.628 .0265961
804.331 .0265860
805.034 .0265767
805.736 .0265679
806.439 .0265605
807.141 .0265551
807.843 .0265514
808.544 .0265483
809.245 .0265454
809.946 .0265416
810.647 .0265360
811.347 .0265284
812.047 .0265193
812.747 .0265095
813.447 .0264997
814.146 .0264900
814.845 .0264814
815.543 .0264738
816.242 .0264665
816.940 .0264595
817.638 .0264524
818.335 .0264453
819.032 .0264374
819.729 .0264289
820.426 .0264204
821.122 .0264124
821.818 .0264044
822.514 .0263964
823.209 .0263882
823.905 .0263793
824.599 .0263688
825.294 .0263570
825.988 .0263437
826.682 .0263290
827.376 .0263129
828.069 .0262957
828.762 .0262774
829.455 .0262583
830.147 .0262382
830.840 .0262178
831.531 .0261970
832.223 .0261764
832.914 .0261557
833.605 .0261356
834.296 .0261165
834.986 .0260983
835.676 .0260809
836.366 .0260640
837.055 .0260473
837.744 .0260305
838.433 .0260132
839.121 .0259963
839.809 .0259796
840.497 .0259639
841.185 .0259493
841.872 .0259362
842.559 .0259240
843.245 .0259123
843.932 .0259007
844.617 .0258888
845.303 .0258761
845.988 .0258626
846.673 .0258483
847.358 .0258342
848.042 .0258206
848.726 .0258075
849.410 .0257953
850.093 .0257842
850.776 .0257733
851.459 .0257618
852.141 .0257498
852.823 .0257370
853.505 .0257231
854.186 .0257083
854.867 .0256927
855.548 .0256766
856.228 .0256601
856.908 .0256436
857.588 .0256269
858.267 .0256106
858.946 .0255941
859.625 .0255772
860.303 .0255602
860.981 .0255435
861.659 .0255270
862.336 .0255105
863.013 .0254946
863.690 .0254790
864.366 .0254636
865.042 .0254478
865.718 .0254313
866.393 .0254147
867.068 .0253970
867.743 .0253790
868.417 .0253604
869.091 .0253418
869.765 .0253234
870.438 .0253054
871.111 .0252872
871.783 .0252691
872.456 .0252506
873.127 .0252320
873.799 .0252127
874.470 .0251939
875.141 .0251747
875.811 .0251559
876.481 .0251380
877.151 .0251211
877.820 .0251046
878.489 .0250899
879.158 .0250749
879.826 .0250601
880.494 .0250448
881.162 .0250292
881.829 .0250127
882.496 .0249962
883.163 .0249792
883.829 .0249621
884.495 .0249451
885.160 .0249292
885.825 .0249126
886.490 .0248973
887.154 .0248823
887.818 .0248678
888.482 .0248536
889.145 .0248397
889.808 .0248263
890.471 .0248136
891.133 .0248012
891.795 .0247896
892.456 .0247783
893.117 .0247680
893.778 .0247577
894.439 .0247488
895.099 .0247408
895.758 .0247334
896.417 .0247265
897.076 .0247205
897.735 .0247141
898.393 .0247074
899.051 .0246999
899.708 .0246924
900.365 .0246855
901.022 .0246792
901.678 .0246739
902.334 .0246703
902.990 .0246685
903.645 .0246679
904.300 .0246677
904.954 .0246685
905.608 .0246687
906.262 .0246680
906.915 .0246664
907.568 .0246637
908.221 .0246600
908.873 .0246553
909.525 .0246497
910.176 .0246432
910.828 .0246359
911.478 .0246275
912.129 .0246180
912.778 .0246084
913.428 .0245986
914.077 .0245889
914.726 .0245796
915.375 .0245709
916.023 .0245627
916.670 .0245553
917.318 .0245490
917.964 .0245437
918.611 .0245395
919.257 .0245366
919.903 .0245358
920.548 .0245372
921.193 .0245409
921.838 .0245464
922.482 .0245530
923.126 .0245598
923.770 .0245661
924.413 .0245716
925.056 .0245754
925.698 .0245777
926.340 .0245788
926.982 .0245788
927.623 .0245785
928.264 .0245778
928.904 .0245773
929.544 .0245770
930.184 .0245767
930.823 .0245755
931.462 .0245728
932.101 .0245693
932.739 .0245645
933.377 .0245579
934.014 .0245503
934.651 .0245415
935.288 .0245314
935.924 .0245209
936.560 .0245101
937.196 .0244990
937.831 .0244877
938.466 .0244762
939.100 .0244645
939.734 .0244525
940.368 .0244403
941.001 .0244277
941.634 .0244151
942.266 .0244032
942.899 .0243899
943.530 .0243758
944.162 .0243616
944.793 .0243468
945.423 .0243316
946.053 .0243159
946.683 .0243002
947.313 .0242851
947.942 .0242703
948.571 .0242565
949.199 .0242435
949.827 .0242317
950.455 .0242213
951.082 .0242115
951.709 .0242028
952.335 .0241947
952.961 .0241873
953.587 .0241811
954.212 .0241757
954.837 .0241707
955.462 .0241662
956.086 .0241622
956.710 .0241589
957.334 .0241554
957.957 .0241523
958.579 .0241494
959.202 .0241463
959.824 .0241424
960.445 .0241372
961.067 .0241304
961.688 .0241225
962.308 .0241130
962.928 .0241031
963.548 .0240920
964.168 .0240816
964.787 .0240719
965.406 .0240636
966.024 .0240564
966.642 .0240500
967.260 .0240443
967.877 .0240387
968.494 .0240326
969.110 .0240260
969.727 .0240190
970.342 .0240120
970.958 .0240048
971.573 .0239972
972.188 .0239897
972.802 .0239824
973.416 .0239753
974.030 .0239691
974.643 .0239633
975.256 .0239588
975.869 .0239554
976.481 .0239531
977.093 .0239525
977.705 .0239524
978.316 .0239532
978.927 .0239533
979.538 .0239520
980.148 .0239499
980.758 .0239462
981.367 .0239423
981.977 .0239386
982.586 .0239356
983.194 .0239338
983.802 .0239330
984.410 .0239326
985.018 .0239317
985.625 .0239305
986.232 .0239279
986.838 .0239234
987.445 .0239178
988.050 .0239119
988.656 .0239061
989.261 .0239018
989.866 .0238989
990.471 .0238967
991.075 .0238957
991.679 .0238948
992.282 .0238939
992.886 .0238923
993.489 .0238902
994.091 .0238876
994.694 .0238846
995.296 .0238817
995.897 .0238781
996.499 .0238746
997.100 .0238713
997.701 .0238671
998.301 .0238621
998.901 .0238558
999.501 .0238492
1000.101 .0238417
1000.700 .0238336
1001.299 .0238248
1001.898 .0238155
1002.496 .0238063
1003.094 .0237969
1003.692 .0237873
1004.289 .0237781
1004.887 .0237692
1005.484 .0237605
1006.080 .0237521
1006.677 .0237433
1007.273 .0237344
1007.868 .0237254
1008.464 .0237166
1009.059 .0237080
1009.654 .0237003
1010.249 .0236939
1010.843 .0236891
1011.437 .0236861
1012.031 .0236839
1012.625 .0236818
1013.218 .0236799
1013.811 .0236777
1014.404 .0236743
1014.997 .0236700
1015.589 .0236653
1016.181 .0236614
1016.773 .0236588
1017.365 .0236575
1017.956 .0236567
1018.547 .0236565
1019.138 .0236559
1019.728 .0236534
1020.319 .0236487
1020.909 .0236422
1021.499 .0236342
1022.088 .0236245
1022.678 .0236133
1023.267 .0236015
1023.856 .0235890
1024.445 .0235767
1025.033 .0235637
1025.621 .0235504
1026.209 .0235364
1026.797 .0235221
1027.385 .0235072
1027.972 .0234937
1028.560 .0234824
1029.147 .0234728
1029.734 .0234650
1030.320 .0234592
1030.907 .0234549
1031.493 .0234521
1032.079 .0234506
1032.665 .0234509
1033.250 .0234523
1033.836 .0234558
1034.421 .0234599
1035.006 .0234654
1035.591 .0234716
1036.176 .0234782
1036.761 .0234836
1037.345 .0234884
1037.929 .0234911
1038.514 .0234915
1039.097 .0234896
1039.681 .0234864
1040.265 .0234821
1040.848 .0234771
1041.432 .0234694
1042.015 .0234608
1042.598 .0234503
1043.181 .0234380
1043.764 .0234234
1044.346 .0234090
1044.929 .0233951
1045.511 .0233837
1046.094 .0233738
1046.676 .0233669
1047.258 .0233617
1047.840 .0233588
1048.422 .0233548
1049.003 .0233498
1049.585 .0233432
1050.166 .0233338
1050.748 .0233219
1051.329 .0233102
1051.910 .0232982
1052.491 .0232880
1053.072 .0232796
1053.653 .0232728
1054.234 .0232643
1054.815 .0232542
1055.396 .0232384
1055.976 .0232177
1056.557 .0231923
1057.138 .0231649
1057.718 .0231362
1058.298 .0231104
1058.879 .0230885
1059.459 .0230728
1060.039 .0230637
1060.620 .0230595
1061.200 .0230580
1061.780 .0230585
1062.360 .0230580
1062.940 .0230560
1063.520 .0230525
1064.101 .0230496
1064.681 .0230471
1065.261 .0230466
1065.841 .0230467
1066.421 .0230483
1067.001 .0230502
1067.581 .0230507
1068.161 .0230490
1068.741 .0230457
1069.321 .0230388
1069.901 .0230280
1070.482 .0230160
1071.062 .0230036
1071.642 .0229905
1072.222 .0229793
1072.803 .0229709
1073.383 .0229642
1073.963 .0229589
1074.544 .0229536
1075.124 .0229470
1075.705 .0229414
1076.286 .0229341
1076.866 .0229243
1077.447 .0229136
1078.028 .0229028
1078.609 .0228917
1079.190 .0228818
1079.771 .0228745
1080.352 .0228678
1080.934 .0228630
1081.515 .0228596
1082.097 .0228538
1082.679 .0228484
1083.260 .0228417
1083.842 .0228321
1084.424 .0228209
1085.007 .0228083
1085.589 .0227909
1086.172 .0227723
1086.754 .0227524
1087.337 .0227314
1087.920 .0227099
1088.503 .0226900
1089.087 .0226694
1089.670 .0226495
1090.254 .0226333
1090.838 .0226167
1091.422 .0226022
1092.006 .0225930
1092.590 .0225837
1093.175 .0225768
1093.760 .0225725
1094.345 .0225700
1094.930 .0225696
1095.516 .0225737
1096.102 .0225809
1096.688 .0225924
1097.274 .0226104
1097.860 .0226340
1098.447 .0226625
1099.034 .0226955
1099.622 .0227296
1100.209 .0227627
1100.797 .0227961
1101.385 .0228253
1101.973 .0228492
1102.562 .0228713
1103.151 .0228893
1103.740 .0229061
1104.330 .0229205
1104.920 .0229330
1105.510 .0229445
1106.101 .0229544
1106.691 .0229591
1107.283 .0229585
1107.874 .0229525
1108.466 .0229397
1109.058 .0229240
1109.651 .0229071
1110.244 .0228861
1110.837 .0228661
1111.431 .0228471
1112.025 .0228307
1112.620 .0228146
1113.215 .0228009
1113.810 .0227910
1114.406 .0227875
1115.002 .0227905
1115.599 .0227985
1116.196 .0228152
1116.793 .0228415
1117.391 .0228712
1117.989 .0229065
1118.588 .0229400
1119.187 .0229688
1119.787 .0229937
1120.387 .0230149
1120.988 .0230314
1121.589 .0230445
1122.190 .0230520
1122.793 .0230575
1123.395 .0230617
1123.998 .0230637
1124.602 .0230630
1125.206 .0230645
1125.811 .0230695
1126.416 .0230728
1127.022 .0230742
1127.628 .0230775
1128.235 .0230773
1128.843 .0230806
1129.451 .0230860
1130.059 .0230910
1130.669 .0230983
1131.278 .0231073
1131.889 .0231210
1132.500 .0231401
1133.112 .0231635
1133.724 .0231951
1134.337 .0232340
1134.950 .0232796
1135.564 .0233278
1136.179 .0233762
1136.795 .0234302
1137.411 .0234888
1138.028 .0235495
1138.645 .0236129
1139.263 .0236853
1139.882 .0237713
1140.502 .0238746
1141.122 .0239903
1141.743 .0241084
1142.365 .0242376
1142.987 .0244033
1143.611 .0246972
1144.235 .0246913
1144.859 .0244585
1145.485 .0249075
