Measurement Sequence started on: 10-20-44-796
Integration time: 35
Scans to Average: 2 
>>>>>Begin Spectral Data<<<<<
432.953 .0486816
433.882 .0430094
434.810 .0411840
435.737 .0408465
436.662 .0406789
437.586 .0417464
438.509 .0415851
439.431 .0416900
440.351 .0418703
441.269 .0420506
442.187 .0421998
443.103 .0422837
444.018 .0423383
444.932 .0423579
445.844 .0423094
446.756 .0422336
447.666 .0421455
448.575 .0420221
449.482 .0418943
450.388 .0417579
451.294 .0416160
452.198 .0414760
453.100 .0413389
454.002 .0412003
454.902 .0410603
455.801 .0409384
456.699 .0408334
457.596 .0407501
458.492 .0406860
459.387 .0406354
460.280 .0405944
461.172 .0405526
462.064 .0405115
462.954 .0404636
463.843 .0404098
464.730 .0403540
465.617 .0402978
466.503 .0402450
467.387 .0401955
468.271 .0401495
469.153 .0401057
470.035 .0400623
470.915 .0400158
471.794 .0399601
472.673 .0398960
473.550 .0398317
474.426 .0397656
475.301 .0396999
476.175 .0396427
477.048 .0395870
477.920 .0395316
478.791 .0394784
479.661 .0394244
480.530 .0393713
481.398 .0393151
482.266 .0392621
483.132 .0392096
483.997 .0391616
484.861 .0391182
485.724 .0390772
486.587 .0390414
487.448 .0390114
488.308 .0389785
489.168 .0389418
490.026 .0389001
490.884 .0388572
491.741 .0388109
492.597 .0387674
493.452 .0387251
494.306 .0386854
495.159 .0386423
496.011 .0385994
496.862 .0385495
497.713 .0384921
498.562 .0384226
499.411 .0383412
500.259 .0382457
501.106 .0381405
501.952 .0380221
502.798 .0378970
503.642 .0377714
504.486 .0376472
505.329 .0375192
506.171 .0373940
507.012 .0372716
507.852 .0371512
508.692 .0370309
509.531 .0369093
510.369 .0367844
511.206 .0366588
512.043 .0365316
512.878 .0363985
513.713 .0362660
514.547 .0361385
515.381 .0360127
516.213 .0358937
517.045 .0357794
517.876 .0356660
518.706 .0355571
519.536 .0354443
520.365 .0353269
521.193 .0351995
522.020 .0350619
522.847 .0349128
523.673 .0347565
524.498 .0345927
525.323 .0344198
526.146 .0342476
526.969 .0340819
527.792 .0339100
528.614 .0337341
529.435 .0335468
530.255 .0333490
531.075 .0331408
531.894 .0329233
532.712 .0326998
533.530 .0324793
534.347 .0322670
535.163 .0320605
535.979 .0318757
536.794 .0317200
537.608 .0315945
538.422 .0315012
539.235 .0314382
540.048 .0314002
540.860 .0313886
541.671 .0313963
542.481 .0314200
543.292 .0314600
544.101 .0315136
544.910 .0315715
545.718 .0316352
546.526 .0317035
547.333 .0317795
548.139 .0318553
548.945 .0319312
549.750 .0319949
550.555 .0320527
551.359 .0321005
552.162 .0321333
552.965 .0321598
553.768 .0321819
554.569 .0321999
555.371 .0322171
556.171 .0322344
556.972 .0322571
557.771 .0322822
558.570 .0323110
559.369 .0323435
560.167 .0323756
560.964 .0324067
561.761 .0324339
562.558 .0324574
563.354 .0324853
564.149 .0325065
564.944 .0325309
565.738 .0325589
566.532 .0325881
567.325 .0326178
568.118 .0326464
568.910 .0326805
569.702 .0327172
570.494 .0327564
571.285 .0328009
572.075 .0328471
572.865 .0328975
573.654 .0329446
574.443 .0329891
575.232 .0330311
576.020 .0330698
576.807 .0331026
577.594 .0331319
578.381 .0331595
579.167 .0331866
579.952 .0332139
580.738 .0332422
581.522 .0332723
582.307 .0333017
583.091 .0333313
583.874 .0333583
584.657 .0333813
585.440 .0334011
586.222 .0334154
587.004 .0334277
587.785 .0334367
588.566 .0334424
589.346 .0334468
590.126 .0334494
590.906 .0334519
591.685 .0334543
592.464 .0334553
593.242 .0334553
594.020 .0334526
594.797 .0334473
595.575 .0334371
596.351 .0334233
597.128 .0334062
597.904 .0333851
598.679 .0333615
599.454 .0333349
600.229 .0333061
601.004 .0332774
601.778 .0332484
602.551 .0332198
603.325 .0331913
604.097 .0331637
604.870 .0331353
605.642 .0331072
606.414 .0330790
607.185 .0330505
607.956 .0330225
608.727 .0329961
609.497 .0329703
610.267 .0329465
611.037 .0329251
611.806 .0329050
612.575 .0328867
613.344 .0328689
614.112 .0328501
614.880 .0328296
615.647 .0328073
616.414 .0327836
617.181 .0327575
617.948 .0327306
618.714 .0327029
619.480 .0326753
620.245 .0326487
621.011 .0326209
621.775 .0325938
622.540 .0325665
623.304 .0325392
624.068 .0325112
624.832 .0324830
625.595 .0324553
626.358 .0324286
627.120 .0324031
627.883 .0323794
628.645 .0323572
629.406 .0323372
630.168 .0323181
630.929 .0322997
631.689 .0322814
632.450 .0322621
633.210 .0322416
633.970 .0322206
634.729 .0321980
635.489 .0321747
636.248 .0321500
637.006 .0321251
637.765 .0321003
638.523 .0320751
639.280 .0320495
640.038 .0320235
640.795 .0319969
641.552 .0319696
642.309 .0319410
643.065 .0319118
643.821 .0318822
644.577 .0318530
645.332 .0318249
646.088 .0317975
646.843 .0317714
647.597 .0317461
648.352 .0317214
649.106 .0316969
649.860 .0316712
650.613 .0316446
651.367 .0316178
652.120 .0315908
652.872 .0315641
653.625 .0315379
654.377 .0315124
655.129 .0314869
655.881 .0314607
656.632 .0314330
657.384 .0314031
658.135 .0313713
658.885 .0313377
659.636 .0313028
660.386 .0312672
661.136 .0312314
661.885 .0311962
662.635 .0311622
663.384 .0311288
664.133 .0310953
664.881 .0310617
665.630 .0310284
666.378 .0309953
667.126 .0309624
667.874 .0309299
668.621 .0308986
669.368 .0308676
670.115 .0308370
670.862 .0308062
671.608 .0307760
672.354 .0307466
673.100 .0307178
673.846 .0306902
674.591 .0306639
675.337 .0306397
676.082 .0306173
676.826 .0305963
677.571 .0305760
678.315 .0305553
679.059 .0305343
679.803 .0305122
680.547 .0304895
681.290 .0304668
682.033 .0304448
682.776 .0304244
683.518 .0304051
684.261 .0303868
685.003 .0303688
685.745 .0303505
686.487 .0303313
687.228 .0303100
687.969 .0302871
688.710 .0302633
689.451 .0302394
690.192 .0302156
690.932 .0301923
691.672 .0301700
692.412 .0301486
693.152 .0301280
693.891 .0301075
694.630 .0300868
695.369 .0300663
696.108 .0300461
696.846 .0300261
697.585 .0300068
698.323 .0299886
699.061 .0299713
699.798 .0299549
700.536 .0299390
701.273 .0299231
702.010 .0299073
702.746 .0298924
703.483 .0298787
704.219 .0298658
704.955 .0298543
705.691 .0298441
706.427 .0298349
707.162 .0298270
707.897 .0298193
708.632 .0298119
709.367 .0298047
710.101 .0297970
710.835 .0297883
711.569 .0297796
712.303 .0297708
713.037 .0297625
713.770 .0297545
714.503 .0297467
715.236 .0297382
715.969 .0297292
716.702 .0297198
717.434 .0297094
718.166 .0296979
718.898 .0296854
719.629 .0296719
720.361 .0296579
721.092 .0296436
721.823 .0296290
722.554 .0296145
723.284 .0296003
724.014 .0295857
724.744 .0295699
725.474 .0295527
726.204 .0295340
726.933 .0295138
727.662 .0294923
728.391 .0294697
729.120 .0294463
729.849 .0294236
730.577 .0294014
731.305 .0293797
732.033 .0293589
732.760 .0293381
733.488 .0293173
734.215 .0292964
734.942 .0292749
735.669 .0292533
736.395 .0292324
737.122 .0292123
737.848 .0291934
738.573 .0291760
739.299 .0291598
740.024 .0291443
740.750 .0291295
741.474 .0291143
742.199 .0290978
742.924 .0290803
743.648 .0290620
744.372 .0290428
745.096 .0290234
745.819 .0290038
746.543 .0289848
747.266 .0289668
747.989 .0289501
748.711 .0289343
749.434 .0289198
750.156 .0289063
750.878 .0288935
751.599 .0288807
752.321 .0288682
753.042 .0288555
753.763 .0288427
754.484 .0288298
755.205 .0288172
755.925 .0288043
756.645 .0287913
757.365 .0287784
758.085 .0287652
758.804 .0287508
759.523 .0287351
760.242 .0287168
760.961 .0286959
761.679 .0286715
762.397 .0286440
763.115 .0286135
763.833 .0285808
764.551 .0285464
765.268 .0285114
765.985 .0284765
766.702 .0284430
767.418 .0284109
768.134 .0283809
768.850 .0283530
769.566 .0283268
770.282 .0283015
770.997 .0282771
771.712 .0282533
772.427 .0282301
773.142 .0282071
773.856 .0281853
774.570 .0281642
775.284 .0281437
775.998 .0281244
776.711 .0281058
777.424 .0280881
778.137 .0280710
778.849 .0280542
779.562 .0280372
780.274 .0280200
780.986 .0280022
781.697 .0279842
782.409 .0279661
783.120 .0279492
783.831 .0279327
784.541 .0279178
785.252 .0279047
785.962 .0278934
786.671 .0278838
787.381 .0278759
788.090 .0278691
788.799 .0278631
789.508 .0278572
790.217 .0278512
790.925 .0278447
791.633 .0278379
792.341 .0278303
793.048 .0278217
793.755 .0278122
794.462 .0278018
795.169 .0277908
795.875 .0277797
796.581 .0277689
797.287 .0277588
797.993 .0277495
798.698 .0277413
799.403 .0277342
800.108 .0277278
800.812 .0277218
801.517 .0277151
802.221 .0277077
802.924 .0276993
803.628 .0276902
804.331 .0276813
805.034 .0276730
805.736 .0276659
806.439 .0276601
807.141 .0276551
807.843 .0276509
808.544 .0276462
809.245 .0276407
809.946 .0276337
810.647 .0276256
811.347 .0276166
812.047 .0276077
812.747 .0276001
813.447 .0275941
814.146 .0275902
814.845 .0275889
815.543 .0275889
816.242 .0275899
816.940 .0275911
817.638 .0275923
818.335 .0275932
819.032 .0275939
819.729 .0275944
820.426 .0275953
821.122 .0275964
821.818 .0275974
822.514 .0275979
823.209 .0275982
823.905 .0275974
824.599 .0275951
825.294 .0275914
825.988 .0275862
826.682 .0275799
827.376 .0275727
828.069 .0275648
828.762 .0275565
829.455 .0275477
830.147 .0275383
830.840 .0275284
831.531 .0275184
832.223 .0275086
832.914 .0274991
833.605 .0274907
834.296 .0274834
834.986 .0274772
835.676 .0274725
836.366 .0274691
837.055 .0274670
837.744 .0274658
838.433 .0274647
839.121 .0274638
839.809 .0274625
840.497 .0274611
841.185 .0274591
841.872 .0274567
842.559 .0274543
843.245 .0274517
843.932 .0274489
844.617 .0274461
845.303 .0274427
845.988 .0274389
846.673 .0274342
847.358 .0274283
848.042 .0274212
848.726 .0274129
849.410 .0274040
850.093 .0273946
850.776 .0273853
851.459 .0273765
852.141 .0273679
852.823 .0273595
853.505 .0273516
854.186 .0273430
854.867 .0273341
855.548 .0273246
856.228 .0273147
856.908 .0273043
857.588 .0272939
858.267 .0272836
858.946 .0272740
859.625 .0272652
860.303 .0272572
860.981 .0272492
861.659 .0272414
862.336 .0272331
863.013 .0272243
863.690 .0272150
864.366 .0272049
865.042 .0271940
865.718 .0271831
866.393 .0271716
867.068 .0271597
867.743 .0271475
868.417 .0271352
869.091 .0271224
869.765 .0271090
870.438 .0270943
871.111 .0270786
871.783 .0270622
872.456 .0270451
873.127 .0270274
873.799 .0270095
874.470 .0269916
875.141 .0269735
875.811 .0269556
876.481 .0269380
877.151 .0269207
877.820 .0269039
878.489 .0268872
879.158 .0268709
879.826 .0268547
880.494 .0268388
881.162 .0268230
881.829 .0268075
882.496 .0267918
883.163 .0267753
883.829 .0267586
884.495 .0267413
885.160 .0267237
885.825 .0267065
886.490 .0266899
887.154 .0266743
887.818 .0266597
888.482 .0266463
889.145 .0266335
889.808 .0266214
890.471 .0266089
891.133 .0265958
891.795 .0265823
892.456 .0265684
893.117 .0265543
893.778 .0265405
894.439 .0265271
895.099 .0265143
895.758 .0265017
896.417 .0264895
897.076 .0264765
897.735 .0264630
898.393 .0264486
899.051 .0264331
899.708 .0264168
900.365 .0264001
901.022 .0263836
901.678 .0263677
902.334 .0263517
902.990 .0263361
903.645 .0263203
904.300 .0263048
904.954 .0262886
905.608 .0262718
906.262 .0262546
906.915 .0262372
907.568 .0262193
908.221 .0262016
908.873 .0261840
909.525 .0261666
910.176 .0261494
910.828 .0261321
911.478 .0261142
912.129 .0260957
912.778 .0260767
913.428 .0260572
914.077 .0260373
914.726 .0260171
915.375 .0259964
916.023 .0259767
916.670 .0259580
917.318 .0259397
917.964 .0259226
918.611 .0259063
919.257 .0258910
919.903 .0258757
920.548 .0258603
921.193 .0258447
921.838 .0258289
922.482 .0258133
923.126 .0257974
923.770 .0257817
924.413 .0257671
925.056 .0257528
925.698 .0257394
926.340 .0257265
926.982 .0257138
927.623 .0257012
928.264 .0256888
928.904 .0256759
929.544 .0256626
930.184 .0256485
930.823 .0256342
931.462 .0256198
932.101 .0256056
932.739 .0255914
933.377 .0255772
934.014 .0255631
934.651 .0255488
935.288 .0255338
935.924 .0255191
936.560 .0255039
937.196 .0254892
937.831 .0254745
938.466 .0254595
939.100 .0254448
939.734 .0254304
940.368 .0254162
941.001 .0254023
941.634 .0253886
942.266 .0253754
942.899 .0253617
943.530 .0253481
944.162 .0253340
944.793 .0253199
945.423 .0253051
946.053 .0252897
946.683 .0252735
947.313 .0252570
947.942 .0252400
948.571 .0252231
949.199 .0252060
949.827 .0251889
950.455 .0251719
951.082 .0251550
951.709 .0251382
952.335 .0251221
952.961 .0251065
953.587 .0250924
954.212 .0250793
954.837 .0250676
955.462 .0250570
956.086 .0250478
956.710 .0250399
957.334 .0250326
957.957 .0250259
958.579 .0250194
959.202 .0250129
959.824 .0250066
960.445 .0250000
961.067 .0249939
961.688 .0249885
962.308 .0249840
962.928 .0249798
963.548 .0249756
964.168 .0249706
964.787 .0249641
965.406 .0249561
966.024 .0249470
966.642 .0249370
967.260 .0249270
967.877 .0249181
968.494 .0249101
969.110 .0249037
969.727 .0248986
970.342 .0248935
970.958 .0248883
971.573 .0248825
972.188 .0248754
972.802 .0248672
973.416 .0248591
974.030 .0248517
974.643 .0248457
975.256 .0248427
975.869 .0248419
976.481 .0248427
977.093 .0248454
977.705 .0248485
978.316 .0248509
978.927 .0248534
979.538 .0248549
980.148 .0248558
980.758 .0248570
981.367 .0248589
981.977 .0248614
982.586 .0248654
983.194 .0248709
983.802 .0248768
984.410 .0248825
985.018 .0248880
985.625 .0248924
986.232 .0248966
986.838 .0249007
987.445 .0249045
988.050 .0249085
988.656 .0249131
989.261 .0249179
989.866 .0249222
990.471 .0249260
991.075 .0249297
991.679 .0249327
992.282 .0249355
992.886 .0249380
993.489 .0249409
994.091 .0249445
994.694 .0249489
995.296 .0249539
995.897 .0249591
996.499 .0249643
997.100 .0249694
997.701 .0249739
998.301 .0249785
998.901 .0249831
999.501 .0249876
1000.101 .0249926
1000.700 .0249982
1001.299 .0250041
1001.898 .0250100
1002.496 .0250163
1003.094 .0250223
1003.692 .0250270
1004.289 .0250310
1004.887 .0250336
1005.484 .0250348
1006.080 .0250349
1006.677 .0250343
1007.273 .0250328
1007.868 .0250308
1008.464 .0250281
1009.059 .0250250
1009.654 .0250214
1010.249 .0250178
1010.843 .0250136
1011.437 .0250099
1012.031 .0250068
1012.625 .0250042
1013.218 .0250019
1013.811 .0250011
1014.404 .0250019
1014.997 .0250048
1015.589 .0250094
1016.181 .0250162
1016.773 .0250246
1017.365 .0250346
1017.956 .0250456
1018.547 .0250577
1019.138 .0250705
1019.728 .0250848
1020.319 .0250992
1020.909 .0251150
1021.499 .0251318
1022.088 .0251497
1022.678 .0251673
1023.267 .0251846
1023.856 .0252004
1024.445 .0252135
1025.033 .0252236
1025.621 .0252306
1026.209 .0252342
1026.797 .0252361
1027.385 .0252356
1027.972 .0252335
1028.560 .0252307
1029.147 .0252274
1029.734 .0252238
1030.320 .0252207
1030.907 .0252180
1031.493 .0252151
1032.079 .0252119
1032.665 .0252087
1033.250 .0252046
1033.836 .0251994
1034.421 .0251937
1035.006 .0251873
1035.591 .0251814
1036.176 .0251755
1036.761 .0251699
1037.345 .0251658
1037.929 .0251640
1038.514 .0251636
1039.097 .0251633
1039.681 .0251630
1040.265 .0251619
1040.848 .0251587
1041.432 .0251531
1042.015 .0251454
1042.598 .0251366
1043.181 .0251287
1043.764 .0251224
1044.346 .0251185
1044.929 .0251177
1045.511 .0251195
1046.094 .0251228
1046.676 .0251260
1047.258 .0251282
1047.840 .0251285
1048.422 .0251271
1049.003 .0251252
1049.585 .0251217
1050.166 .0251180
1050.748 .0251149
1051.329 .0251122
1051.910 .0251093
1052.491 .0251059
1053.072 .0251020
1053.653 .0250975
1054.234 .0250925
1054.815 .0250872
1055.396 .0250813
1055.976 .0250765
1056.557 .0250714
1057.138 .0250650
1057.718 .0250571
1058.298 .0250477
1058.879 .0250364
1059.459 .0250241
1060.039 .0250121
1060.620 .0249996
1061.200 .0249869
1061.780 .0249760
1062.360 .0249649
1062.940 .0249534
1063.520 .0249409
1064.101 .0249265
1064.681 .0249095
1065.261 .0248906
1065.841 .0248693
1066.421 .0248477
1067.001 .0248275
1067.581 .0248083
1068.161 .0247897
1068.741 .0247723
1069.321 .0247555
1069.901 .0247389
1070.482 .0247234
1071.062 .0247085
1071.642 .0246936
1072.222 .0246815
1072.803 .0246704
1073.383 .0246624
1073.963 .0246573
1074.544 .0246541
1075.124 .0246526
1075.705 .0246513
1076.286 .0246482
1076.866 .0246436
1077.447 .0246383
1078.028 .0246315
1078.609 .0246236
1079.190 .0246162
1079.771 .0246082
1080.352 .0245984
1080.934 .0245892
1081.515 .0245799
1082.097 .0245695
1082.679 .0245580
1083.260 .0245425
1083.842 .0245258
1084.424 .0245085
1085.007 .0244900
1085.589 .0244717
1086.172 .0244537
1086.754 .0244370
1087.337 .0244204
1087.920 .0244035
1088.503 .0243875
1089.087 .0243721
1089.670 .0243579
1090.254 .0243437
1090.838 .0243306
1091.422 .0243176
1092.006 .0243043
1092.590 .0242912
1093.175 .0242791
1093.760 .0242636
1094.345 .0242456
1094.930 .0242249
1095.516 .0242022
1096.102 .0241818
1096.688 .0241634
1097.274 .0241485
1097.860 .0241395
1098.447 .0241360
1099.034 .0241369
1099.622 .0241397
1100.209 .0241462
1100.797 .0241527
1101.385 .0241592
1101.973 .0241652
1102.562 .0241711
1103.151 .0241785
1103.740 .0241893
1104.330 .0242037
1104.920 .0242187
1105.510 .0242362
1106.101 .0242534
1106.691 .0242667
1107.283 .0242777
1107.874 .0242839
1108.466 .0242857
1109.058 .0242825
1109.651 .0242769
1110.244 .0242676
1110.837 .0242549
1111.431 .0242409
1112.025 .0242255
1112.620 .0242092
1113.215 .0241939
1113.810 .0241793
1114.406 .0241689
1115.002 .0241636
1115.599 .0241612
1116.196 .0241619
1116.793 .0241666
1117.391 .0241713
1117.989 .0241772
1118.588 .0241815
1119.187 .0241861
1119.787 .0241920
1120.387 .0242003
1120.988 .0242108
1121.589 .0242253
1122.190 .0242427
1122.793 .0242633
1123.395 .0242834
1123.998 .0243055
1124.602 .0243230
1125.206 .0243413
1125.811 .0243600
1126.416 .0243761
1127.022 .0243915
1127.628 .0244082
1128.235 .0244241
1128.843 .0244396
1129.451 .0244504
1130.059 .0244586
1130.669 .0244635
1131.278 .0244683
1131.889 .0244705
1132.500 .0244765
1133.112 .0244885
1133.724 .0245101
1134.337 .0245410
1134.950 .0245826
1135.564 .0246354
1136.179 .0246978
1136.795 .0247667
1137.411 .0248423
1138.028 .0249213
1138.645 .0250091
1139.263 .0251066
1139.882 .0252190
1140.502 .0253388
1141.122 .0254654
1141.743 .0256001
1142.365 .0257153
1142.987 .0260513
1143.611 .0260426
1144.235 .0260373
1144.859 .0262193
1145.485 .0257768
