Measurement Sequence started on: 10-20-44-796
Integration time: 35
Scans to Average: 2 
>>>>>Begin Spectral Data<<<<<
432.953 .0261657
433.882 .0343096
434.810 .0365721
435.737 .0351436
436.662 .0338508
437.586 .0339149
438.509 .0340786
439.431 .0339650
440.351 .0338110
441.269 .0337245
442.187 .0336758
443.103 .0336469
444.018 .0335904
444.932 .0335571
445.844 .0335676
446.756 .0335955
447.666 .0336476
448.575 .0337040
449.482 .0337703
450.388 .0338469
451.294 .0339051
452.198 .0339465
453.100 .0339839
454.002 .0340169
454.902 .0340506
455.801 .0340707
456.699 .0340882
457.596 .0341037
458.492 .0341087
459.387 .0341067
460.280 .0341006
461.172 .0340906
462.064 .0340719
462.954 .0340413
463.843 .0340071
464.730 .0339606
465.617 .0339079
466.503 .0338505
467.387 .0337945
468.271 .0337332
469.153 .0336797
470.035 .0336285
470.915 .0335890
471.794 .0335598
472.673 .0335362
473.550 .0335210
474.426 .0335127
475.301 .0335060
476.175 .0334998
477.048 .0334938
477.920 .0334934
478.791 .0334890
479.661 .0334885
480.530 .0334942
481.398 .0335056
482.266 .0335201
483.132 .0335361
483.997 .0335507
484.861 .0335654
485.724 .0335818
486.587 .0335976
487.448 .0336111
488.308 .0336226
489.168 .0336292
490.026 .0336301
490.884 .0336288
491.741 .0336192
492.597 .0336019
493.452 .0335788
494.306 .0335464
495.159 .0335022
496.011 .0334487
496.862 .0333852
497.713 .0333137
498.562 .0332354
499.411 .0331472
500.259 .0330494
501.106 .0329510
501.952 .0328563
502.798 .0327671
503.642 .0326884
504.486 .0326188
505.329 .0325535
506.171 .0324963
507.012 .0324413
507.852 .0323869
508.692 .0323334
509.531 .0322782
510.369 .0322194
511.206 .0321623
512.043 .0321044
512.878 .0320412
513.713 .0319715
514.547 .0318926
515.381 .0317884
516.213 .0316562
517.045 .0314948
517.876 .0313040
518.706 .0310926
519.536 .0308717
520.365 .0306449
521.193 .0304189
522.020 .0301987
522.847 .0299897
523.673 .0297845
524.498 .0295880
525.323 .0293908
526.146 .0291957
526.969 .0290107
527.792 .0288362
528.614 .0286721
529.435 .0285299
530.255 .0284178
531.075 .0283239
531.894 .0282444
532.712 .0281720
533.530 .0281012
534.347 .0280308
535.163 .0279435
535.979 .0278386
536.794 .0277182
537.608 .0275972
538.422 .0274781
539.235 .0273695
540.048 .0272828
540.860 .0272089
541.671 .0271565
542.481 .0271251
543.292 .0271048
544.101 .0271020
544.910 .0271146
545.718 .0271421
546.526 .0271779
547.333 .0272225
548.139 .0272713
548.945 .0273265
549.750 .0273866
550.555 .0274474
551.359 .0275010
552.162 .0275585
552.965 .0276181
553.768 .0276809
554.569 .0277517
555.371 .0278309
556.171 .0279108
556.972 .0279939
557.771 .0280717
558.570 .0281451
559.369 .0282098
560.167 .0282726
560.964 .0283328
561.761 .0283976
562.558 .0284691
563.354 .0285506
564.149 .0286414
564.944 .0287495
565.738 .0288637
566.532 .0289793
567.325 .0290895
568.118 .0291878
568.910 .0292741
569.702 .0293522
570.494 .0294201
571.285 .0294828
572.075 .0295460
572.865 .0296145
573.654 .0296817
574.443 .0297483
575.232 .0298136
576.020 .0298761
576.807 .0299367
577.594 .0299914
578.381 .0300401
579.167 .0300865
579.952 .0301315
580.738 .0301772
581.522 .0302235
582.307 .0302705
583.091 .0303149
583.874 .0303558
584.657 .0303907
585.440 .0304149
586.222 .0304306
587.004 .0304396
587.785 .0304454
588.566 .0304491
589.346 .0304508
590.126 .0304529
590.906 .0304576
591.685 .0304632
592.464 .0304688
593.242 .0304744
594.020 .0304800
594.797 .0304844
595.575 .0304872
596.351 .0304897
597.128 .0304929
597.904 .0304962
598.679 .0305000
599.454 .0305030
600.229 .0305067
601.004 .0305079
601.778 .0305059
602.551 .0305021
603.325 .0304957
604.097 .0304857
604.870 .0304723
605.642 .0304559
606.414 .0304370
607.185 .0304159
607.956 .0303941
608.727 .0303716
609.497 .0303500
610.267 .0303285
611.037 .0303071
611.806 .0302865
612.575 .0302668
613.344 .0302464
614.112 .0302267
614.880 .0302084
615.647 .0301915
616.414 .0301752
617.181 .0301612
617.948 .0301492
618.714 .0301390
619.480 .0301294
620.245 .0301202
621.011 .0301102
621.775 .0300999
622.540 .0300883
623.304 .0300764
624.068 .0300646
624.832 .0300536
625.595 .0300426
626.358 .0300322
627.120 .0300219
627.883 .0300107
628.645 .0299982
629.406 .0299844
630.168 .0299683
630.929 .0299501
631.689 .0299304
632.450 .0299109
633.210 .0298910
633.970 .0298716
634.729 .0298531
635.489 .0298346
636.248 .0298156
637.006 .0297956
637.765 .0297749
638.523 .0297537
639.280 .0297335
640.038 .0297136
640.795 .0296943
641.552 .0296769
642.309 .0296617
643.065 .0296479
643.821 .0296359
644.577 .0296247
645.332 .0296138
646.088 .0296035
646.843 .0295942
647.597 .0295840
648.352 .0295748
649.106 .0295665
649.860 .0295583
650.613 .0295495
651.367 .0295404
652.120 .0295301
652.872 .0295190
653.625 .0295078
654.377 .0294959
655.129 .0294831
655.881 .0294704
656.632 .0294569
657.384 .0294421
658.135 .0294264
658.885 .0294088
659.636 .0293897
660.386 .0293703
661.136 .0293503
661.885 .0293292
662.635 .0293093
663.384 .0292906
664.133 .0292728
664.881 .0292557
665.630 .0292391
666.378 .0292222
667.126 .0292050
667.874 .0291881
668.621 .0291710
669.368 .0291546
670.115 .0291393
670.862 .0291239
671.608 .0291097
672.354 .0290957
673.100 .0290812
673.846 .0290659
674.591 .0290506
675.337 .0290350
676.082 .0290193
676.826 .0290043
677.571 .0289906
678.315 .0289781
679.059 .0289674
679.803 .0289575
680.547 .0289478
681.290 .0289382
682.033 .0289284
682.776 .0289177
683.518 .0289068
684.261 .0288957
685.003 .0288849
685.745 .0288746
686.487 .0288649
687.228 .0288542
687.969 .0288423
688.710 .0288287
689.451 .0288123
690.192 .0287928
690.932 .0287706
691.672 .0287462
692.412 .0287205
693.152 .0286941
693.891 .0286672
694.630 .0286404
695.369 .0286138
696.108 .0285866
696.846 .0285584
697.585 .0285285
698.323 .0284970
699.061 .0284647
699.798 .0284326
700.536 .0284010
701.273 .0283708
702.010 .0283428
702.746 .0283164
703.483 .0282919
704.219 .0282679
704.955 .0282443
705.691 .0282206
706.427 .0281965
707.162 .0281714
707.897 .0281465
708.632 .0281225
709.367 .0280995
710.101 .0280778
710.835 .0280585
711.569 .0280405
712.303 .0280241
713.037 .0280085
713.770 .0279931
714.503 .0279771
715.236 .0279607
715.969 .0279426
716.702 .0279237
717.434 .0279046
718.166 .0278848
718.898 .0278651
719.629 .0278469
720.361 .0278295
721.092 .0278125
721.823 .0277963
722.554 .0277797
723.284 .0277619
724.014 .0277429
724.744 .0277224
725.474 .0277004
726.204 .0276784
726.933 .0276565
727.662 .0276354
728.391 .0276164
729.120 .0275989
729.849 .0275821
730.577 .0275665
731.305 .0275509
732.033 .0275342
732.760 .0275166
733.488 .0274987
734.215 .0274798
734.942 .0274613
735.669 .0274429
736.395 .0274252
737.122 .0274085
737.848 .0273926
738.573 .0273766
739.299 .0273612
740.024 .0273463
740.750 .0273308
741.474 .0273153
742.199 .0273003
742.924 .0272852
743.648 .0272711
744.372 .0272574
745.096 .0272448
745.819 .0272330
746.543 .0272230
747.266 .0272142
747.989 .0272074
748.711 .0272028
749.434 .0271997
750.156 .0271988
750.878 .0271992
751.599 .0272008
752.321 .0272032
753.042 .0272068
753.763 .0272109
754.484 .0272155
755.205 .0272207
755.925 .0272268
756.645 .0272336
757.365 .0272405
758.085 .0272464
758.804 .0272511
759.523 .0272534
760.242 .0272526
760.961 .0272473
761.679 .0272388
762.397 .0272262
763.115 .0272111
763.833 .0271936
764.551 .0271750
765.268 .0271558
765.985 .0271362
766.702 .0271170
767.418 .0270976
768.134 .0270776
768.850 .0270576
769.566 .0270367
770.282 .0270164
770.997 .0269955
771.712 .0269762
772.427 .0269584
773.142 .0269428
773.856 .0269290
774.570 .0269168
775.284 .0269057
775.998 .0268954
776.711 .0268848
777.424 .0268741
778.137 .0268630
778.849 .0268519
779.562 .0268409
780.274 .0268310
780.986 .0268222
781.697 .0268153
782.409 .0268095
783.120 .0268053
783.831 .0268011
784.541 .0267973
785.252 .0267936
785.962 .0267892
786.671 .0267846
787.381 .0267798
788.090 .0267744
788.799 .0267690
789.508 .0267624
790.217 .0267546
790.925 .0267454
791.633 .0267346
792.341 .0267209
793.048 .0267051
793.755 .0266870
794.462 .0266674
795.169 .0266467
795.875 .0266259
796.581 .0266054
797.287 .0265859
797.993 .0265681
798.698 .0265524
799.403 .0265392
800.108 .0265284
800.812 .0265200
801.517 .0265144
802.221 .0265112
802.924 .0265095
803.628 .0265086
804.331 .0265085
805.034 .0265082
805.736 .0265072
806.439 .0265049
807.141 .0265015
807.843 .0264971
808.544 .0264908
809.245 .0264832
809.946 .0264736
810.647 .0264620
811.347 .0264478
812.047 .0264311
812.747 .0264122
813.447 .0263910
814.146 .0263686
814.845 .0263456
815.543 .0263235
816.242 .0263025
816.940 .0262824
817.638 .0262641
818.335 .0262477
819.032 .0262329
819.729 .0262186
820.426 .0262054
821.122 .0261922
821.818 .0261793
822.514 .0261669
823.209 .0261550
823.905 .0261432
824.599 .0261320
825.294 .0261211
825.988 .0261107
826.682 .0261002
827.376 .0260891
828.069 .0260771
828.762 .0260644
829.455 .0260493
830.147 .0260319
830.840 .0260130
831.531 .0259936
832.223 .0259736
832.914 .0259540
833.605 .0259352
834.296 .0259173
834.986 .0259003
835.676 .0258837
836.366 .0258669
837.055 .0258493
837.744 .0258306
838.433 .0258107
839.121 .0257904
839.809 .0257709
840.497 .0257528
841.185 .0257375
841.872 .0257253
842.559 .0257160
843.245 .0257091
843.932 .0257041
844.617 .0257003
845.303 .0256961
845.988 .0256908
846.673 .0256843
847.358 .0256769
848.042 .0256688
848.726 .0256605
849.410 .0256519
850.093 .0256432
850.776 .0256340
851.459 .0256236
852.141 .0256113
852.823 .0255970
853.505 .0255803
854.186 .0255610
854.867 .0255395
855.548 .0255168
856.228 .0254940
856.908 .0254720
857.588 .0254510
858.267 .0254317
858.946 .0254139
859.625 .0253977
860.303 .0253824
860.981 .0253682
861.659 .0253546
862.336 .0253416
863.013 .0253284
863.690 .0253155
864.366 .0253027
865.042 .0252903
865.718 .0252779
866.393 .0252656
867.068 .0252527
867.743 .0252391
868.417 .0252244
869.091 .0252094
869.765 .0251940
870.438 .0251783
871.111 .0251624
871.783 .0251466
872.456 .0251310
873.127 .0251155
873.799 .0251002
874.470 .0250852
875.141 .0250705
875.811 .0250565
876.481 .0250433
877.151 .0250313
877.820 .0250207
878.489 .0250116
879.158 .0250035
879.826 .0249963
880.494 .0249892
881.162 .0249813
881.829 .0249726
882.496 .0249628
883.163 .0249519
883.829 .0249401
884.495 .0249277
885.160 .0249163
885.825 .0249057
886.490 .0248966
887.154 .0248888
887.818 .0248820
888.482 .0248760
889.145 .0248693
889.808 .0248614
890.471 .0248519
891.133 .0248407
891.795 .0248281
892.456 .0248142
893.117 .0248001
893.778 .0247867
894.439 .0247748
895.099 .0247647
895.758 .0247562
896.417 .0247489
897.076 .0247422
897.735 .0247355
898.393 .0247280
899.051 .0247198
899.708 .0247111
900.365 .0247023
901.022 .0246943
901.678 .0246877
902.334 .0246831
902.990 .0246802
903.645 .0246794
904.300 .0246799
904.954 .0246808
905.608 .0246815
906.262 .0246812
906.915 .0246798
907.568 .0246769
908.221 .0246729
908.873 .0246674
909.525 .0246612
910.176 .0246538
910.828 .0246451
911.478 .0246356
912.129 .0246253
912.778 .0246144
913.428 .0246031
914.077 .0245918
914.726 .0245810
915.375 .0245708
916.023 .0245613
916.670 .0245521
917.318 .0245436
917.964 .0245349
918.611 .0245253
919.257 .0245154
919.903 .0245057
920.548 .0244961
921.193 .0244881
921.838 .0244817
922.482 .0244770
923.126 .0244749
923.770 .0244745
924.413 .0244751
925.056 .0244759
925.698 .0244760
926.340 .0244742
926.982 .0244703
927.623 .0244644
928.264 .0244565
928.904 .0244474
929.544 .0244381
930.184 .0244290
930.823 .0244205
931.462 .0244131
932.101 .0244062
932.739 .0243999
933.377 .0243935
934.014 .0243855
934.651 .0243758
935.288 .0243641
935.924 .0243514
936.560 .0243377
937.196 .0243236
937.831 .0243103
938.466 .0242978
939.100 .0242866
939.734 .0242761
940.368 .0242659
941.001 .0242558
941.634 .0242457
942.266 .0242345
942.899 .0242227
943.530 .0242108
944.162 .0241989
944.793 .0241872
945.423 .0241758
946.053 .0241648
946.683 .0241533
947.313 .0241424
947.942 .0241314
948.571 .0241200
949.199 .0241088
949.827 .0240976
950.455 .0240867
951.082 .0240768
951.709 .0240674
952.335 .0240583
952.961 .0240495
953.587 .0240407
954.212 .0240309
954.837 .0240210
955.462 .0240110
956.086 .0240015
956.710 .0239928
957.334 .0239855
957.957 .0239790
958.579 .0239742
959.202 .0239702
959.824 .0239669
960.445 .0239633
961.067 .0239592
961.688 .0239546
962.308 .0239496
962.928 .0239447
963.548 .0239400
964.168 .0239356
964.787 .0239316
965.406 .0239274
966.024 .0239232
966.642 .0239182
967.260 .0239131
967.877 .0239075
968.494 .0239015
969.110 .0238951
969.727 .0238880
970.342 .0238809
970.958 .0238735
971.573 .0238666
972.188 .0238600
972.802 .0238530
973.416 .0238459
974.030 .0238387
974.643 .0238311
975.256 .0238235
975.869 .0238157
976.481 .0238078
977.093 .0238002
977.705 .0237937
978.316 .0237878
978.927 .0237835
979.538 .0237812
980.148 .0237803
980.758 .0237804
981.367 .0237821
981.977 .0237842
982.586 .0237864
983.194 .0237887
983.802 .0237907
984.410 .0237919
985.018 .0237932
985.625 .0237940
986.232 .0237945
986.838 .0237951
987.445 .0237956
988.050 .0237954
988.656 .0237947
989.261 .0237930
989.866 .0237898
990.471 .0237859
991.075 .0237816
991.679 .0237771
992.282 .0237734
992.886 .0237709
993.489 .0237702
994.091 .0237714
994.694 .0237744
995.296 .0237787
995.897 .0237840
996.499 .0237901
997.100 .0237958
997.701 .0238017
998.301 .0238072
998.901 .0238130
999.501 .0238184
1000.101 .0238232
1000.700 .0238274
1001.299 .0238313
1001.898 .0238345
1002.496 .0238369
1003.094 .0238383
1003.692 .0238396
1004.289 .0238402
1004.887 .0238410
1005.484 .0238411
1006.080 .0238415
1006.677 .0238408
1007.273 .0238397
1007.868 .0238376
1008.464 .0238353
1009.059 .0238321
1009.654 .0238295
1010.249 .0238277
1010.843 .0238271
1011.437 .0238262
1012.031 .0238250
1012.625 .0238225
1013.218 .0238196
1013.811 .0238148
1014.404 .0238086
1014.997 .0238011
1015.589 .0237938
1016.181 .0237861
1016.773 .0237795
1017.365 .0237737
1017.956 .0237685
1018.547 .0237629
1019.138 .0237567
1019.728 .0237494
1020.319 .0237405
1020.909 .0237315
1021.499 .0237234
1022.088 .0237171
1022.678 .0237125
1023.267 .0237098
1023.856 .0237098
1024.445 .0237109
1025.033 .0237126
1025.621 .0237132
1026.209 .0237132
1026.797 .0237129
1027.385 .0237115
1027.972 .0237108
1028.560 .0237110
1029.147 .0237136
1029.734 .0237171
1030.320 .0237213
1030.907 .0237247
1031.493 .0237261
1032.079 .0237257
1032.665 .0237243
1033.250 .0237218
1033.836 .0237193
1034.421 .0237183
1035.006 .0237191
1035.591 .0237221
1036.176 .0237266
1036.761 .0237314
1037.345 .0237370
1037.929 .0237411
1038.514 .0237434
1039.097 .0237437
1039.681 .0237437
1040.265 .0237439
1040.848 .0237442
1041.432 .0237455
1042.015 .0237475
1042.598 .0237499
1043.181 .0237523
1043.764 .0237534
1044.346 .0237537
1044.929 .0237530
1045.511 .0237515
1046.094 .0237480
1046.676 .0237439
1047.258 .0237387
1047.840 .0237329
1048.422 .0237255
1049.003 .0237163
1049.585 .0237044
1050.166 .0236911
1050.748 .0236772
1051.329 .0236628
1051.910 .0236491
1052.491 .0236372
1053.072 .0236248
1053.653 .0236129
1054.234 .0235999
1054.815 .0235854
1055.396 .0235690
1055.976 .0235534
1056.557 .0235374
1057.138 .0235228
1057.718 .0235105
1058.298 .0235018
1058.879 .0234971
1059.459 .0234949
1060.039 .0234942
1060.620 .0234927
1061.200 .0234905
1061.780 .0234859
1062.360 .0234769
1062.940 .0234670
1063.520 .0234557
1064.101 .0234445
1064.681 .0234326
1065.261 .0234212
1065.841 .0234095
1066.421 .0233974
1067.001 .0233843
1067.581 .0233694
1068.161 .0233527
1068.741 .0233356
1069.321 .0233206
1069.901 .0233078
1070.482 .0232977
1071.062 .0232897
1071.642 .0232822
1072.222 .0232764
1072.803 .0232691
1073.383 .0232608
1073.963 .0232505
1074.544 .0232415
1075.124 .0232353
1075.705 .0232311
1076.286 .0232305
1076.866 .0232345
1077.447 .0232423
1078.028 .0232537
1078.609 .0232637
1079.190 .0232728
1079.771 .0232806
1080.352 .0232881
1080.934 .0232948
1081.515 .0233022
1082.097 .0233089
1082.679 .0233175
1083.260 .0233252
1083.842 .0233331
1084.424 .0233384
1085.007 .0233421
1085.589 .0233436
1086.172 .0233419
1086.754 .0233352
1087.337 .0233241
1087.920 .0233067
1088.503 .0232873
1089.087 .0232613
1089.670 .0232308
1090.254 .0231963
1090.838 .0231608
1091.422 .0231259
1092.006 .0230943
1092.590 .0230658
1093.175 .0230417
1093.760 .0230206
1094.345 .0230030
1094.930 .0229839
1095.516 .0229638
1096.102 .0229446
1096.688 .0229280
1097.274 .0229171
1097.860 .0229137
1098.447 .0229169
1099.034 .0229310
1099.622 .0229525
1100.209 .0229783
1100.797 .0230057
1101.385 .0230322
1101.973 .0230571
1102.562 .0230774
1103.151 .0230980
1103.740 .0231192
1104.330 .0231437
1104.920 .0231727
1105.510 .0232082
1106.101 .0232454
1106.691 .0232803
1107.283 .0233078
1107.874 .0233269
1108.466 .0233363
1109.058 .0233346
1109.651 .0233245
1110.244 .0233116
1110.837 .0232974
1111.431 .0232877
1112.025 .0232781
1112.620 .0232737
1113.215 .0232705
1113.810 .0232666
1114.406 .0232601
1115.002 .0232466
1115.599 .0232246
1116.196 .0231929
1116.793 .0231548
1117.391 .0231147
1117.989 .0230736
1118.588 .0230378
1119.187 .0230110
1119.787 .0229944
1120.387 .0229874
1120.988 .0229849
1121.589 .0229857
1122.190 .0229903
1122.793 .0229920
1123.395 .0229868
1123.998 .0229771
1124.602 .0229648
1125.206 .0229537
1125.811 .0229449
1126.416 .0229414
1127.022 .0229470
1127.628 .0229615
1128.235 .0229798
1128.843 .0229982
1129.451 .0230162
1130.059 .0230329
1130.669 .0230437
1131.278 .0230516
1131.889 .0230561
1132.500 .0230591
1133.112 .0230675
1133.724 .0230834
1134.337 .0231106
1134.950 .0231504
1135.564 .0232010
1136.179 .0232604
1136.795 .0233273
1137.411 .0233985
1138.028 .0234700
1138.645 .0235477
1139.263 .0236259
1139.882 .0237018
1140.502 .0237734
1141.122 .0238378
1141.743 .0238974
1142.365 .0239562
1142.987 .0240834
1143.611 .0240823
1144.235 .0239901
1144.859 .0240595
1145.485 .0243210
