Measurement Sequence started on: 10-20-44-796
Integration time: 35
Scans to Average: 2 
>>>>>Begin Spectral Data<<<<<
432.953 .0274042
433.882 .0375364
434.810 .0341059
435.737 .0312257
436.662 .0305969
437.586 .0310923
438.509 .0308052
439.431 .0303004
440.351 .0299928
441.269 .0298224
442.187 .0297009
443.103 .0296299
444.018 .0296236
444.932 .0296914
445.844 .0298053
446.756 .0299410
447.666 .0301029
448.575 .0302624
449.482 .0304204
450.388 .0305709
451.294 .0307190
452.198 .0308814
453.100 .0310562
454.002 .0312418
454.902 .0314335
455.801 .0316131
456.699 .0317867
457.596 .0319370
458.492 .0320605
459.387 .0321452
460.280 .0322032
461.172 .0322327
462.064 .0322441
462.954 .0322262
463.843 .0321940
464.730 .0321525
465.617 .0321068
466.503 .0320563
467.387 .0320078
468.271 .0319647
469.153 .0319299
470.035 .0318991
470.915 .0318774
471.794 .0318590
472.673 .0318497
473.550 .0318414
474.426 .0318401
475.301 .0318480
476.175 .0318638
477.048 .0318839
477.920 .0319084
478.791 .0319329
479.661 .0319546
480.530 .0319662
481.398 .0319656
482.266 .0319500
483.132 .0319143
483.997 .0318626
484.861 .0317999
485.724 .0317306
486.587 .0316569
487.448 .0315835
488.308 .0315142
489.168 .0314453
490.026 .0313777
490.884 .0313100
491.741 .0312459
492.597 .0311931
493.452 .0311427
494.306 .0310993
495.159 .0310677
496.011 .0310469
496.862 .0310361
497.713 .0310334
498.562 .0310358
499.411 .0310386
500.259 .0310424
501.106 .0310416
501.952 .0310321
502.798 .0310188
503.642 .0309997
504.486 .0309718
505.329 .0309357
506.171 .0308866
507.012 .0308247
507.852 .0307544
508.692 .0306727
509.531 .0305791
510.369 .0304777
511.206 .0303687
512.043 .0302589
512.878 .0301456
513.713 .0300362
514.547 .0299233
515.381 .0298141
516.213 .0297028
517.045 .0295824
517.876 .0294515
518.706 .0293022
519.536 .0291427
520.365 .0289721
521.193 .0287913
522.020 .0286150
522.847 .0284401
523.673 .0282775
524.498 .0281199
525.323 .0279765
526.146 .0278390
526.969 .0277079
527.792 .0275703
528.614 .0274225
529.435 .0272680
530.255 .0271082
531.075 .0269382
531.894 .0267756
532.712 .0266302
533.530 .0264993
534.347 .0263815
535.163 .0262783
535.979 .0261830
536.794 .0260978
537.608 .0260053
538.422 .0259153
539.235 .0258180
540.048 .0257258
540.860 .0256341
541.671 .0255538
542.481 .0254898
543.292 .0254388
544.101 .0254083
544.910 .0253962
545.718 .0254028
546.526 .0254249
547.333 .0254532
548.139 .0254969
548.945 .0255470
549.750 .0256001
550.555 .0256514
551.359 .0257094
552.162 .0257669
552.965 .0258221
553.768 .0258748
554.569 .0259271
555.371 .0259779
556.171 .0260273
556.972 .0260754
557.771 .0261220
558.570 .0261730
559.369 .0262262
560.167 .0262868
560.964 .0263598
561.761 .0264385
562.558 .0265253
563.354 .0266150
564.149 .0267113
564.944 .0268081
565.738 .0269088
566.532 .0270132
567.325 .0271202
568.118 .0272314
568.910 .0273407
569.702 .0274487
570.494 .0275552
571.285 .0276613
572.075 .0277660
572.865 .0278648
573.654 .0279583
574.443 .0280442
575.232 .0281285
576.020 .0282085
576.807 .0282871
577.594 .0283646
578.381 .0284421
579.167 .0285144
579.952 .0285788
580.738 .0286382
581.522 .0286930
582.307 .0287440
583.091 .0287932
583.874 .0288407
584.657 .0288876
585.440 .0289338
586.222 .0289798
587.004 .0290224
587.785 .0290615
588.566 .0290943
589.346 .0291205
590.126 .0291395
590.906 .0291536
591.685 .0291648
592.464 .0291760
593.242 .0291898
594.020 .0292052
594.797 .0292209
595.575 .0292367
596.351 .0292520
597.128 .0292646
597.904 .0292725
598.679 .0292772
599.454 .0292782
600.229 .0292759
601.004 .0292728
601.778 .0292689
602.551 .0292640
603.325 .0292601
604.097 .0292552
604.870 .0292481
605.642 .0292395
606.414 .0292284
607.185 .0292145
607.956 .0291995
608.727 .0291848
609.497 .0291695
610.267 .0291551
611.037 .0291427
611.806 .0291301
612.575 .0291182
613.344 .0291067
614.112 .0290934
614.880 .0290796
615.647 .0290650
616.414 .0290491
617.181 .0290330
617.948 .0290169
618.714 .0290005
619.480 .0289846
620.245 .0289690
621.011 .0289531
621.775 .0289362
622.540 .0289197
623.304 .0289029
624.068 .0288861
624.832 .0288697
625.595 .0288533
626.358 .0288378
627.120 .0288233
627.883 .0288082
628.645 .0287940
629.406 .0287795
630.168 .0287654
630.929 .0287519
631.689 .0287386
632.450 .0287256
633.210 .0287132
633.970 .0287014
634.729 .0286897
635.489 .0286771
636.248 .0286640
637.006 .0286492
637.765 .0286338
638.523 .0286168
639.280 .0285982
640.038 .0285796
640.795 .0285607
641.552 .0285415
642.309 .0285224
643.065 .0285031
643.821 .0284845
644.577 .0284660
645.332 .0284476
646.088 .0284290
646.843 .0284105
647.597 .0283918
648.352 .0283729
649.106 .0283540
649.860 .0283350
650.613 .0283165
651.367 .0282995
652.120 .0282841
652.872 .0282698
653.625 .0282575
654.377 .0282468
655.129 .0282372
655.881 .0282279
656.632 .0282176
657.384 .0282063
658.135 .0281941
658.885 .0281806
659.636 .0281655
660.386 .0281499
661.136 .0281349
661.885 .0281201
662.635 .0281063
663.384 .0280932
664.133 .0280808
664.881 .0280685
665.630 .0280561
666.378 .0280435
667.126 .0280302
667.874 .0280170
668.621 .0280040
669.368 .0279917
670.115 .0279807
670.862 .0279709
671.608 .0279629
672.354 .0279568
673.100 .0279519
673.846 .0279474
674.591 .0279429
675.337 .0279391
676.082 .0279353
676.826 .0279319
677.571 .0279284
678.315 .0279250
679.059 .0279214
679.803 .0279172
680.547 .0279122
681.290 .0279054
682.033 .0278964
682.776 .0278848
683.518 .0278697
684.261 .0278515
685.003 .0278300
685.745 .0278066
686.487 .0277814
687.228 .0277557
687.969 .0277292
688.710 .0277024
689.451 .0276754
690.192 .0276487
690.932 .0276214
691.672 .0275946
692.412 .0275685
693.152 .0275438
693.891 .0275212
694.630 .0275014
695.369 .0274845
696.108 .0274709
696.846 .0274598
697.585 .0274513
698.323 .0274440
699.061 .0274381
699.798 .0274321
700.536 .0274264
701.273 .0274197
702.010 .0274126
702.746 .0274046
703.483 .0273958
704.219 .0273853
704.955 .0273732
705.691 .0273587
706.427 .0273423
707.162 .0273242
707.897 .0273044
708.632 .0272834
709.367 .0272627
710.101 .0272420
710.835 .0272217
711.569 .0272023
712.303 .0271844
713.037 .0271673
713.770 .0271515
714.503 .0271356
715.236 .0271202
715.969 .0271058
716.702 .0270923
717.434 .0270798
718.166 .0270680
718.898 .0270574
719.629 .0270472
720.361 .0270375
721.092 .0270279
721.823 .0270181
722.554 .0270087
723.284 .0269989
724.014 .0269884
724.744 .0269770
725.474 .0269645
726.204 .0269515
726.933 .0269372
727.662 .0269219
728.391 .0269056
729.120 .0268889
729.849 .0268722
730.577 .0268559
731.305 .0268402
732.033 .0268249
732.760 .0268096
733.488 .0267946
734.215 .0267789
734.942 .0267619
735.669 .0267441
736.395 .0267254
737.122 .0267060
737.848 .0266866
738.573 .0266673
739.299 .0266488
740.024 .0266315
740.750 .0266153
741.474 .0266001
742.199 .0265861
742.924 .0265733
743.648 .0265610
744.372 .0265491
745.096 .0265380
745.819 .0265261
746.543 .0265138
747.266 .0265007
747.989 .0264875
748.711 .0264742
749.434 .0264609
750.156 .0264480
750.878 .0264358
751.599 .0264248
752.321 .0264149
753.042 .0264056
753.763 .0263970
754.484 .0263884
755.205 .0263795
755.925 .0263702
756.645 .0263608
757.365 .0263517
758.085 .0263436
758.804 .0263360
759.523 .0263294
760.242 .0263230
760.961 .0263161
761.679 .0263089
762.397 .0262999
763.115 .0262885
763.833 .0262743
764.551 .0262579
765.268 .0262389
765.985 .0262184
766.702 .0261969
767.418 .0261746
768.134 .0261526
768.850 .0261310
769.566 .0261092
770.282 .0260881
770.997 .0260680
771.712 .0260483
772.427 .0260288
773.142 .0260103
773.856 .0259919
774.570 .0259744
775.284 .0259575
775.998 .0259418
776.711 .0259272
777.424 .0259145
778.137 .0259029
778.849 .0258922
779.562 .0258828
780.274 .0258732
780.986 .0258630
781.697 .0258521
782.409 .0258394
783.120 .0258254
783.831 .0258099
784.541 .0257931
785.252 .0257757
785.962 .0257586
786.671 .0257418
787.381 .0257258
788.090 .0257105
788.799 .0256955
789.508 .0256796
790.217 .0256626
790.925 .0256438
791.633 .0256227
792.341 .0256002
793.048 .0255765
793.755 .0255529
794.462 .0255308
795.169 .0255104
795.875 .0254927
796.581 .0254776
797.287 .0254644
797.993 .0254516
798.698 .0254387
799.403 .0254254
800.108 .0254110
800.812 .0253959
801.517 .0253809
802.221 .0253667
802.924 .0253541
803.628 .0253431
804.331 .0253335
805.034 .0253248
805.736 .0253162
806.439 .0253065
807.141 .0252954
807.843 .0252827
808.544 .0252685
809.245 .0252532
809.946 .0252379
810.647 .0252233
811.347 .0252096
812.047 .0251974
812.747 .0251864
813.447 .0251765
814.146 .0251668
814.845 .0251573
815.543 .0251473
816.242 .0251376
816.940 .0251283
817.638 .0251186
818.335 .0251091
819.032 .0251005
819.729 .0250919
820.426 .0250837
821.122 .0250754
821.818 .0250663
822.514 .0250564
823.209 .0250455
823.905 .0250335
824.599 .0250203
825.294 .0250065
825.988 .0249921
826.682 .0249771
827.376 .0249625
828.069 .0249481
828.762 .0249339
829.455 .0249207
830.147 .0249082
830.840 .0248959
831.531 .0248841
832.223 .0248734
832.914 .0248632
833.605 .0248537
834.296 .0248448
834.986 .0248362
835.676 .0248281
836.366 .0248205
837.055 .0248131
837.744 .0248059
838.433 .0247994
839.121 .0247929
839.809 .0247865
840.497 .0247814
841.185 .0247768
841.872 .0247727
842.559 .0247694
843.245 .0247668
843.932 .0247645
844.617 .0247627
845.303 .0247614
845.988 .0247606
846.673 .0247605
847.358 .0247606
848.042 .0247604
848.726 .0247602
849.410 .0247594
850.093 .0247576
850.776 .0247550
851.459 .0247513
852.141 .0247449
852.823 .0247369
853.505 .0247276
854.186 .0247171
854.867 .0247064
855.548 .0246957
856.228 .0246856
856.908 .0246771
857.588 .0246694
858.267 .0246628
858.946 .0246569
859.625 .0246520
860.303 .0246469
860.981 .0246421
861.659 .0246376
862.336 .0246337
863.013 .0246309
863.690 .0246296
864.366 .0246291
865.042 .0246291
865.718 .0246287
866.393 .0246278
867.068 .0246254
867.743 .0246216
868.417 .0246160
869.091 .0246096
869.765 .0246021
870.438 .0245941
871.111 .0245860
871.783 .0245780
872.456 .0245697
873.127 .0245611
873.799 .0245516
874.470 .0245410
875.141 .0245295
875.811 .0245177
876.481 .0245053
877.151 .0244935
877.820 .0244820
878.489 .0244711
879.158 .0244605
879.826 .0244503
880.494 .0244399
881.162 .0244300
881.829 .0244206
882.496 .0244111
883.163 .0244014
883.829 .0243930
884.495 .0243848
885.160 .0243776
885.825 .0243709
886.490 .0243647
887.154 .0243586
887.818 .0243531
888.482 .0243474
889.145 .0243418
889.808 .0243367
890.471 .0243323
891.133 .0243277
891.795 .0243236
892.456 .0243194
893.117 .0243155
893.778 .0243118
894.439 .0243088
895.099 .0243056
895.758 .0243024
896.417 .0242994
897.076 .0242964
897.735 .0242931
898.393 .0242900
899.051 .0242869
899.708 .0242837
900.365 .0242807
901.022 .0242770
901.678 .0242722
902.334 .0242672
902.990 .0242616
903.645 .0242548
904.300 .0242469
904.954 .0242385
905.608 .0242290
906.262 .0242193
906.915 .0242102
907.568 .0242005
908.221 .0241911
908.873 .0241817
909.525 .0241720
910.176 .0241614
910.828 .0241510
911.478 .0241398
912.129 .0241280
912.778 .0241165
913.428 .0241045
914.077 .0240917
914.726 .0240796
915.375 .0240673
916.023 .0240550
916.670 .0240426
917.318 .0240303
917.964 .0240171
918.611 .0240041
919.257 .0239914
919.903 .0239793
920.548 .0239687
921.193 .0239596
921.838 .0239517
922.482 .0239456
923.126 .0239410
923.770 .0239376
924.413 .0239351
925.056 .0239336
925.698 .0239316
926.340 .0239297
926.982 .0239272
927.623 .0239243
928.264 .0239211
928.904 .0239168
929.544 .0239112
930.184 .0239042
930.823 .0238945
931.462 .0238827
932.101 .0238691
932.739 .0238534
933.377 .0238350
934.014 .0238151
934.651 .0237939
935.288 .0237716
935.924 .0237499
936.560 .0237286
937.196 .0237078
937.831 .0236879
938.466 .0236681
939.100 .0236482
939.734 .0236289
940.368 .0236097
941.001 .0235901
941.634 .0235712
942.266 .0235521
942.899 .0235322
943.530 .0235121
944.162 .0234923
944.793 .0234723
945.423 .0234516
946.053 .0234304
946.683 .0234084
947.313 .0233857
947.942 .0233623
948.571 .0233380
949.199 .0233137
949.827 .0232886
950.455 .0232639
951.082 .0232396
951.709 .0232165
952.335 .0231943
952.961 .0231737
953.587 .0231542
954.212 .0231356
954.837 .0231174
955.462 .0230991
956.086 .0230808
956.710 .0230628
957.334 .0230437
957.957 .0230244
958.579 .0230055
959.202 .0229874
959.824 .0229692
960.445 .0229514
961.067 .0229337
961.688 .0229162
962.308 .0228987
962.928 .0228813
963.548 .0228633
964.168 .0228456
964.787 .0228281
965.406 .0228101
966.024 .0227930
966.642 .0227770
967.260 .0227623
967.877 .0227489
968.494 .0227368
969.110 .0227253
969.727 .0227146
970.342 .0227046
970.958 .0226954
971.573 .0226864
972.188 .0226781
972.802 .0226697
973.416 .0226619
974.030 .0226550
974.643 .0226482
975.256 .0226422
975.869 .0226373
976.481 .0226321
977.093 .0226268
977.705 .0226209
978.316 .0226153
978.927 .0226095
979.538 .0226034
980.148 .0225965
980.758 .0225894
981.367 .0225823
981.977 .0225745
982.586 .0225665
983.194 .0225591
983.802 .0225519
984.410 .0225449
985.018 .0225382
985.625 .0225317
986.232 .0225252
986.838 .0225195
987.445 .0225135
988.050 .0225074
988.656 .0225008
989.261 .0224936
989.866 .0224860
990.471 .0224775
991.075 .0224680
991.679 .0224575
992.282 .0224467
992.886 .0224355
993.489 .0224235
994.091 .0224116
994.694 .0224001
995.296 .0223898
995.897 .0223802
996.499 .0223716
997.100 .0223636
997.701 .0223569
998.301 .0223505
998.901 .0223449
999.501 .0223398
1000.101 .0223357
1000.700 .0223332
1001.299 .0223325
1001.898 .0223340
1002.496 .0223371
1003.094 .0223423
1003.692 .0223494
1004.289 .0223572
1004.887 .0223655
1005.484 .0223730
1006.080 .0223798
1006.677 .0223852
1007.273 .0223886
1007.868 .0223896
1008.464 .0223896
1009.059 .0223885
1009.654 .0223861
1010.249 .0223835
1010.843 .0223809
1011.437 .0223788
1012.031 .0223766
1012.625 .0223756
1013.218 .0223744
1013.811 .0223735
1014.404 .0223727
1014.997 .0223718
1015.589 .0223719
1016.181 .0223731
1016.773 .0223745
1017.365 .0223782
1017.956 .0223838
1018.547 .0223909
1019.138 .0223983
1019.728 .0224065
1020.319 .0224149
1020.909 .0224231
1021.499 .0224300
1022.088 .0224363
1022.678 .0224409
1023.267 .0224447
1023.856 .0224468
1024.445 .0224481
1025.033 .0224486
1025.621 .0224486
1026.209 .0224472
1026.797 .0224453
1027.385 .0224424
1027.972 .0224399
1028.560 .0224380
1029.147 .0224373
1029.734 .0224390
1030.320 .0224415
1030.907 .0224450
1031.493 .0224499
1032.079 .0224532
1032.665 .0224568
1033.250 .0224589
1033.836 .0224598
1034.421 .0224593
1035.006 .0224586
1035.591 .0224582
1036.176 .0224578
1036.761 .0224597
1037.345 .0224622
1037.929 .0224644
1038.514 .0224671
1039.097 .0224688
1039.681 .0224696
1040.265 .0224715
1040.848 .0224741
1041.432 .0224781
1042.015 .0224869
1042.598 .0224985
1043.181 .0225130
1043.764 .0225312
1044.346 .0225521
1044.929 .0225732
1045.511 .0225937
1046.094 .0226134
1046.676 .0226306
1047.258 .0226467
1047.840 .0226623
1048.422 .0226769
1049.003 .0226940
1049.585 .0227124
1050.166 .0227296
1050.748 .0227460
1051.329 .0227601
1051.910 .0227692
1052.491 .0227745
1053.072 .0227767
1053.653 .0227759
1054.234 .0227739
1054.815 .0227727
1055.396 .0227725
1055.976 .0227747
1056.557 .0227784
1057.138 .0227827
1057.718 .0227859
1058.298 .0227869
1058.879 .0227826
1059.459 .0227748
1060.039 .0227658
1060.620 .0227546
1061.200 .0227436
1061.780 .0227350
1062.360 .0227277
1062.940 .0227223
1063.520 .0227176
1064.101 .0227120
1064.681 .0227056
1065.261 .0226973
1065.841 .0226851
1066.421 .0226716
1067.001 .0226581
1067.581 .0226457
1068.161 .0226346
1068.741 .0226267
1069.321 .0226199
1069.901 .0226139
1070.482 .0226102
1071.062 .0226046
1071.642 .0225993
1072.222 .0225943
1072.803 .0225893
1073.383 .0225858
1073.963 .0225842
1074.544 .0225846
1075.124 .0225890
1075.705 .0225974
1076.286 .0226069
1076.866 .0226179
1077.447 .0226308
1078.028 .0226427
1078.609 .0226536
1079.190 .0226632
1079.771 .0226712
1080.352 .0226778
1080.934 .0226853
1081.515 .0226903
1082.097 .0226960
1082.679 .0227021
1083.260 .0227082
1083.842 .0227145
1084.424 .0227214
1085.007 .0227266
1085.589 .0227310
1086.172 .0227358
1086.754 .0227381
1087.337 .0227373
1087.920 .0227374
1088.503 .0227369
1089.087 .0227378
1089.670 .0227406
1090.254 .0227448
1090.838 .0227511
1091.422 .0227602
1092.006 .0227679
1092.590 .0227732
1093.175 .0227776
1093.760 .0227804
1094.345 .0227801
1094.930 .0227770
1095.516 .0227748
1096.102 .0227735
1096.688 .0227754
1097.274 .0227799
1097.860 .0227843
1098.447 .0227884
1099.034 .0227892
1099.622 .0227847
1100.209 .0227754
1100.797 .0227632
1101.385 .0227494
1101.973 .0227356
1102.562 .0227254
1103.151 .0227187
1103.740 .0227157
1104.330 .0227161
1104.920 .0227205
1105.510 .0227243
1106.101 .0227267
1106.691 .0227287
1107.283 .0227301
1107.874 .0227341
1108.466 .0227405
1109.058 .0227499
1109.651 .0227654
1110.244 .0227845
1110.837 .0228075
1111.431 .0228313
1112.025 .0228591
1112.620 .0228860
1113.215 .0229075
1113.810 .0229243
1114.406 .0229357
1115.002 .0229408
1115.599 .0229388
1116.196 .0229310
1116.793 .0229173
1117.391 .0228992
1117.989 .0228807
1118.588 .0228616
1119.187 .0228471
1119.787 .0228371
1120.387 .0228320
1120.988 .0228295
1121.589 .0228320
1122.190 .0228382
1122.793 .0228458
1123.395 .0228562
1123.998 .0228723
1124.602 .0228945
1125.206 .0229261
1125.811 .0229670
1126.416 .0230183
1127.022 .0230750
1127.628 .0231345
1128.235 .0231837
1128.843 .0232239
1129.451 .0232530
1130.059 .0232706
1130.669 .0232817
1131.278 .0232897
1131.889 .0232996
1132.500 .0233101
1133.112 .0233207
1133.724 .0233322
1134.337 .0233378
1134.950 .0233384
1135.564 .0233306
1136.179 .0233200
1136.795 .0233140
1137.411 .0233176
1138.028 .0233371
1138.645 .0233796
1139.263 .0234445
1139.882 .0235191
1140.502 .0236042
1141.122 .0237151
1141.743 .0238450
1142.365 .0239919
1142.987 .0238289
1143.611 .0240487
1144.235 .0246855
1144.859 .0249088
1145.485 .0250444
