Measurement Sequence started on: 10-20-44-796
Integration time: 35
Scans to Average: 2 
>>>>>Begin Spectral Data<<<<<
432.953 .0444513
433.882 .0361468
434.810 .0418185
435.737 .0409782
436.662 .0411649
437.586 .0403900
438.509 .0401194
439.431 .0400292
440.351 .0397644
441.269 .0395668
442.187 .0394144
443.103 .0393134
444.018 .0392557
444.932 .0392331
445.844 .0392336
446.756 .0392360
447.666 .0392177
448.575 .0391886
449.482 .0391464
450.388 .0391041
451.294 .0390412
452.198 .0389698
453.100 .0388898
454.002 .0388048
454.902 .0387088
455.801 .0386066
456.699 .0385034
457.596 .0383946
458.492 .0382813
459.387 .0381645
460.280 .0380448
461.172 .0379332
462.064 .0378225
462.954 .0377219
463.843 .0376217
464.730 .0375243
465.617 .0374324
466.503 .0373377
467.387 .0372430
468.271 .0371471
469.153 .0370590
470.035 .0369747
470.915 .0369048
471.794 .0368458
472.673 .0367955
473.550 .0367589
474.426 .0367311
475.301 .0367053
476.175 .0366830
477.048 .0366582
477.920 .0366282
478.791 .0365908
479.661 .0365550
480.530 .0365205
481.398 .0364917
482.266 .0364725
483.132 .0364638
483.997 .0364630
484.861 .0364668
485.724 .0364697
486.587 .0364702
487.448 .0364621
488.308 .0364413
489.168 .0364061
490.026 .0363578
490.884 .0362999
491.741 .0362342
492.597 .0361687
493.452 .0361068
494.306 .0360528
495.159 .0360007
496.011 .0359559
496.862 .0359157
497.713 .0358721
498.562 .0358194
499.411 .0357588
500.259 .0356874
501.106 .0356059
501.952 .0355165
502.798 .0354258
503.642 .0353365
504.486 .0352549
505.329 .0351766
506.171 .0351053
507.012 .0350387
507.852 .0349748
508.692 .0349043
509.531 .0348248
510.369 .0347406
511.206 .0346508
512.043 .0345638
512.878 .0344754
513.713 .0343934
514.547 .0343192
515.381 .0342496
516.213 .0341837
517.045 .0341146
517.876 .0340379
518.706 .0339600
519.536 .0338692
520.365 .0337682
521.193 .0336530
522.020 .0335349
522.847 .0334103
523.673 .0332866
524.498 .0331489
525.323 .0329945
526.146 .0328210
526.969 .0326340
527.792 .0324224
528.614 .0321914
529.435 .0319573
530.255 .0317344
531.075 .0315191
531.894 .0313356
532.712 .0311693
533.530 .0310368
534.347 .0309225
535.163 .0308177
535.979 .0307092
536.794 .0306025
537.608 .0304972
538.422 .0304038
539.235 .0303306
540.048 .0302901
540.860 .0302733
541.671 .0302963
542.481 .0303378
543.292 .0303859
544.101 .0304298
544.910 .0304692
545.718 .0304836
546.526 .0304788
547.333 .0304493
548.139 .0304147
548.945 .0303875
549.750 .0303706
550.555 .0303684
551.359 .0303859
552.162 .0304134
552.965 .0304448
553.768 .0304690
554.569 .0304946
555.371 .0305102
556.171 .0305225
556.972 .0305331
557.771 .0305481
558.570 .0305763
559.369 .0306238
560.167 .0306876
560.964 .0307683
561.761 .0308561
562.558 .0309489
563.354 .0310452
564.149 .0311403
564.944 .0312313
565.738 .0313187
566.532 .0313995
567.325 .0314760
568.118 .0315498
568.910 .0316246
569.702 .0317011
570.494 .0317817
571.285 .0318623
572.075 .0319369
572.865 .0320039
573.654 .0320607
574.443 .0321079
575.232 .0321471
576.020 .0321748
576.807 .0321924
577.594 .0322076
578.381 .0322248
579.167 .0322454
579.952 .0322744
580.738 .0323114
581.522 .0323550
582.307 .0324027
583.091 .0324523
583.874 .0325010
584.657 .0325465
585.440 .0325875
586.222 .0326213
587.004 .0326512
587.785 .0326775
588.566 .0327015
589.346 .0327250
590.126 .0327486
590.906 .0327705
591.685 .0327907
592.464 .0328057
593.242 .0328156
594.020 .0328208
594.797 .0328218
595.575 .0328179
596.351 .0328111
597.128 .0328022
597.904 .0327924
598.679 .0327825
599.454 .0327715
600.229 .0327598
601.004 .0327488
601.778 .0327375
602.551 .0327258
603.325 .0327138
604.097 .0327012
604.870 .0326869
605.642 .0326717
606.414 .0326552
607.185 .0326362
607.956 .0326152
608.727 .0325929
609.497 .0325701
610.267 .0325468
611.037 .0325230
611.806 .0324995
612.575 .0324772
613.344 .0324554
614.112 .0324321
614.880 .0324087
615.647 .0323853
616.414 .0323620
617.181 .0323379
617.948 .0323136
618.714 .0322900
619.480 .0322671
620.245 .0322444
621.011 .0322220
621.775 .0322000
622.540 .0321786
623.304 .0321568
624.068 .0321356
624.832 .0321142
625.595 .0320942
626.358 .0320745
627.120 .0320559
627.883 .0320371
628.645 .0320178
629.406 .0319974
630.168 .0319758
630.929 .0319523
631.689 .0319275
632.450 .0319012
633.210 .0318752
633.970 .0318494
634.729 .0318249
635.489 .0318002
636.248 .0317759
637.006 .0317504
637.765 .0317233
638.523 .0316929
639.280 .0316597
640.038 .0316243
640.795 .0315884
641.552 .0315533
642.309 .0315205
643.065 .0314921
643.821 .0314689
644.577 .0314500
645.332 .0314344
646.088 .0314197
646.843 .0314044
647.597 .0313869
648.352 .0313673
649.106 .0313461
649.860 .0313244
650.613 .0313036
651.367 .0312850
652.120 .0312691
652.872 .0312555
653.625 .0312434
654.377 .0312317
655.129 .0312193
655.881 .0312048
656.632 .0311878
657.384 .0311687
658.135 .0311485
658.885 .0311289
659.636 .0311097
660.386 .0310917
661.136 .0310747
661.885 .0310582
662.635 .0310432
663.384 .0310283
664.133 .0310134
664.881 .0309980
665.630 .0309818
666.378 .0309650
667.126 .0309479
667.874 .0309300
668.621 .0309121
669.368 .0308943
670.115 .0308769
670.862 .0308587
671.608 .0308408
672.354 .0308229
673.100 .0308052
673.846 .0307886
674.591 .0307722
675.337 .0307554
676.082 .0307395
676.826 .0307236
677.571 .0307085
678.315 .0306934
679.059 .0306785
679.803 .0306635
680.547 .0306487
681.290 .0306336
682.033 .0306175
682.776 .0306009
683.518 .0305846
684.261 .0305673
685.003 .0305494
685.745 .0305309
686.487 .0305118
687.228 .0304927
687.969 .0304728
688.710 .0304521
689.451 .0304307
690.192 .0304086
690.932 .0303869
691.672 .0303649
692.412 .0303436
693.152 .0303227
693.891 .0303021
694.630 .0302823
695.369 .0302625
696.108 .0302426
696.846 .0302225
697.585 .0302027
698.323 .0301826
699.061 .0301622
699.798 .0301425
700.536 .0301238
701.273 .0301061
702.010 .0300899
702.746 .0300745
703.483 .0300598
704.219 .0300460
704.955 .0300316
705.691 .0300165
706.427 .0300006
707.162 .0299831
707.897 .0299644
708.632 .0299446
709.367 .0299243
710.101 .0299035
710.835 .0298830
711.569 .0298626
712.303 .0298415
713.037 .0298198
713.770 .0297967
714.503 .0297718
715.236 .0297452
715.969 .0297169
716.702 .0296876
717.434 .0296585
718.166 .0296305
718.898 .0296039
719.629 .0295804
720.361 .0295597
721.092 .0295416
721.823 .0295253
722.554 .0295104
723.284 .0294960
724.014 .0294806
724.744 .0294640
725.474 .0294458
726.204 .0294265
726.933 .0294072
727.662 .0293868
728.391 .0293664
729.120 .0293458
729.849 .0293255
730.577 .0293045
731.305 .0292828
732.033 .0292602
732.760 .0292363
733.488 .0292108
734.215 .0291842
734.942 .0291560
735.669 .0291269
736.395 .0290980
737.122 .0290695
737.848 .0290415
738.573 .0290152
739.299 .0289906
740.024 .0289687
740.750 .0289494
741.474 .0289321
742.199 .0289159
742.924 .0289006
743.648 .0288852
744.372 .0288689
745.096 .0288515
745.819 .0288339
746.543 .0288155
747.266 .0287980
747.989 .0287815
748.711 .0287667
749.434 .0287541
750.156 .0287433
750.878 .0287339
751.599 .0287249
752.321 .0287160
753.042 .0287066
753.763 .0286970
754.484 .0286871
755.205 .0286776
755.925 .0286695
756.645 .0286626
757.365 .0286578
758.085 .0286541
758.804 .0286511
759.523 .0286479
760.242 .0286433
760.961 .0286364
761.679 .0286267
762.397 .0286149
763.115 .0285997
763.833 .0285818
764.551 .0285622
765.268 .0285411
765.985 .0285191
766.702 .0284963
767.418 .0284726
768.134 .0284485
768.850 .0284244
769.566 .0283995
770.282 .0283747
770.997 .0283509
771.712 .0283281
772.427 .0283062
773.142 .0282863
773.856 .0282677
774.570 .0282506
775.284 .0282355
775.998 .0282220
776.711 .0282103
777.424 .0282003
778.137 .0281914
778.849 .0281838
779.562 .0281771
780.274 .0281707
780.986 .0281632
781.697 .0281555
782.409 .0281469
783.120 .0281373
783.831 .0281272
784.541 .0281179
785.252 .0281092
785.962 .0281016
786.671 .0280951
787.381 .0280894
788.090 .0280837
788.799 .0280766
789.508 .0280672
790.217 .0280553
790.925 .0280408
791.633 .0280243
792.341 .0280059
793.048 .0279878
793.755 .0279701
794.462 .0279534
795.169 .0279382
795.875 .0279248
796.581 .0279123
797.287 .0279000
797.993 .0278884
798.698 .0278768
799.403 .0278654
800.108 .0278552
800.812 .0278462
801.517 .0278390
802.221 .0278328
802.924 .0278280
803.628 .0278246
804.331 .0278225
805.034 .0278210
805.736 .0278192
806.439 .0278171
807.141 .0278145
807.843 .0278106
808.544 .0278051
809.245 .0277982
809.946 .0277897
810.647 .0277792
811.347 .0277673
812.047 .0277544
812.747 .0277412
813.447 .0277281
814.146 .0277161
814.845 .0277048
815.543 .0276939
816.242 .0276835
816.940 .0276728
817.638 .0276617
818.335 .0276500
819.032 .0276369
819.729 .0276228
820.426 .0276090
821.122 .0275945
821.818 .0275796
822.514 .0275653
823.209 .0275508
823.905 .0275358
824.599 .0275191
825.294 .0275012
825.988 .0274818
826.682 .0274613
827.376 .0274396
828.069 .0274165
828.762 .0273932
829.455 .0273693
830.147 .0273450
830.840 .0273213
831.531 .0272981
832.223 .0272755
832.914 .0272543
833.605 .0272352
834.296 .0272177
834.986 .0272020
835.676 .0271877
836.366 .0271751
837.055 .0271628
837.744 .0271509
838.433 .0271383
839.121 .0271259
839.809 .0271139
840.497 .0271013
841.185 .0270891
841.872 .0270773
842.559 .0270658
843.245 .0270542
843.932 .0270424
844.617 .0270303
845.303 .0270176
845.988 .0270050
846.673 .0269924
847.358 .0269802
848.042 .0269688
848.726 .0269581
849.410 .0269484
850.093 .0269398
850.776 .0269317
851.459 .0269236
852.141 .0269160
852.823 .0269088
853.505 .0269015
854.186 .0268938
854.867 .0268861
855.548 .0268778
856.228 .0268690
856.908 .0268593
857.588 .0268482
858.267 .0268359
858.946 .0268221
859.625 .0268068
860.303 .0267905
860.981 .0267737
861.659 .0267571
862.336 .0267406
863.013 .0267248
863.690 .0267095
864.366 .0266945
865.042 .0266794
865.718 .0266646
866.393 .0266499
867.068 .0266352
867.743 .0266204
868.417 .0266063
869.091 .0265930
869.765 .0265811
870.438 .0265707
871.111 .0265611
871.783 .0265526
872.456 .0265443
873.127 .0265356
873.799 .0265266
874.470 .0265168
875.141 .0265070
875.811 .0264967
876.481 .0264865
877.151 .0264758
877.820 .0264644
878.489 .0264535
879.158 .0264420
879.826 .0264288
880.494 .0264146
881.162 .0263987
881.829 .0263821
882.496 .0263653
883.163 .0263487
883.829 .0263332
884.495 .0263186
885.160 .0263050
885.825 .0262918
886.490 .0262792
887.154 .0262676
887.818 .0262558
888.482 .0262451
889.145 .0262354
889.808 .0262261
890.471 .0262179
891.133 .0262114
891.795 .0262062
892.456 .0262014
893.117 .0261969
893.778 .0261920
894.439 .0261866
895.099 .0261805
895.758 .0261738
896.417 .0261668
897.076 .0261604
897.735 .0261541
898.393 .0261480
899.051 .0261433
899.708 .0261392
900.365 .0261350
901.022 .0261306
901.678 .0261257
902.334 .0261197
902.990 .0261122
903.645 .0261033
904.300 .0260931
904.954 .0260824
905.608 .0260704
906.262 .0260575
906.915 .0260442
907.568 .0260296
908.221 .0260138
908.873 .0259967
909.525 .0259787
910.176 .0259599
910.828 .0259412
911.478 .0259230
912.129 .0259054
912.778 .0258892
913.428 .0258741
914.077 .0258603
914.726 .0258480
915.375 .0258363
916.023 .0258247
916.670 .0258136
917.318 .0258025
917.964 .0257916
918.611 .0257808
919.257 .0257705
919.903 .0257604
920.548 .0257506
921.193 .0257408
921.838 .0257316
922.482 .0257231
923.126 .0257157
923.770 .0257093
924.413 .0257041
925.056 .0256993
925.698 .0256948
926.340 .0256903
926.982 .0256856
927.623 .0256800
928.264 .0256735
928.904 .0256653
929.544 .0256568
930.184 .0256479
930.823 .0256387
931.462 .0256295
932.101 .0256206
932.739 .0256111
933.377 .0256001
934.014 .0255878
934.651 .0255737
935.288 .0255582
935.924 .0255418
936.560 .0255249
937.196 .0255079
937.831 .0254913
938.466 .0254756
939.100 .0254599
939.734 .0254448
940.368 .0254294
941.001 .0254130
941.634 .0253963
942.266 .0253791
942.899 .0253615
943.530 .0253433
944.162 .0253256
944.793 .0253082
945.423 .0252905
946.053 .0252723
946.683 .0252534
947.313 .0252334
947.942 .0252126
948.571 .0251908
949.199 .0251688
949.827 .0251474
950.455 .0251277
951.082 .0251102
951.709 .0250952
952.335 .0250821
952.961 .0250709
953.587 .0250602
954.212 .0250497
954.837 .0250384
955.462 .0250262
956.086 .0250140
956.710 .0250025
957.334 .0249918
957.957 .0249827
958.579 .0249758
959.202 .0249703
959.824 .0249652
960.445 .0249604
961.067 .0249546
961.688 .0249470
962.308 .0249380
962.928 .0249275
963.548 .0249161
964.168 .0249042
964.787 .0248923
965.406 .0248800
966.024 .0248686
966.642 .0248567
967.260 .0248440
967.877 .0248309
968.494 .0248173
969.110 .0248026
969.727 .0247878
970.342 .0247738
970.958 .0247612
971.573 .0247504
972.188 .0247419
972.802 .0247348
973.416 .0247295
974.030 .0247243
974.643 .0247185
975.256 .0247120
975.869 .0247051
976.481 .0246965
977.093 .0246869
977.705 .0246778
978.316 .0246698
978.927 .0246632
979.538 .0246591
980.148 .0246566
980.758 .0246552
981.367 .0246548
981.977 .0246540
982.586 .0246529
983.194 .0246513
983.802 .0246489
984.410 .0246459
985.018 .0246434
985.625 .0246417
986.232 .0246407
986.838 .0246412
987.445 .0246429
988.050 .0246440
988.656 .0246444
989.261 .0246434
989.866 .0246397
990.471 .0246343
991.075 .0246273
991.679 .0246183
992.282 .0246087
992.886 .0245986
993.489 .0245891
994.091 .0245799
994.694 .0245716
995.296 .0245643
995.897 .0245570
996.499 .0245511
997.100 .0245457
997.701 .0245420
998.301 .0245405
998.901 .0245409
999.501 .0245437
1000.101 .0245482
1000.700 .0245537
1001.299 .0245592
1001.898 .0245638
1002.496 .0245675
1003.094 .0245690
1003.692 .0245682
1004.289 .0245654
1004.887 .0245621
1005.484 .0245583
1006.080 .0245549
1006.677 .0245513
1007.273 .0245479
1007.868 .0245439
1008.464 .0245393
1009.059 .0245341
1009.654 .0245277
1010.249 .0245210
1010.843 .0245137
1011.437 .0245072
1012.031 .0245014
1012.625 .0244965
1013.218 .0244930
1013.811 .0244912
1014.404 .0244914
1014.997 .0244929
1015.589 .0244957
1016.181 .0245005
1016.773 .0245062
1017.365 .0245134
1017.956 .0245210
1018.547 .0245292
1019.138 .0245376
1019.728 .0245465
1020.319 .0245552
1020.909 .0245645
1021.499 .0245733
1022.088 .0245816
1022.678 .0245881
1023.267 .0245934
1023.856 .0245974
1024.445 .0246002
1025.033 .0246020
1025.621 .0246033
1026.209 .0246034
1026.797 .0246021
1027.385 .0245990
1027.972 .0245936
1028.560 .0245855
1029.147 .0245744
1029.734 .0245615
1030.320 .0245471
1030.907 .0245324
1031.493 .0245193
1032.079 .0245086
1032.665 .0245012
1033.250 .0244959
1033.836 .0244913
1034.421 .0244873
1035.006 .0244821
1035.591 .0244748
1036.176 .0244656
1036.761 .0244563
1037.345 .0244471
1037.929 .0244400
1038.514 .0244355
1039.097 .0244351
1039.681 .0244385
1040.265 .0244453
1040.848 .0244539
1041.432 .0244628
1042.015 .0244705
1042.598 .0244756
1043.181 .0244794
1043.764 .0244826
1044.346 .0244849
1044.929 .0244883
1045.511 .0244940
1046.094 .0245016
1046.676 .0245103
1047.258 .0245203
1047.840 .0245303
1048.422 .0245402
1049.003 .0245468
1049.585 .0245490
1050.166 .0245487
1050.748 .0245453
1051.329 .0245394
1051.910 .0245331
1052.491 .0245289
1053.072 .0245258
1053.653 .0245243
1054.234 .0245242
1054.815 .0245251
1055.396 .0245275
1055.976 .0245310
1056.557 .0245349
1057.138 .0245406
1057.718 .0245475
1058.298 .0245540
1058.879 .0245607
1059.459 .0245675
1060.039 .0245717
1060.620 .0245707
1061.200 .0245637
1061.780 .0245521
1062.360 .0245335
1062.940 .0245110
1063.520 .0244860
1064.101 .0244596
1064.681 .0244331
1065.261 .0244062
1065.841 .0243777
1066.421 .0243484
1067.001 .0243175
1067.581 .0242847
1068.161 .0242498
1068.741 .0242167
1069.321 .0241854
1069.901 .0241572
1070.482 .0241369
1071.062 .0241267
1071.642 .0241232
1072.222 .0241265
1072.803 .0241345
1073.383 .0241449
1073.963 .0241552
1074.544 .0241627
1075.124 .0241664
1075.705 .0241672
1076.286 .0241653
1076.866 .0241612
1077.447 .0241552
1078.028 .0241534
1078.609 .0241540
1079.190 .0241546
1079.771 .0241566
1080.352 .0241591
1080.934 .0241597
1081.515 .0241582
1082.097 .0241552
1082.679 .0241515
1083.260 .0241462
1083.842 .0241423
1084.424 .0241393
1085.007 .0241395
1085.589 .0241425
1086.172 .0241469
1086.754 .0241505
1087.337 .0241566
1087.920 .0241604
1088.503 .0241628
1089.087 .0241658
1089.670 .0241685
1090.254 .0241714
1090.838 .0241738
1091.422 .0241744
1092.006 .0241763
1092.590 .0241761
1093.175 .0241750
1093.760 .0241732
1094.345 .0241715
1094.930 .0241664
1095.516 .0241608
1096.102 .0241551
1096.688 .0241491
1097.274 .0241428
1097.860 .0241371
1098.447 .0241305
1099.034 .0241254
1099.622 .0241222
1100.209 .0241159
1100.797 .0241108
1101.385 .0241071
1101.973 .0241013
1102.562 .0240947
1103.151 .0240888
1103.740 .0240799
1104.330 .0240696
1104.920 .0240587
1105.510 .0240481
1106.101 .0240380
1106.691 .0240316
1107.283 .0240270
1107.874 .0240225
1108.466 .0240182
1109.058 .0240145
1109.651 .0240075
1110.244 .0240032
1110.837 .0239952
1111.431 .0239893
1112.025 .0239868
1112.620 .0239920
1113.215 .0240049
1113.810 .0240288
1114.406 .0240637
1115.002 .0241068
1115.599 .0241488
1116.196 .0241881
1116.793 .0242192
1117.391 .0242397
1117.989 .0242469
1118.588 .0242446
1119.187 .0242324
1119.787 .0242168
1120.387 .0241970
1120.988 .0241827
1121.589 .0241732
1122.190 .0241679
1122.793 .0241638
1123.395 .0241580
1123.998 .0241475
1124.602 .0241293
1125.206 .0241048
1125.811 .0240823
1126.416 .0240629
1127.022 .0240511
1127.628 .0240513
1128.235 .0240661
1128.843 .0240960
1129.451 .0241352
1130.059 .0241786
1130.669 .0242270
1131.278 .0242729
1131.889 .0243070
1132.500 .0243337
1133.112 .0243562
1133.724 .0243768
1134.337 .0243951
1134.950 .0244116
1135.564 .0244268
1136.179 .0244387
1136.795 .0244506
1137.411 .0244605
1138.028 .0244676
1138.645 .0244830
1139.263 .0245019
1139.882 .0245218
1140.502 .0245535
1141.122 .0245831
1141.743 .0246415
1142.365 .0247351
1142.987 .0246256
1143.611 .0248669
1144.235 .0246390
1144.859 .0253596
1145.485 .0260036
