Measurement Sequence started on: 10-20-44-796
Integration time: 35
Scans to Average: 2 
>>>>>Begin Spectral Data<<<<<
432.953 .0532261
433.882 .0380847
434.810 .0371773
435.737 .0362309
436.662 .0365842
437.586 .0375213
438.509 .0369388
439.431 .0369180
440.351 .0369250
441.269 .0369478
442.187 .0369495
443.103 .0369480
444.018 .0369248
444.932 .0369190
445.844 .0369163
446.756 .0368983
447.666 .0368480
448.575 .0367730
449.482 .0366878
450.388 .0365979
451.294 .0365053
452.198 .0364292
453.100 .0363720
454.002 .0363222
454.902 .0362795
455.801 .0362485
456.699 .0362272
457.596 .0361917
458.492 .0361384
459.387 .0360705
460.280 .0359898
461.172 .0359009
462.064 .0358082
462.954 .0357189
463.843 .0356394
464.730 .0355665
465.617 .0355045
466.503 .0354504
467.387 .0354045
468.271 .0353596
469.153 .0353196
470.035 .0352795
470.915 .0352427
471.794 .0352004
472.673 .0351595
473.550 .0351274
474.426 .0351017
475.301 .0350772
476.175 .0350565
477.048 .0350334
477.920 .0350069
478.791 .0349690
479.661 .0349250
480.530 .0348703
481.398 .0348094
482.266 .0347444
483.132 .0346753
483.997 .0346090
484.861 .0345462
485.724 .0344904
486.587 .0344471
487.448 .0344127
488.308 .0343826
489.168 .0343549
490.026 .0343291
490.884 .0343056
491.741 .0342840
492.597 .0342635
493.452 .0342510
494.306 .0342406
495.159 .0342342
496.011 .0342312
496.862 .0342259
497.713 .0342189
498.562 .0342001
499.411 .0341677
500.259 .0341155
501.106 .0340424
501.952 .0339579
502.798 .0338609
503.642 .0337607
504.486 .0336613
505.329 .0335600
506.171 .0334640
507.012 .0333712
507.852 .0332813
508.692 .0331974
509.531 .0331123
510.369 .0330288
511.206 .0329442
512.043 .0328599
512.878 .0327749
513.713 .0326919
514.547 .0326123
515.381 .0325381
516.213 .0324588
517.045 .0323744
517.876 .0322756
518.706 .0321627
519.536 .0320334
520.365 .0318774
521.193 .0317027
522.020 .0315012
522.847 .0312725
523.673 .0310296
524.498 .0307643
525.323 .0304896
526.146 .0302108
526.969 .0299336
527.792 .0296581
528.614 .0293914
529.435 .0291405
530.255 .0289059
531.075 .0286956
531.894 .0285103
532.712 .0283480
533.530 .0282085
534.347 .0280928
535.163 .0279830
535.979 .0278906
536.794 .0278105
537.608 .0277364
538.422 .0276795
539.235 .0276383
540.048 .0276190
540.860 .0276276
541.671 .0276594
542.481 .0277152
543.292 .0277766
544.101 .0278459
544.910 .0279060
545.718 .0279580
546.526 .0279963
547.333 .0280242
548.139 .0280452
548.945 .0280680
549.750 .0280868
550.555 .0281078
551.359 .0281278
552.162 .0281508
552.965 .0281739
553.768 .0281951
554.569 .0282125
555.371 .0282314
556.171 .0282420
556.972 .0282522
557.771 .0282568
558.570 .0282624
559.369 .0282737
560.167 .0282958
560.964 .0283310
561.761 .0283840
562.558 .0284587
563.354 .0285565
564.149 .0286709
564.944 .0287980
565.738 .0289239
566.532 .0290453
567.325 .0291538
568.118 .0292474
568.910 .0293261
569.702 .0293963
570.494 .0294610
571.285 .0295260
572.075 .0295940
572.865 .0296661
573.654 .0297432
574.443 .0298206
575.232 .0298969
576.020 .0299714
576.807 .0300394
577.594 .0301042
578.381 .0301670
579.167 .0302316
579.952 .0302991
580.738 .0303712
581.522 .0304469
582.307 .0305233
583.091 .0306005
583.874 .0306747
584.657 .0307430
585.440 .0308060
586.222 .0308598
587.004 .0309048
587.785 .0309445
588.566 .0309794
589.346 .0310093
590.126 .0310390
590.906 .0310677
591.685 .0310939
592.464 .0311168
593.242 .0311358
594.020 .0311484
594.797 .0311551
595.575 .0311568
596.351 .0311512
597.128 .0311416
597.904 .0311296
598.679 .0311147
599.454 .0310987
600.229 .0310813
601.004 .0310620
601.778 .0310393
602.551 .0310140
603.325 .0309841
604.097 .0309499
604.870 .0309136
605.642 .0308755
606.414 .0308376
607.185 .0307999
607.956 .0307636
608.727 .0307295
609.497 .0306978
610.267 .0306674
611.037 .0306387
611.806 .0306117
612.575 .0305844
613.344 .0305569
614.112 .0305287
614.880 .0304995
615.647 .0304692
616.414 .0304386
617.181 .0304065
617.948 .0303742
618.714 .0303427
619.480 .0303102
620.245 .0302788
621.011 .0302488
621.775 .0302190
622.540 .0301899
623.304 .0301625
624.068 .0301356
624.832 .0301086
625.595 .0300833
626.358 .0300586
627.120 .0300350
627.883 .0300128
628.645 .0299920
629.406 .0299720
630.168 .0299538
630.929 .0299358
631.689 .0299166
632.450 .0298981
633.210 .0298787
633.970 .0298572
634.729 .0298342
635.489 .0298094
636.248 .0297831
637.006 .0297554
637.765 .0297272
638.523 .0296982
639.280 .0296709
640.038 .0296451
640.795 .0296208
641.552 .0295995
642.309 .0295817
643.065 .0295671
643.821 .0295552
644.577 .0295461
645.332 .0295382
646.088 .0295317
646.843 .0295266
647.597 .0295214
648.352 .0295177
649.106 .0295146
649.860 .0295122
650.613 .0295105
651.367 .0295098
652.120 .0295092
652.872 .0295075
653.625 .0295060
654.377 .0295037
655.129 .0294999
655.881 .0294955
656.632 .0294908
657.384 .0294857
658.135 .0294805
658.885 .0294748
659.636 .0294685
660.386 .0294621
661.136 .0294548
661.885 .0294467
662.635 .0294382
663.384 .0294299
664.133 .0294219
664.881 .0294139
665.630 .0294063
666.378 .0293983
667.126 .0293887
667.874 .0293775
668.621 .0293637
669.368 .0293476
670.115 .0293299
670.862 .0293109
671.608 .0292920
672.354 .0292731
673.100 .0292554
673.846 .0292389
674.591 .0292229
675.337 .0292073
676.082 .0291903
676.826 .0291722
677.571 .0291528
678.315 .0291319
679.059 .0291101
679.803 .0290891
680.547 .0290686
681.290 .0290492
682.033 .0290307
682.776 .0290124
683.518 .0289946
684.261 .0289770
685.003 .0289599
685.745 .0289420
686.487 .0289237
687.228 .0289054
687.969 .0288861
688.710 .0288667
689.451 .0288465
690.192 .0288266
690.932 .0288067
691.672 .0287862
692.412 .0287651
693.152 .0287436
693.891 .0287222
694.630 .0287007
695.369 .0286780
696.108 .0286538
696.846 .0286279
697.585 .0285999
698.323 .0285704
699.061 .0285401
699.798 .0285090
700.536 .0284780
701.273 .0284477
702.010 .0284187
702.746 .0283899
703.483 .0283623
704.219 .0283360
704.955 .0283095
705.691 .0282831
706.427 .0282558
707.162 .0282282
707.897 .0282011
708.632 .0281743
709.367 .0281472
710.101 .0281205
710.835 .0280944
711.569 .0280686
712.303 .0280428
713.037 .0280182
713.770 .0279946
714.503 .0279721
715.236 .0279508
715.969 .0279304
716.702 .0279111
717.434 .0278932
718.166 .0278757
718.898 .0278591
719.629 .0278420
720.361 .0278254
721.092 .0278090
721.823 .0277925
722.554 .0277759
723.284 .0277586
724.014 .0277398
724.744 .0277191
725.474 .0276961
726.204 .0276713
726.933 .0276443
727.662 .0276169
728.391 .0275892
729.120 .0275621
729.849 .0275363
730.577 .0275122
731.305 .0274894
732.033 .0274681
732.760 .0274469
733.488 .0274258
734.215 .0274056
734.942 .0273862
735.669 .0273676
736.395 .0273501
737.122 .0273347
737.848 .0273207
738.573 .0273071
739.299 .0272935
740.024 .0272790
740.750 .0272642
741.474 .0272481
742.199 .0272312
742.924 .0272142
743.648 .0271982
744.372 .0271837
745.096 .0271716
745.819 .0271618
746.543 .0271538
747.266 .0271479
747.989 .0271440
748.711 .0271421
749.434 .0271421
750.156 .0271437
750.878 .0271478
751.599 .0271544
752.321 .0271623
753.042 .0271707
753.763 .0271799
754.484 .0271883
755.205 .0271953
755.925 .0272000
756.645 .0272026
757.365 .0272039
758.085 .0272040
758.804 .0272026
759.523 .0272000
760.242 .0271966
760.961 .0271918
761.679 .0271853
762.397 .0271774
763.115 .0271676
763.833 .0271564
764.551 .0271442
765.268 .0271311
765.985 .0271175
766.702 .0271037
767.418 .0270897
768.134 .0270762
768.850 .0270631
769.566 .0270496
770.282 .0270360
770.997 .0270228
771.712 .0270098
772.427 .0269969
773.142 .0269843
773.856 .0269722
774.570 .0269603
775.284 .0269488
775.998 .0269370
776.711 .0269254
777.424 .0269139
778.137 .0269027
778.849 .0268914
779.562 .0268809
780.274 .0268710
780.986 .0268618
781.697 .0268535
782.409 .0268460
783.120 .0268392
783.831 .0268333
784.541 .0268279
785.252 .0268236
785.962 .0268196
786.671 .0268161
787.381 .0268128
788.090 .0268098
788.799 .0268062
789.508 .0268017
790.217 .0267966
790.925 .0267908
791.633 .0267845
792.341 .0267779
793.048 .0267704
793.755 .0267631
794.462 .0267553
795.169 .0267469
795.875 .0267377
796.581 .0267282
797.287 .0267178
797.993 .0267066
798.698 .0266951
799.403 .0266827
800.108 .0266696
800.812 .0266566
801.517 .0266432
802.221 .0266295
802.924 .0266154
803.628 .0266010
804.331 .0265857
805.034 .0265704
805.736 .0265539
806.439 .0265362
807.141 .0265179
807.843 .0264984
808.544 .0264776
809.245 .0264556
809.946 .0264329
810.647 .0264093
811.347 .0263858
812.047 .0263627
812.747 .0263392
813.447 .0263161
814.146 .0262928
814.845 .0262696
815.543 .0262460
816.242 .0262223
816.940 .0261986
817.638 .0261753
818.335 .0261535
819.032 .0261330
819.729 .0261149
820.426 .0260990
821.122 .0260847
821.818 .0260713
822.514 .0260578
823.209 .0260432
823.905 .0260276
824.599 .0260113
825.294 .0259946
825.988 .0259774
826.682 .0259602
827.376 .0259430
828.069 .0259260
828.762 .0259083
829.455 .0258889
830.147 .0258676
830.840 .0258439
831.531 .0258179
832.223 .0257903
832.914 .0257622
833.605 .0257349
834.296 .0257091
834.986 .0256856
835.676 .0256640
836.366 .0256441
837.055 .0256258
837.744 .0256084
838.433 .0255920
839.121 .0255757
839.809 .0255599
840.497 .0255450
841.185 .0255314
841.872 .0255183
842.559 .0255061
843.245 .0254944
843.932 .0254823
844.617 .0254692
845.303 .0254551
845.988 .0254396
846.673 .0254228
847.358 .0254052
848.042 .0253867
848.726 .0253683
849.410 .0253502
850.093 .0253319
850.776 .0253145
851.459 .0252977
852.141 .0252810
852.823 .0252645
853.505 .0252485
854.186 .0252330
854.867 .0252176
855.548 .0252025
856.228 .0251879
856.908 .0251741
857.588 .0251611
858.267 .0251482
858.946 .0251355
859.625 .0251230
860.303 .0251097
860.981 .0250958
861.659 .0250814
862.336 .0250663
863.013 .0250510
863.690 .0250353
864.366 .0250193
865.042 .0250035
865.718 .0249878
866.393 .0249723
867.068 .0249572
867.743 .0249420
868.417 .0249270
869.091 .0249117
869.765 .0248973
870.438 .0248835
871.111 .0248705
871.783 .0248589
872.456 .0248479
873.127 .0248379
873.799 .0248284
874.470 .0248188
875.141 .0248100
875.811 .0248016
876.481 .0247937
877.151 .0247865
877.820 .0247798
878.489 .0247739
879.158 .0247688
879.826 .0247632
880.494 .0247578
881.162 .0247513
881.829 .0247439
882.496 .0247349
883.163 .0247251
883.829 .0247152
884.495 .0247047
885.160 .0246948
885.825 .0246852
886.490 .0246763
887.154 .0246691
887.818 .0246635
888.482 .0246597
889.145 .0246579
889.808 .0246579
890.471 .0246587
891.133 .0246602
891.795 .0246620
892.456 .0246639
893.117 .0246655
893.778 .0246667
894.439 .0246676
895.099 .0246690
895.758 .0246718
896.417 .0246756
897.076 .0246809
897.735 .0246872
898.393 .0246936
899.051 .0246995
899.708 .0247038
900.365 .0247063
901.022 .0247073
901.678 .0247064
902.334 .0247044
902.990 .0247026
903.645 .0247014
904.300 .0247019
904.954 .0247041
905.608 .0247075
906.262 .0247108
906.915 .0247133
907.568 .0247145
908.221 .0247140
908.873 .0247122
909.525 .0247087
910.176 .0247039
910.828 .0246994
911.478 .0246953
912.129 .0246911
912.778 .0246879
913.428 .0246858
914.077 .0246839
914.726 .0246824
915.375 .0246803
916.023 .0246781
916.670 .0246759
917.318 .0246734
917.964 .0246705
918.611 .0246671
919.257 .0246637
919.903 .0246595
920.548 .0246544
921.193 .0246494
921.838 .0246432
922.482 .0246370
923.126 .0246312
923.770 .0246261
924.413 .0246217
925.056 .0246182
925.698 .0246159
926.340 .0246150
926.982 .0246148
927.623 .0246151
928.264 .0246155
928.904 .0246160
929.544 .0246168
930.184 .0246172
930.823 .0246180
931.462 .0246194
932.101 .0246207
932.739 .0246220
933.377 .0246225
934.014 .0246223
934.651 .0246204
935.288 .0246167
935.924 .0246115
936.560 .0246044
937.196 .0245959
937.831 .0245867
938.466 .0245771
939.100 .0245678
939.734 .0245590
940.368 .0245505
941.001 .0245416
941.634 .0245325
942.266 .0245223
942.899 .0245103
943.530 .0244972
944.162 .0244831
944.793 .0244683
945.423 .0244537
946.053 .0244403
946.683 .0244277
947.313 .0244164
947.942 .0244059
948.571 .0243956
949.199 .0243848
949.827 .0243723
950.455 .0243576
951.082 .0243410
951.709 .0243231
952.335 .0243043
952.961 .0242855
953.587 .0242680
954.212 .0242515
954.837 .0242362
955.462 .0242215
956.086 .0242071
956.710 .0241927
957.334 .0241778
957.957 .0241616
958.579 .0241446
959.202 .0241271
959.824 .0241095
960.445 .0240924
961.067 .0240768
961.688 .0240623
962.308 .0240497
962.928 .0240382
963.548 .0240283
964.168 .0240188
964.787 .0240097
965.406 .0240002
966.024 .0239898
966.642 .0239781
967.260 .0239654
967.877 .0239518
968.494 .0239377
969.110 .0239235
969.727 .0239094
970.342 .0238950
970.958 .0238813
971.573 .0238674
972.188 .0238540
972.802 .0238401
973.416 .0238257
974.030 .0238106
974.643 .0237952
975.256 .0237801
975.869 .0237649
976.481 .0237505
977.093 .0237382
977.705 .0237272
978.316 .0237174
978.927 .0237088
979.538 .0237011
980.148 .0236942
980.758 .0236874
981.367 .0236809
981.977 .0236746
982.586 .0236688
983.194 .0236640
983.802 .0236600
984.410 .0236560
985.018 .0236527
985.625 .0236489
986.232 .0236453
986.838 .0236414
987.445 .0236367
988.050 .0236316
988.656 .0236258
989.261 .0236185
989.866 .0236095
990.471 .0235981
991.075 .0235856
991.679 .0235712
992.282 .0235548
992.886 .0235370
993.489 .0235189
994.091 .0235012
994.694 .0234843
995.296 .0234684
995.897 .0234534
996.499 .0234388
997.100 .0234245
997.701 .0234100
998.301 .0233950
998.901 .0233808
999.501 .0233681
1000.101 .0233568
1000.700 .0233472
1001.299 .0233389
1001.898 .0233316
1002.496 .0233256
1003.094 .0233192
1003.692 .0233114
1004.289 .0233013
1004.887 .0232896
1005.484 .0232767
1006.080 .0232629
1006.677 .0232496
1007.273 .0232369
1007.868 .0232255
1008.464 .0232150
1009.059 .0232045
1009.654 .0231945
1010.249 .0231846
1010.843 .0231752
1011.437 .0231653
1012.031 .0231558
1012.625 .0231465
1013.218 .0231373
1013.811 .0231303
1014.404 .0231246
1014.997 .0231197
1015.589 .0231143
1016.181 .0231090
1016.773 .0231031
1017.365 .0230960
1017.956 .0230880
1018.547 .0230779
1019.138 .0230675
1019.728 .0230565
1020.319 .0230450
1020.909 .0230332
1021.499 .0230229
1022.088 .0230133
1022.678 .0230028
1023.267 .0229925
1023.856 .0229798
1024.445 .0229656
1025.033 .0229504
1025.621 .0229345
1026.209 .0229181
1026.797 .0229015
1027.385 .0228870
1027.972 .0228739
1028.560 .0228636
1029.147 .0228550
1029.734 .0228476
1030.320 .0228416
1030.907 .0228360
1031.493 .0228303
1032.079 .0228260
1032.665 .0228242
1033.250 .0228243
1033.836 .0228269
1034.421 .0228311
1035.006 .0228368
1035.591 .0228428
1036.176 .0228479
1036.761 .0228515
1037.345 .0228522
1037.929 .0228491
1038.514 .0228422
1039.097 .0228331
1039.681 .0228227
1040.265 .0228107
1040.848 .0227994
1041.432 .0227876
1042.015 .0227740
1042.598 .0227593
1043.181 .0227436
1043.764 .0227260
1044.346 .0227080
1044.929 .0226883
1045.511 .0226686
1046.094 .0226512
1046.676 .0226361
1047.258 .0226241
1047.840 .0226174
1048.422 .0226161
1049.003 .0226188
1049.585 .0226251
1050.166 .0226350
1050.748 .0226462
1051.329 .0226587
1051.910 .0226700
1052.491 .0226803
1053.072 .0226893
1053.653 .0226972
1054.234 .0227043
1054.815 .0227124
1055.396 .0227210
1055.976 .0227282
1056.557 .0227341
1057.138 .0227363
1057.718 .0227327
1058.298 .0227235
1058.879 .0227068
1059.459 .0226848
1060.039 .0226584
1060.620 .0226279
1061.200 .0225972
1061.780 .0225702
1062.360 .0225466
1062.940 .0225271
1063.520 .0225124
1064.101 .0225007
1064.681 .0224902
1065.261 .0224813
1065.841 .0224717
1066.421 .0224632
1067.001 .0224568
1067.581 .0224520
1068.161 .0224486
1068.741 .0224499
1069.321 .0224523
1069.901 .0224556
1070.482 .0224596
1071.062 .0224610
1071.642 .0224591
1072.222 .0224548
1072.803 .0224474
1073.383 .0224387
1073.963 .0224313
1074.544 .0224248
1075.124 .0224187
1075.705 .0224157
1076.286 .0224124
1076.866 .0224103
1077.447 .0224086
1078.028 .0224059
1078.609 .0224010
1079.190 .0223950
1079.771 .0223853
1080.352 .0223740
1080.934 .0223627
1081.515 .0223523
1082.097 .0223417
1082.679 .0223325
1083.260 .0223238
1083.842 .0223146
1084.424 .0223082
1085.007 .0223031
1085.589 .0222980
1086.172 .0222955
1086.754 .0222944
1087.337 .0222955
1087.920 .0223007
1088.503 .0223089
1089.087 .0223201
1089.670 .0223354
1090.254 .0223537
1090.838 .0223710
1091.422 .0223891
1092.006 .0224076
1092.590 .0224259
1093.175 .0224411
1093.760 .0224559
1094.345 .0224666
1094.930 .0224761
1095.516 .0224850
1096.102 .0224919
1096.688 .0224977
1097.274 .0225035
1097.860 .0225085
1098.447 .0225144
1099.034 .0225179
1099.622 .0225216
1100.209 .0225231
1100.797 .0225234
1101.385 .0225198
1101.973 .0225123
1102.562 .0225035
1103.151 .0224968
1103.740 .0224916
1104.330 .0224878
1104.920 .0224858
1105.510 .0224875
1106.101 .0224894
1106.691 .0224898
1107.283 .0224887
1107.874 .0224851
1108.466 .0224797
1109.058 .0224735
1109.651 .0224665
1110.244 .0224620
1110.837 .0224609
1111.431 .0224615
1112.025 .0224639
1112.620 .0224661
1113.215 .0224664
1113.810 .0224650
1114.406 .0224648
1115.002 .0224622
1115.599 .0224591
1116.196 .0224569
1116.793 .0224525
1117.391 .0224500
1117.989 .0224485
1118.588 .0224478
1119.187 .0224487
1119.787 .0224514
1120.387 .0224542
1120.988 .0224607
1121.589 .0224715
1122.190 .0224844
1122.793 .0224955
1123.395 .0225102
1123.998 .0225215
1124.602 .0225306
1125.206 .0225367
1125.811 .0225414
1126.416 .0225439
1127.022 .0225490
1127.628 .0225520
1128.235 .0225581
1128.843 .0225666
1129.451 .0225819
1130.059 .0225942
1130.669 .0226087
1131.278 .0226186
1131.889 .0226243
1132.500 .0226264
1133.112 .0226349
1133.724 .0226446
1134.337 .0226663
1134.950 .0226989
1135.564 .0227476
1136.179 .0228060
1136.795 .0228769
1137.411 .0229532
1138.028 .0230314
1138.645 .0231059
1139.263 .0231785
1139.882 .0232494
1140.502 .0233356
1141.122 .0234143
1141.743 .0234858
1142.365 .0235645
1142.987 .0237640
1143.611 .0240944
1144.235 .0236754
1144.859 .0234461
1145.485 .0239977
