Measurement Sequence started on: 10-20-44-796
Integration time: 35
Scans to Average: 2 
>>>>>Begin Spectral Data<<<<<
432.953 .0362709
433.882 .0323852
434.810 .0319957
435.737 .0330383
436.662 .0325077
437.586 .0328398
438.509 .0327007
439.431 .0326674
440.351 .0326200
441.269 .0325291
442.187 .0324534
443.103 .0323808
444.018 .0323158
444.932 .0322814
445.844 .0322581
446.756 .0322406
447.666 .0322230
448.575 .0321961
449.482 .0321663
450.388 .0321297
451.294 .0320903
452.198 .0320472
453.100 .0319970
454.002 .0319595
454.902 .0319285
455.801 .0319016
456.699 .0318817
457.596 .0318664
458.492 .0318484
459.387 .0318241
460.280 .0317944
461.172 .0317571
462.064 .0317106
462.954 .0316579
463.843 .0316002
464.730 .0315421
465.617 .0314890
466.503 .0314370
467.387 .0313875
468.271 .0313464
469.153 .0313098
470.035 .0312777
470.915 .0312567
471.794 .0312415
472.673 .0312325
473.550 .0312269
474.426 .0312293
475.301 .0312352
476.175 .0312433
477.048 .0312494
477.920 .0312513
478.791 .0312490
479.661 .0312456
480.530 .0312370
481.398 .0312294
482.266 .0312262
483.132 .0312269
483.997 .0312256
484.861 .0312236
485.724 .0312214
486.587 .0312145
487.448 .0311989
488.308 .0311756
489.168 .0311427
490.026 .0311050
490.884 .0310623
491.741 .0310169
492.597 .0309710
493.452 .0309297
494.306 .0308879
495.159 .0308449
496.011 .0308030
496.862 .0307571
497.713 .0307020
498.562 .0306391
499.411 .0305663
500.259 .0304816
501.106 .0303898
501.952 .0302946
502.798 .0301999
503.642 .0301088
504.486 .0300227
505.329 .0299427
506.171 .0298726
507.012 .0298117
507.852 .0297481
508.692 .0296856
509.531 .0296216
510.369 .0295520
511.206 .0294765
512.043 .0293963
512.878 .0293139
513.713 .0292316
514.547 .0291477
515.381 .0290634
516.213 .0289791
517.045 .0288931
517.876 .0287984
518.706 .0286949
519.536 .0285822
520.365 .0284583
521.193 .0283224
522.020 .0281807
522.847 .0280286
523.673 .0278719
524.498 .0277095
525.323 .0275434
526.146 .0273796
526.969 .0272197
527.792 .0270628
528.614 .0269080
529.435 .0267575
530.255 .0266119
531.075 .0264626
531.894 .0263184
532.712 .0261670
533.530 .0260084
534.347 .0258457
535.163 .0256830
535.979 .0255310
536.794 .0253963
537.608 .0252826
538.422 .0251982
539.235 .0251423
540.048 .0251170
540.860 .0251099
541.671 .0251244
542.481 .0251542
543.292 .0251865
544.101 .0252221
544.910 .0252641
545.718 .0253151
546.526 .0253790
547.333 .0254487
548.139 .0255240
548.945 .0255997
549.750 .0256713
550.555 .0257336
551.359 .0257841
552.162 .0258235
552.965 .0258565
553.768 .0258822
554.569 .0259125
555.371 .0259471
556.171 .0259872
556.972 .0260380
557.771 .0260943
558.570 .0261533
559.369 .0262109
560.167 .0262672
560.964 .0263277
561.761 .0263863
562.558 .0264526
563.354 .0265280
564.149 .0266119
564.944 .0267057
565.738 .0268048
566.532 .0269089
567.325 .0270141
568.118 .0271153
568.910 .0272101
569.702 .0272997
570.494 .0273855
571.285 .0274694
572.075 .0275522
572.865 .0276366
573.654 .0277195
574.443 .0277992
575.232 .0278767
576.020 .0279498
576.807 .0280180
577.594 .0280812
578.381 .0281396
579.167 .0281950
579.952 .0282464
580.738 .0282981
581.522 .0283509
582.307 .0284047
583.091 .0284583
583.874 .0285118
584.657 .0285637
585.440 .0286141
586.222 .0286622
587.004 .0287069
587.785 .0287482
588.566 .0287859
589.346 .0288182
590.126 .0288460
590.906 .0288687
591.685 .0288877
592.464 .0289027
593.242 .0289152
594.020 .0289243
594.797 .0289301
595.575 .0289335
596.351 .0289351
597.128 .0289342
597.904 .0289304
598.679 .0289253
599.454 .0289186
600.229 .0289113
601.004 .0289038
601.778 .0288968
602.551 .0288911
603.325 .0288854
604.097 .0288799
604.870 .0288729
605.642 .0288655
606.414 .0288569
607.185 .0288463
607.956 .0288357
608.727 .0288249
609.497 .0288148
610.267 .0288050
611.037 .0287965
611.806 .0287882
612.575 .0287795
613.344 .0287703
614.112 .0287600
614.880 .0287478
615.647 .0287337
616.414 .0287178
617.181 .0287011
617.948 .0286846
618.714 .0286679
619.480 .0286511
620.245 .0286353
621.011 .0286196
621.775 .0286035
622.540 .0285864
623.304 .0285691
624.068 .0285506
624.832 .0285312
625.595 .0285112
626.358 .0284908
627.120 .0284711
627.883 .0284530
628.645 .0284367
629.406 .0284222
630.168 .0284095
630.929 .0283977
631.689 .0283871
632.450 .0283765
633.210 .0283656
633.970 .0283532
634.729 .0283397
635.489 .0283250
636.248 .0283090
637.006 .0282926
637.765 .0282758
638.523 .0282594
639.280 .0282437
640.038 .0282282
640.795 .0282137
641.552 .0281991
642.309 .0281851
643.065 .0281702
643.821 .0281546
644.577 .0281373
645.332 .0281196
646.088 .0281018
646.843 .0280841
647.597 .0280674
648.352 .0280523
649.106 .0280391
649.860 .0280278
650.613 .0280181
651.367 .0280100
652.120 .0280022
652.872 .0279944
653.625 .0279851
654.377 .0279743
655.129 .0279619
655.881 .0279484
656.632 .0279341
657.384 .0279193
658.135 .0279048
658.885 .0278908
659.636 .0278775
660.386 .0278652
661.136 .0278538
661.885 .0278425
662.635 .0278315
663.384 .0278207
664.133 .0278095
664.881 .0277983
665.630 .0277877
666.378 .0277775
667.126 .0277677
667.874 .0277583
668.621 .0277488
669.368 .0277389
670.115 .0277288
670.862 .0277176
671.608 .0277051
672.354 .0276917
673.100 .0276778
673.846 .0276631
674.591 .0276485
675.337 .0276343
676.082 .0276206
676.826 .0276072
677.571 .0275938
678.315 .0275797
679.059 .0275652
679.803 .0275502
680.547 .0275349
681.290 .0275197
682.033 .0275047
682.776 .0274903
683.518 .0274770
684.261 .0274644
685.003 .0274524
685.745 .0274399
686.487 .0274270
687.228 .0274128
687.969 .0273979
688.710 .0273818
689.451 .0273650
690.192 .0273481
690.932 .0273311
691.672 .0273140
692.412 .0272974
693.152 .0272813
693.891 .0272656
694.630 .0272507
695.369 .0272369
696.108 .0272235
696.846 .0272113
697.585 .0271995
698.323 .0271882
699.061 .0271772
699.798 .0271662
700.536 .0271544
701.273 .0271425
702.010 .0271306
702.746 .0271180
703.483 .0271055
704.219 .0270935
704.955 .0270814
705.691 .0270697
706.427 .0270578
707.162 .0270455
707.897 .0270328
708.632 .0270196
709.367 .0270054
710.101 .0269904
710.835 .0269750
711.569 .0269586
712.303 .0269423
713.037 .0269260
713.770 .0269096
714.503 .0268929
715.236 .0268761
715.969 .0268591
716.702 .0268417
717.434 .0268241
718.166 .0268060
718.898 .0267879
719.629 .0267699
720.361 .0267513
721.092 .0267326
721.823 .0267141
722.554 .0266961
723.284 .0266781
724.014 .0266602
724.744 .0266423
725.474 .0266242
726.204 .0266058
726.933 .0265868
727.662 .0265676
728.391 .0265482
729.120 .0265285
729.849 .0265091
730.577 .0264906
731.305 .0264726
732.033 .0264556
732.760 .0264391
733.488 .0264227
734.215 .0264061
734.942 .0263886
735.669 .0263708
736.395 .0263525
737.122 .0263340
737.848 .0263151
738.573 .0262960
739.299 .0262778
740.024 .0262600
740.750 .0262430
741.474 .0262270
742.199 .0262116
742.924 .0261963
743.648 .0261808
744.372 .0261651
745.096 .0261492
745.819 .0261331
746.543 .0261171
747.266 .0261018
747.989 .0260872
748.711 .0260739
749.434 .0260619
750.156 .0260516
750.878 .0260430
751.599 .0260351
752.321 .0260278
753.042 .0260212
753.763 .0260149
754.484 .0260088
755.205 .0260028
755.925 .0259978
756.645 .0259929
757.365 .0259883
758.085 .0259840
758.804 .0259796
759.523 .0259745
760.242 .0259684
760.961 .0259606
761.679 .0259512
762.397 .0259401
763.115 .0259271
763.833 .0259123
764.551 .0258963
765.268 .0258791
765.985 .0258605
766.702 .0258410
767.418 .0258207
768.134 .0257993
768.850 .0257776
769.566 .0257554
770.282 .0257329
770.997 .0257104
771.712 .0256883
772.427 .0256670
773.142 .0256467
773.856 .0256275
774.570 .0256096
775.284 .0255933
775.998 .0255786
776.711 .0255652
777.424 .0255524
778.137 .0255403
778.849 .0255281
779.562 .0255157
780.274 .0255031
780.986 .0254899
781.697 .0254773
782.409 .0254653
783.120 .0254540
783.831 .0254433
784.541 .0254332
785.252 .0254237
785.962 .0254141
786.671 .0254038
787.381 .0253923
788.090 .0253798
788.799 .0253666
789.508 .0253526
790.217 .0253386
790.925 .0253252
791.633 .0253125
792.341 .0252999
793.048 .0252875
793.755 .0252747
794.462 .0252609
795.169 .0252462
795.875 .0252305
796.581 .0252140
797.287 .0251975
797.993 .0251807
798.698 .0251649
799.403 .0251501
800.108 .0251364
800.812 .0251230
801.517 .0251101
802.221 .0250976
802.924 .0250847
803.628 .0250715
804.331 .0250594
805.034 .0250478
805.736 .0250372
806.439 .0250278
807.141 .0250195
807.843 .0250122
808.544 .0250058
809.245 .0249993
809.946 .0249928
810.647 .0249863
811.347 .0249795
812.047 .0249724
812.747 .0249659
813.447 .0249594
814.146 .0249526
814.845 .0249457
815.543 .0249383
816.242 .0249301
816.940 .0249217
817.638 .0249125
818.335 .0249032
819.032 .0248939
819.729 .0248844
820.426 .0248747
821.122 .0248650
821.818 .0248548
822.514 .0248436
823.209 .0248313
823.905 .0248179
824.599 .0248036
825.294 .0247886
825.988 .0247733
826.682 .0247584
827.376 .0247441
828.069 .0247302
828.762 .0247165
829.455 .0247027
830.147 .0246889
830.840 .0246746
831.531 .0246600
832.223 .0246451
832.914 .0246308
833.605 .0246168
834.296 .0246036
834.986 .0245918
835.676 .0245808
836.366 .0245705
837.055 .0245608
837.744 .0245512
838.433 .0245413
839.121 .0245313
839.809 .0245208
840.497 .0245101
841.185 .0244997
841.872 .0244892
842.559 .0244788
843.245 .0244688
843.932 .0244590
844.617 .0244486
845.303 .0244382
845.988 .0244274
846.673 .0244161
847.358 .0244047
848.042 .0243936
848.726 .0243830
849.410 .0243734
850.093 .0243644
850.776 .0243560
851.459 .0243480
852.141 .0243402
852.823 .0243322
853.505 .0243243
854.186 .0243165
854.867 .0243094
855.548 .0243027
856.228 .0242968
856.908 .0242915
857.588 .0242865
858.267 .0242816
858.946 .0242757
859.625 .0242688
860.303 .0242605
860.981 .0242509
861.659 .0242400
862.336 .0242281
863.013 .0242161
863.690 .0242044
864.366 .0241929
865.042 .0241812
865.718 .0241692
866.393 .0241570
867.068 .0241439
867.743 .0241303
868.417 .0241160
869.091 .0241015
869.765 .0240871
870.438 .0240731
871.111 .0240593
871.783 .0240463
872.456 .0240337
873.127 .0240211
873.799 .0240088
874.470 .0239964
875.141 .0239834
875.811 .0239705
876.481 .0239577
877.151 .0239446
877.820 .0239314
878.489 .0239185
879.158 .0239055
879.826 .0238928
880.494 .0238802
881.162 .0238673
881.829 .0238543
882.496 .0238413
883.163 .0238271
883.829 .0238123
884.495 .0237973
885.160 .0237824
885.825 .0237676
886.490 .0237536
887.154 .0237405
887.818 .0237280
888.482 .0237162
889.145 .0237049
889.808 .0236939
890.471 .0236832
891.133 .0236725
891.795 .0236621
892.456 .0236522
893.117 .0236431
893.778 .0236347
894.439 .0236274
895.099 .0236209
895.758 .0236147
896.417 .0236085
897.076 .0236019
897.735 .0235946
898.393 .0235867
899.051 .0235787
899.708 .0235702
900.365 .0235616
901.022 .0235534
901.678 .0235454
902.334 .0235376
902.990 .0235296
903.645 .0235212
904.300 .0235126
904.954 .0235037
905.608 .0234947
906.262 .0234860
906.915 .0234781
907.568 .0234705
908.221 .0234633
908.873 .0234565
909.525 .0234495
910.176 .0234421
910.828 .0234346
911.478 .0234265
912.129 .0234179
912.778 .0234087
913.428 .0233994
914.077 .0233902
914.726 .0233811
915.375 .0233725
916.023 .0233643
916.670 .0233569
917.318 .0233495
917.964 .0233422
918.611 .0233347
919.257 .0233271
919.903 .0233191
920.548 .0233108
921.193 .0233025
921.838 .0232949
922.482 .0232879
923.126 .0232820
923.770 .0232772
924.413 .0232736
925.056 .0232705
925.698 .0232681
926.340 .0232655
926.982 .0232629
927.623 .0232599
928.264 .0232564
928.904 .0232520
929.544 .0232471
930.184 .0232415
930.823 .0232349
931.462 .0232277
932.101 .0232195
932.739 .0232099
933.377 .0231991
934.014 .0231869
934.651 .0231735
935.288 .0231589
935.924 .0231437
936.560 .0231280
937.196 .0231124
937.831 .0230967
938.466 .0230810
939.100 .0230653
939.734 .0230498
940.368 .0230343
941.001 .0230189
941.634 .0230038
942.266 .0229896
942.899 .0229759
943.530 .0229627
944.162 .0229496
944.793 .0229365
945.423 .0229226
946.053 .0229077
946.683 .0228916
947.313 .0228743
947.942 .0228559
948.571 .0228370
949.199 .0228175
949.827 .0227985
950.455 .0227802
951.082 .0227627
951.709 .0227463
952.335 .0227308
952.961 .0227160
953.587 .0227014
954.212 .0226869
954.837 .0226727
955.462 .0226585
956.086 .0226451
956.710 .0226325
957.334 .0226212
957.957 .0226112
958.579 .0226026
959.202 .0225949
959.824 .0225879
960.445 .0225811
961.067 .0225743
961.688 .0225676
962.308 .0225610
962.928 .0225545
963.548 .0225484
964.168 .0225429
964.787 .0225379
965.406 .0225330
966.024 .0225290
966.642 .0225251
967.260 .0225215
967.877 .0225173
968.494 .0225127
969.110 .0225074
969.727 .0225011
970.342 .0224939
970.958 .0224858
971.573 .0224778
972.188 .0224695
972.802 .0224613
973.416 .0224540
974.030 .0224473
974.643 .0224413
975.256 .0224362
975.869 .0224320
976.481 .0224285
977.093 .0224260
977.705 .0224244
978.316 .0224240
978.927 .0224248
979.538 .0224263
980.148 .0224282
980.758 .0224305
981.367 .0224329
981.977 .0224346
982.586 .0224362
983.194 .0224376
983.802 .0224386
984.410 .0224394
985.018 .0224401
985.625 .0224405
986.232 .0224410
986.838 .0224412
987.445 .0224411
988.050 .0224405
988.656 .0224396
989.261 .0224380
989.866 .0224360
990.471 .0224344
991.075 .0224326
991.679 .0224311
992.282 .0224302
992.886 .0224294
993.489 .0224285
994.091 .0224270
994.694 .0224253
995.296 .0224235
995.897 .0224214
996.499 .0224192
997.100 .0224165
997.701 .0224139
998.301 .0224116
998.901 .0224094
999.501 .0224072
1000.101 .0224056
1000.700 .0224042
1001.299 .0224027
1001.898 .0224014
1002.496 .0224010
1003.094 .0224010
1003.692 .0224018
1004.289 .0224032
1004.887 .0224052
1005.484 .0224072
1006.080 .0224096
1006.677 .0224114
1007.273 .0224129
1007.868 .0224140
1008.464 .0224140
1009.059 .0224134
1009.654 .0224130
1010.249 .0224125
1010.843 .0224123
1011.437 .0224131
1012.031 .0224152
1012.625 .0224174
1013.218 .0224205
1013.811 .0224242
1014.404 .0224280
1014.997 .0224318
1015.589 .0224351
1016.181 .0224381
1016.773 .0224414
1017.365 .0224450
1017.956 .0224478
1018.547 .0224510
1019.138 .0224541
1019.728 .0224566
1020.319 .0224586
1020.909 .0224600
1021.499 .0224604
1022.088 .0224596
1022.678 .0224575
1023.267 .0224536
1023.856 .0224483
1024.445 .0224418
1025.033 .0224338
1025.621 .0224252
1026.209 .0224164
1026.797 .0224068
1027.385 .0223972
1027.972 .0223889
1028.560 .0223812
1029.147 .0223743
1029.734 .0223687
1030.320 .0223639
1030.907 .0223598
1031.493 .0223567
1032.079 .0223541
1032.665 .0223515
1033.250 .0223496
1033.836 .0223477
1034.421 .0223453
1035.006 .0223430
1035.591 .0223405
1036.176 .0223378
1036.761 .0223359
1037.345 .0223344
1037.929 .0223331
1038.514 .0223328
1039.097 .0223340
1039.681 .0223361
1040.265 .0223393
1040.848 .0223431
1041.432 .0223467
1042.015 .0223497
1042.598 .0223518
1043.181 .0223533
1043.764 .0223546
1044.346 .0223569
1044.929 .0223604
1045.511 .0223650
1046.094 .0223702
1046.676 .0223754
1047.258 .0223793
1047.840 .0223815
1048.422 .0223813
1049.003 .0223774
1049.585 .0223705
1050.166 .0223614
1050.748 .0223512
1051.329 .0223410
1051.910 .0223323
1052.491 .0223250
1053.072 .0223189
1053.653 .0223137
1054.234 .0223089
1054.815 .0223036
1055.396 .0222977
1055.976 .0222912
1056.557 .0222843
1057.138 .0222769
1057.718 .0222695
1058.298 .0222628
1058.879 .0222577
1059.459 .0222532
1060.039 .0222498
1060.620 .0222461
1061.200 .0222419
1061.780 .0222357
1062.360 .0222283
1062.940 .0222185
1063.520 .0222075
1064.101 .0221946
1064.681 .0221810
1065.261 .0221675
1065.841 .0221533
1066.421 .0221395
1067.001 .0221272
1067.581 .0221147
1068.161 .0221017
1068.741 .0220871
1069.321 .0220729
1069.901 .0220582
1070.482 .0220433
1071.062 .0220286
1071.642 .0220154
1072.222 .0220062
1072.803 .0219994
1073.383 .0219941
1073.963 .0219915
1074.544 .0219904
1075.124 .0219886
1075.705 .0219866
1076.286 .0219830
1076.866 .0219788
1077.447 .0219735
1078.028 .0219677
1078.609 .0219617
1079.190 .0219555
1079.771 .0219509
1080.352 .0219472
1080.934 .0219438
1081.515 .0219418
1082.097 .0219383
1082.679 .0219361
1083.260 .0219332
1083.842 .0219299
1084.424 .0219242
1085.007 .0219184
1085.589 .0219122
1086.172 .0219048
1086.754 .0218975
1087.337 .0218919
1087.920 .0218871
1088.503 .0218833
1089.087 .0218805
1089.670 .0218778
1090.254 .0218754
1090.838 .0218740
1091.422 .0218712
1092.006 .0218673
1092.590 .0218638
1093.175 .0218613
1093.760 .0218591
1094.345 .0218597
1094.930 .0218626
1095.516 .0218671
1096.102 .0218744
1096.688 .0218819
1097.274 .0218884
1097.860 .0218943
1098.447 .0218991
1099.034 .0218999
1099.622 .0218977
1100.209 .0218935
1100.797 .0218881
1101.385 .0218818
1101.973 .0218718
1102.562 .0218566
1103.151 .0218358
1103.740 .0218089
1104.330 .0217759
1104.920 .0217371
1105.510 .0216978
1106.101 .0216589
1106.691 .0216236
1107.283 .0215939
1107.874 .0215702
1108.466 .0215552
1109.058 .0215483
1109.651 .0215464
1110.244 .0215481
1110.837 .0215518
1111.431 .0215571
1112.025 .0215636
1112.620 .0215738
1113.215 .0215872
1113.810 .0216036
1114.406 .0216243
1115.002 .0216496
1115.599 .0216763
1116.196 .0217044
1116.793 .0217327
1117.391 .0217599
1117.989 .0217866
1118.588 .0218111
1119.187 .0218334
1119.787 .0218530
1120.387 .0218700
1120.988 .0218840
1121.589 .0218946
1122.190 .0219041
1122.793 .0219115
1123.395 .0219208
1123.998 .0219321
1124.602 .0219449
1125.206 .0219568
1125.811 .0219662
1126.416 .0219730
1127.022 .0219726
1127.628 .0219643
1128.235 .0219468
1128.843 .0219225
1129.451 .0218931
1130.059 .0218615
1130.669 .0218313
1131.278 .0218065
1131.889 .0217867
1132.500 .0217741
1133.112 .0217688
1133.724 .0217691
1134.337 .0217758
1134.950 .0217851
1135.564 .0217983
1136.179 .0218147
1136.795 .0218328
1137.411 .0218585
1138.028 .0218902
1138.645 .0219352
1139.263 .0219887
1139.882 .0220463
1140.502 .0221133
1141.122 .0221815
1141.743 .0222608
1142.365 .0223541
1142.987 .0223293
1143.611 .0225024
1144.235 .0225112
1144.859 .0228189
1145.485 .0231660
