Measurement Sequence started on: 10-20-44-796
Integration time: 35
Scans to Average: 2 
>>>>>Begin Spectral Data<<<<<
432.953 .0473838
433.882 .0400853
434.810 .0384225
435.737 .0370943
436.662 .0366884
437.586 .0372453
438.509 .0366520
439.431 .0364097
440.351 .0362635
441.269 .0361759
442.187 .0361001
443.103 .0360300
444.018 .0359586
444.932 .0358722
445.844 .0357807
446.756 .0356848
447.666 .0355909
448.575 .0354897
449.482 .0353747
450.388 .0352603
451.294 .0351405
452.198 .0350193
453.100 .0348958
454.002 .0347909
454.902 .0346927
455.801 .0346105
456.699 .0345463
457.596 .0344976
458.492 .0344704
459.387 .0344567
460.280 .0344501
461.172 .0344419
462.064 .0344347
462.954 .0344226
463.843 .0344008
464.730 .0343815
465.617 .0343592
466.503 .0343378
467.387 .0343161
468.271 .0342933
469.153 .0342670
470.035 .0342372
470.915 .0342084
471.794 .0341740
472.673 .0341335
473.550 .0340889
474.426 .0340434
475.301 .0340002
476.175 .0339598
477.048 .0339208
477.920 .0338864
478.791 .0338543
479.661 .0338242
480.530 .0337959
481.398 .0337677
482.266 .0337445
483.132 .0337249
483.997 .0337073
484.861 .0336966
485.724 .0336912
486.587 .0336937
487.448 .0337040
488.308 .0337195
489.168 .0337353
490.026 .0337486
490.884 .0337603
491.741 .0337660
492.597 .0337622
493.452 .0337498
494.306 .0337258
495.159 .0336933
496.011 .0336518
496.862 .0335998
497.713 .0335404
498.562 .0334726
499.411 .0333951
500.259 .0333071
501.106 .0332092
501.952 .0331023
502.798 .0329882
503.642 .0328703
504.486 .0327498
505.329 .0326283
506.171 .0325064
507.012 .0323885
507.852 .0322795
508.692 .0321777
509.531 .0320837
510.369 .0320015
511.206 .0319302
512.043 .0318670
512.878 .0318102
513.713 .0317547
514.547 .0316968
515.381 .0316293
516.213 .0315482
517.045 .0314474
517.876 .0313294
518.706 .0311950
519.536 .0310464
520.365 .0308919
521.193 .0307307
522.020 .0305639
522.847 .0303947
523.673 .0302219
524.498 .0300379
525.323 .0298393
526.146 .0296311
526.969 .0294142
527.792 .0291852
528.614 .0289487
529.435 .0287147
530.255 .0284873
531.075 .0282697
531.894 .0280682
532.712 .0278809
533.530 .0277149
534.347 .0275715
535.163 .0274476
535.979 .0273502
536.794 .0272830
537.608 .0272347
538.422 .0272109
539.235 .0272097
540.048 .0272239
540.860 .0272459
541.671 .0272847
542.481 .0273354
543.292 .0273968
544.101 .0274706
544.910 .0275585
545.718 .0276542
546.526 .0277616
547.333 .0278710
548.139 .0279796
548.945 .0280858
549.750 .0281841
550.555 .0282711
551.359 .0283518
552.162 .0284226
552.965 .0284902
553.768 .0285510
554.569 .0286100
555.371 .0286600
556.171 .0287014
556.972 .0287372
557.771 .0287664
558.570 .0287892
559.369 .0288081
560.167 .0288254
560.964 .0288458
561.761 .0288688
562.558 .0288981
563.354 .0289381
564.149 .0289844
564.944 .0290366
565.738 .0290972
566.532 .0291633
567.325 .0292327
568.118 .0293059
568.910 .0293861
569.702 .0294712
570.494 .0295622
571.285 .0296570
572.075 .0297534
572.865 .0298514
573.654 .0299474
574.443 .0300394
575.232 .0301265
576.020 .0302103
576.807 .0302861
577.594 .0303572
578.381 .0304255
579.167 .0304900
579.952 .0305523
580.738 .0306144
581.522 .0306764
582.307 .0307360
583.091 .0307941
583.874 .0308497
584.657 .0309012
585.440 .0309480
586.222 .0309887
587.004 .0310232
587.785 .0310515
588.566 .0310759
589.346 .0310963
590.126 .0311154
590.906 .0311334
591.685 .0311502
592.464 .0311656
593.242 .0311786
594.020 .0311871
594.797 .0311919
595.575 .0311933
596.351 .0311920
597.128 .0311878
597.904 .0311831
598.679 .0311786
599.454 .0311734
600.229 .0311678
601.004 .0311619
601.778 .0311545
602.551 .0311462
603.325 .0311360
604.097 .0311249
604.870 .0311128
605.642 .0311006
606.414 .0310881
607.185 .0310757
607.956 .0310642
608.727 .0310531
609.497 .0310415
610.267 .0310302
611.037 .0310180
611.806 .0310052
612.575 .0309924
613.344 .0309798
614.112 .0309665
614.880 .0309524
615.647 .0309371
616.414 .0309206
617.181 .0309034
617.948 .0308867
618.714 .0308707
619.480 .0308563
620.245 .0308431
621.011 .0308307
621.775 .0308191
622.540 .0308080
623.304 .0307966
624.068 .0307850
624.832 .0307728
625.595 .0307599
626.358 .0307467
627.120 .0307340
627.883 .0307222
628.645 .0307111
629.406 .0307002
630.168 .0306885
630.929 .0306759
631.689 .0306616
632.450 .0306454
633.210 .0306284
633.970 .0306096
634.729 .0305896
635.489 .0305682
636.248 .0305455
637.006 .0305218
637.765 .0304973
638.523 .0304720
639.280 .0304465
640.038 .0304208
640.795 .0303959
641.552 .0303715
642.309 .0303487
643.065 .0303276
643.821 .0303075
644.577 .0302879
645.332 .0302689
646.088 .0302501
646.843 .0302318
647.597 .0302134
648.352 .0301959
649.106 .0301791
649.860 .0301627
650.613 .0301460
651.367 .0301295
652.120 .0301130
652.872 .0300967
653.625 .0300795
654.377 .0300621
655.129 .0300443
655.881 .0300258
656.632 .0300065
657.384 .0299865
658.135 .0299653
658.885 .0299427
659.636 .0299185
660.386 .0298935
661.136 .0298679
661.885 .0298428
662.635 .0298184
663.384 .0297955
664.133 .0297745
664.881 .0297546
665.630 .0297361
666.378 .0297189
667.126 .0297023
667.874 .0296856
668.621 .0296683
669.368 .0296507
670.115 .0296328
670.862 .0296154
671.608 .0295992
672.354 .0295842
673.100 .0295714
673.846 .0295603
674.591 .0295501
675.337 .0295410
676.082 .0295324
676.826 .0295238
677.571 .0295146
678.315 .0295043
679.059 .0294934
679.803 .0294827
680.547 .0294727
681.290 .0294633
682.033 .0294544
682.776 .0294465
683.518 .0294384
684.261 .0294296
685.003 .0294206
685.745 .0294102
686.487 .0293991
687.228 .0293875
687.969 .0293750
688.710 .0293626
689.451 .0293508
690.192 .0293392
690.932 .0293273
691.672 .0293148
692.412 .0293009
693.152 .0292855
693.891 .0292695
694.630 .0292528
695.369 .0292355
696.108 .0292190
696.846 .0292035
697.585 .0291889
698.323 .0291757
699.061 .0291629
699.798 .0291503
700.536 .0291382
701.273 .0291252
702.010 .0291113
702.746 .0290972
703.483 .0290836
704.219 .0290708
704.955 .0290590
705.691 .0290482
706.427 .0290383
707.162 .0290291
707.897 .0290199
708.632 .0290101
709.367 .0289995
710.101 .0289879
710.835 .0289750
711.569 .0289613
712.303 .0289468
713.037 .0289320
713.770 .0289175
714.503 .0289027
715.236 .0288878
715.969 .0288727
716.702 .0288568
717.434 .0288408
718.166 .0288242
718.898 .0288067
719.629 .0287886
720.361 .0287703
721.092 .0287519
721.823 .0287333
722.554 .0287146
723.284 .0286954
724.014 .0286750
724.744 .0286539
725.474 .0286315
726.204 .0286075
726.933 .0285830
727.662 .0285575
728.391 .0285315
729.120 .0285058
729.849 .0284804
730.577 .0284557
731.305 .0284317
732.033 .0284084
732.760 .0283850
733.488 .0283616
734.215 .0283382
734.942 .0283147
735.669 .0282912
736.395 .0282683
737.122 .0282457
737.848 .0282233
738.573 .0282016
739.299 .0281802
740.024 .0281591
740.750 .0281383
741.474 .0281173
742.199 .0280957
742.924 .0280734
743.648 .0280508
744.372 .0280276
745.096 .0280049
745.819 .0279823
746.543 .0279597
747.266 .0279379
747.989 .0279168
748.711 .0278966
749.434 .0278773
750.156 .0278594
750.878 .0278423
751.599 .0278260
752.321 .0278105
753.042 .0277957
753.763 .0277817
754.484 .0277683
755.205 .0277556
755.925 .0277434
756.645 .0277310
757.365 .0277183
758.085 .0277053
758.804 .0276913
759.523 .0276755
760.242 .0276578
760.961 .0276379
761.679 .0276162
762.397 .0275927
763.115 .0275680
763.833 .0275424
764.551 .0275166
765.268 .0274902
765.985 .0274630
766.702 .0274353
767.418 .0274069
768.134 .0273780
768.850 .0273496
769.566 .0273217
770.282 .0272949
770.997 .0272700
771.712 .0272474
772.427 .0272269
773.142 .0272086
773.856 .0271914
774.570 .0271754
775.284 .0271602
775.998 .0271451
776.711 .0271301
777.424 .0271154
778.137 .0271014
778.849 .0270873
779.562 .0270734
780.274 .0270592
780.986 .0270448
781.697 .0270299
782.409 .0270149
783.120 .0269999
783.831 .0269854
784.541 .0269717
785.252 .0269589
785.962 .0269468
786.671 .0269352
787.381 .0269233
788.090 .0269113
788.799 .0268983
789.508 .0268843
790.217 .0268694
790.925 .0268544
791.633 .0268397
792.341 .0268259
793.048 .0268128
793.755 .0268007
794.462 .0267890
795.169 .0267774
795.875 .0267654
796.581 .0267533
797.287 .0267410
797.993 .0267287
798.698 .0267170
799.403 .0267063
800.108 .0266970
800.812 .0266895
801.517 .0266832
802.221 .0266783
802.924 .0266739
803.628 .0266697
804.331 .0266652
805.034 .0266604
805.736 .0266546
806.439 .0266479
807.141 .0266401
807.843 .0266312
808.544 .0266214
809.245 .0266107
809.946 .0265994
810.647 .0265877
811.347 .0265762
812.047 .0265652
812.747 .0265547
813.447 .0265455
814.146 .0265370
814.845 .0265299
815.543 .0265239
816.242 .0265188
816.940 .0265144
817.638 .0265106
818.335 .0265073
819.032 .0265038
819.729 .0265002
820.426 .0264964
821.122 .0264919
821.818 .0264867
822.514 .0264804
823.209 .0264728
823.905 .0264634
824.599 .0264525
825.294 .0264396
825.988 .0264253
826.682 .0264098
827.376 .0263933
828.069 .0263765
828.762 .0263600
829.455 .0263436
830.147 .0263276
830.840 .0263126
831.531 .0262985
832.223 .0262852
832.914 .0262730
833.605 .0262615
834.296 .0262508
834.986 .0262410
835.676 .0262314
836.366 .0262222
837.055 .0262133
837.744 .0262044
838.433 .0261954
839.121 .0261865
839.809 .0261772
840.497 .0261673
841.185 .0261573
841.872 .0261466
842.559 .0261355
843.245 .0261242
843.932 .0261126
844.617 .0261014
845.303 .0260905
845.988 .0260803
846.673 .0260706
847.358 .0260616
848.042 .0260530
848.726 .0260444
849.410 .0260354
850.093 .0260256
850.776 .0260152
851.459 .0260043
852.141 .0259924
852.823 .0259804
853.505 .0259685
854.186 .0259567
854.867 .0259450
855.548 .0259333
856.228 .0259211
856.908 .0259082
857.588 .0258943
858.267 .0258791
858.946 .0258629
859.625 .0258458
860.303 .0258277
860.981 .0258095
861.659 .0257914
862.336 .0257733
863.013 .0257553
863.690 .0257378
864.366 .0257205
865.042 .0257032
865.718 .0256859
866.393 .0256685
867.068 .0256515
867.743 .0256347
868.417 .0256178
869.091 .0256013
869.765 .0255849
870.438 .0255688
871.111 .0255527
871.783 .0255371
872.456 .0255212
873.127 .0255051
873.799 .0254886
874.470 .0254712
875.141 .0254535
875.811 .0254354
876.481 .0254172
877.151 .0253996
877.820 .0253825
878.489 .0253655
879.158 .0253493
879.826 .0253336
880.494 .0253178
881.162 .0253017
881.829 .0252854
882.496 .0252684
883.163 .0252509
883.829 .0252335
884.495 .0252159
885.160 .0251989
885.825 .0251829
886.490 .0251673
887.154 .0251519
887.818 .0251364
888.482 .0251204
889.145 .0251034
889.808 .0250856
890.471 .0250665
891.133 .0250469
891.795 .0250268
892.456 .0250069
893.117 .0249870
893.778 .0249680
894.439 .0249503
895.099 .0249336
895.758 .0249176
896.417 .0249023
897.076 .0248873
897.735 .0248727
898.393 .0248582
899.051 .0248440
899.708 .0248297
900.365 .0248159
901.022 .0248027
901.678 .0247902
902.334 .0247782
902.990 .0247677
903.645 .0247580
904.300 .0247488
904.954 .0247399
905.608 .0247305
906.262 .0247203
906.915 .0247096
907.568 .0246973
908.221 .0246836
908.873 .0246688
909.525 .0246531
910.176 .0246361
910.828 .0246190
911.478 .0246015
912.129 .0245830
912.778 .0245643
913.428 .0245452
914.077 .0245249
914.726 .0245041
915.375 .0244831
916.023 .0244621
916.670 .0244417
917.318 .0244223
917.964 .0244040
918.611 .0243874
919.257 .0243725
919.903 .0243584
920.548 .0243455
921.193 .0243339
921.838 .0243228
922.482 .0243126
923.126 .0243037
923.770 .0242956
924.413 .0242885
925.056 .0242825
925.698 .0242771
926.340 .0242719
926.982 .0242665
927.623 .0242604
928.264 .0242534
928.904 .0242457
929.544 .0242370
930.184 .0242279
930.823 .0242191
931.462 .0242102
932.101 .0242014
932.739 .0241926
933.377 .0241831
934.014 .0241730
934.651 .0241621
935.288 .0241507
935.924 .0241388
936.560 .0241271
937.196 .0241159
937.831 .0241055
938.466 .0240958
939.100 .0240863
939.734 .0240766
940.368 .0240669
941.001 .0240564
941.634 .0240454
942.266 .0240342
942.899 .0240230
943.530 .0240123
944.162 .0240022
944.793 .0239925
945.423 .0239831
946.053 .0239733
946.683 .0239627
947.313 .0239512
947.942 .0239385
948.571 .0239247
949.199 .0239103
949.827 .0238958
950.455 .0238813
951.082 .0238673
951.709 .0238540
952.335 .0238414
952.961 .0238293
953.587 .0238171
954.212 .0238044
954.837 .0237914
955.462 .0237781
956.086 .0237650
956.710 .0237526
957.334 .0237414
957.957 .0237316
958.579 .0237234
959.202 .0237170
959.824 .0237121
960.445 .0237081
961.067 .0237055
961.688 .0237031
962.308 .0237012
962.928 .0236993
963.548 .0236971
964.168 .0236950
964.787 .0236929
965.406 .0236903
966.024 .0236871
966.642 .0236830
967.260 .0236783
967.877 .0236726
968.494 .0236665
969.110 .0236600
969.727 .0236531
970.342 .0236461
970.958 .0236397
971.573 .0236336
972.188 .0236280
972.802 .0236229
973.416 .0236184
974.030 .0236145
974.643 .0236110
975.256 .0236079
975.869 .0236060
976.481 .0236052
977.093 .0236058
977.705 .0236073
978.316 .0236103
978.927 .0236138
979.538 .0236175
980.148 .0236212
980.758 .0236244
981.367 .0236271
981.977 .0236293
982.586 .0236312
983.194 .0236330
983.802 .0236351
984.410 .0236375
985.018 .0236409
985.625 .0236461
986.232 .0236522
986.838 .0236592
987.445 .0236671
988.050 .0236753
988.656 .0236833
989.261 .0236906
989.866 .0236970
990.471 .0237027
991.075 .0237077
991.679 .0237121
992.282 .0237164
992.886 .0237211
993.489 .0237263
994.091 .0237313
994.694 .0237364
995.296 .0237412
995.897 .0237449
996.499 .0237473
997.100 .0237487
997.701 .0237496
998.301 .0237499
998.901 .0237500
999.501 .0237510
1000.101 .0237529
1000.700 .0237557
1001.299 .0237590
1001.898 .0237633
1002.496 .0237683
1003.094 .0237738
1003.692 .0237793
1004.289 .0237853
1004.887 .0237923
1005.484 .0237994
1006.080 .0238059
1006.677 .0238124
1007.273 .0238176
1007.868 .0238213
1008.464 .0238233
1009.059 .0238241
1009.654 .0238240
1010.249 .0238242
1010.843 .0238251
1011.437 .0238268
1012.031 .0238292
1012.625 .0238316
1013.218 .0238334
1013.811 .0238345
1014.404 .0238335
1014.997 .0238308
1015.589 .0238265
1016.181 .0238216
1016.773 .0238162
1017.365 .0238122
1017.956 .0238098
1018.547 .0238095
1019.138 .0238106
1019.728 .0238124
1020.319 .0238143
1020.909 .0238156
1021.499 .0238158
1022.088 .0238147
1022.678 .0238117
1023.267 .0238076
1023.856 .0238026
1024.445 .0237977
1025.033 .0237927
1025.621 .0237883
1026.209 .0237843
1026.797 .0237803
1027.385 .0237765
1027.972 .0237722
1028.560 .0237679
1029.147 .0237635
1029.734 .0237593
1030.320 .0237544
1030.907 .0237493
1031.493 .0237446
1032.079 .0237399
1032.665 .0237359
1033.250 .0237329
1033.836 .0237310
1034.421 .0237304
1035.006 .0237311
1035.591 .0237329
1036.176 .0237353
1036.761 .0237380
1037.345 .0237396
1037.929 .0237397
1038.514 .0237384
1039.097 .0237357
1039.681 .0237320
1040.265 .0237278
1040.848 .0237242
1041.432 .0237207
1042.015 .0237181
1042.598 .0237157
1043.181 .0237136
1043.764 .0237116
1044.346 .0237093
1044.929 .0237061
1045.511 .0237025
1046.094 .0236993
1046.676 .0236969
1047.258 .0236960
1047.840 .0236965
1048.422 .0236980
1049.003 .0237007
1049.585 .0237033
1050.166 .0237048
1050.748 .0237052
1051.329 .0237045
1051.910 .0237018
1052.491 .0236981
1053.072 .0236930
1053.653 .0236856
1054.234 .0236775
1054.815 .0236681
1055.396 .0236565
1055.976 .0236425
1056.557 .0236270
1057.138 .0236092
1057.718 .0235905
1058.298 .0235716
1058.879 .0235518
1059.459 .0235325
1060.039 .0235144
1060.620 .0234954
1061.200 .0234746
1061.780 .0234532
1062.360 .0234299
1062.940 .0234052
1063.520 .0233804
1064.101 .0233549
1064.681 .0233308
1065.261 .0233090
1065.841 .0232894
1066.421 .0232713
1067.001 .0232547
1067.581 .0232395
1068.161 .0232233
1068.741 .0232066
1069.321 .0231906
1069.901 .0231756
1070.482 .0231632
1071.062 .0231545
1071.642 .0231495
1072.222 .0231478
1072.803 .0231483
1073.383 .0231497
1073.963 .0231502
1074.544 .0231487
1075.124 .0231440
1075.705 .0231357
1076.286 .0231252
1076.866 .0231132
1077.447 .0230998
1078.028 .0230870
1078.609 .0230755
1079.190 .0230635
1079.771 .0230521
1080.352 .0230397
1080.934 .0230267
1081.515 .0230132
1082.097 .0229993
1082.679 .0229867
1083.260 .0229752
1083.842 .0229671
1084.424 .0229617
1085.007 .0229594
1085.589 .0229602
1086.172 .0229626
1086.754 .0229671
1087.337 .0229732
1087.920 .0229806
1088.503 .0229897
1089.087 .0230009
1089.670 .0230130
1090.254 .0230252
1090.838 .0230371
1091.422 .0230462
1092.006 .0230525
1092.590 .0230534
1093.175 .0230493
1093.760 .0230383
1094.345 .0230222
1094.930 .0230006
1095.516 .0229749
1096.102 .0229478
1096.688 .0229195
1097.274 .0228914
1097.860 .0228652
1098.447 .0228401
1099.034 .0228176
1099.622 .0227959
1100.209 .0227766
1100.797 .0227580
1101.385 .0227410
1101.973 .0227272
1102.562 .0227157
1103.151 .0227073
1103.740 .0227032
1104.330 .0227008
1104.920 .0227002
1105.510 .0227003
1106.101 .0226986
1106.691 .0226943
1107.283 .0226870
1107.874 .0226748
1108.466 .0226575
1109.058 .0226372
1109.651 .0226156
1110.244 .0225925
1110.837 .0225717
1111.431 .0225528
1112.025 .0225379
1112.620 .0225292
1113.215 .0225252
1113.810 .0225251
1114.406 .0225314
1115.002 .0225413
1115.599 .0225532
1116.196 .0225668
1116.793 .0225817
1117.391 .0225953
1117.989 .0226080
1118.588 .0226200
1119.187 .0226294
1119.787 .0226369
1120.387 .0226440
1120.988 .0226485
1121.589 .0226525
1122.190 .0226523
1122.793 .0226475
1123.395 .0226382
1123.998 .0226260
1124.602 .0226102
1125.206 .0225918
1125.811 .0225762
1126.416 .0225645
1127.022 .0225555
1127.628 .0225510
1128.235 .0225506
1128.843 .0225540
1129.451 .0225613
1130.059 .0225705
1130.669 .0225832
1131.278 .0226012
1131.889 .0226232
1132.500 .0226525
1133.112 .0226877
1133.724 .0227325
1134.337 .0227857
1134.950 .0228450
1135.564 .0229135
1136.179 .0229853
1136.795 .0230623
1137.411 .0231438
1138.028 .0232289
1138.645 .0233214
1139.263 .0234150
1139.882 .0235074
1140.502 .0236054
1141.122 .0237056
1141.743 .0238023
1142.365 .0239122
1142.987 .0238683
1143.611 .0241504
1144.235 .0242635
1144.859 .0241746
1145.485 .0247429
