Measurement Sequence started on: 10-20-44-796
Integration time: 35
Scans to Average: 2 
>>>>>Begin Spectral Data<<<<<
432.953 .0312843
433.882 .0375632
434.810 .0375234
435.737 .0399860
436.662 .0412827
437.586 .0405007
438.509 .0410633
439.431 .0412697
440.351 .0413618
441.269 .0413269
442.187 .0412499
443.103 .0411570
444.018 .0410737
444.932 .0409876
445.844 .0408942
446.756 .0407747
447.666 .0406353
448.575 .0404978
449.482 .0403700
450.388 .0402663
451.294 .0401849
452.198 .0401215
453.100 .0400680
454.002 .0400291
454.902 .0399999
455.801 .0399651
456.699 .0399281
457.596 .0398921
458.492 .0398516
459.387 .0398207
460.280 .0397995
461.172 .0397803
462.064 .0397670
462.954 .0397643
463.843 .0397604
464.730 .0397526
465.617 .0397383
466.503 .0397118
467.387 .0396737
468.271 .0396187
469.153 .0395459
470.035 .0394601
470.915 .0393765
471.794 .0392845
472.673 .0391916
473.550 .0390998
474.426 .0390093
475.301 .0389207
476.175 .0388334
477.048 .0387484
477.920 .0386631
478.791 .0385802
479.661 .0385029
480.530 .0384297
481.398 .0383644
482.266 .0383064
483.132 .0382609
483.997 .0382254
484.861 .0381998
485.724 .0381841
486.587 .0381816
487.448 .0381864
488.308 .0381949
489.168 .0382026
490.026 .0382073
490.884 .0382085
491.741 .0382003
492.597 .0381825
493.452 .0381581
494.306 .0381256
495.159 .0380878
496.011 .0380496
496.862 .0380102
497.713 .0379690
498.562 .0379226
499.411 .0378681
500.259 .0377992
501.106 .0377162
501.952 .0376228
502.798 .0375189
503.642 .0374109
504.486 .0373005
505.329 .0371881
506.171 .0370792
507.012 .0369721
507.852 .0368667
508.692 .0367621
509.531 .0366582
510.369 .0365505
511.206 .0364411
512.043 .0363290
512.878 .0362136
513.713 .0360975
514.547 .0359855
515.381 .0358742
516.213 .0357613
517.045 .0356496
517.876 .0355385
518.706 .0354230
519.536 .0353093
520.365 .0351894
521.193 .0350700
522.020 .0349436
522.847 .0348102
523.673 .0346630
524.498 .0345082
525.323 .0343405
526.146 .0341635
526.969 .0339808
527.792 .0337902
528.614 .0335857
529.435 .0333830
530.255 .0331756
531.075 .0329729
531.894 .0327725
532.712 .0325864
533.530 .0324094
534.347 .0322481
535.163 .0320949
535.979 .0319586
536.794 .0318441
537.608 .0317468
538.422 .0316542
539.235 .0315816
540.048 .0315225
540.860 .0314846
541.671 .0314662
542.481 .0314755
543.292 .0314997
544.101 .0315397
544.910 .0315827
545.718 .0316243
546.526 .0316586
547.333 .0316885
548.139 .0317038
548.945 .0317163
549.750 .0317253
550.555 .0317384
551.359 .0317553
552.162 .0317873
552.965 .0318258
553.768 .0318675
554.569 .0319083
555.371 .0319431
556.171 .0319673
556.972 .0319855
557.771 .0319983
558.570 .0320107
559.369 .0320290
560.167 .0320590
560.964 .0320979
561.761 .0321527
562.558 .0322228
563.354 .0323071
564.149 .0323997
564.944 .0324974
565.738 .0325961
566.532 .0326901
567.325 .0327801
568.118 .0328621
568.910 .0329386
569.702 .0330104
570.494 .0330757
571.285 .0331359
572.075 .0331926
572.865 .0332469
573.654 .0332979
574.443 .0333445
575.232 .0333908
576.020 .0334323
576.807 .0334672
577.594 .0334953
578.381 .0335194
579.167 .0335367
579.952 .0335520
580.738 .0335668
581.522 .0335837
582.307 .0336036
583.091 .0336281
583.874 .0336553
584.657 .0336846
585.440 .0337137
586.222 .0337365
587.004 .0337503
587.785 .0337579
588.566 .0337578
589.346 .0337518
590.126 .0337435
590.906 .0337346
591.685 .0337257
592.464 .0337188
593.242 .0337132
594.020 .0337077
594.797 .0337031
595.575 .0336977
596.351 .0336904
597.128 .0336814
597.904 .0336700
598.679 .0336572
599.454 .0336438
600.229 .0336311
601.004 .0336187
601.778 .0336059
602.551 .0335933
603.325 .0335794
604.097 .0335632
604.870 .0335440
605.642 .0335219
606.414 .0334968
607.185 .0334697
607.956 .0334411
608.727 .0334118
609.497 .0333824
610.267 .0333541
611.037 .0333266
611.806 .0333002
612.575 .0332754
613.344 .0332517
614.112 .0332293
614.880 .0332083
615.647 .0331873
616.414 .0331669
617.181 .0331476
617.948 .0331296
618.714 .0331121
619.480 .0330960
620.245 .0330807
621.011 .0330657
621.775 .0330508
622.540 .0330356
623.304 .0330196
624.068 .0330029
624.832 .0329845
625.595 .0329644
626.358 .0329427
627.120 .0329203
627.883 .0328969
628.645 .0328735
629.406 .0328499
630.168 .0328259
630.929 .0328016
631.689 .0327774
632.450 .0327527
633.210 .0327273
633.970 .0327011
634.729 .0326747
635.489 .0326475
636.248 .0326197
637.006 .0325922
637.765 .0325652
638.523 .0325389
639.280 .0325132
640.038 .0324872
640.795 .0324621
641.552 .0324379
642.309 .0324144
643.065 .0323919
643.821 .0323702
644.577 .0323493
645.332 .0323292
646.088 .0323103
646.843 .0322917
647.597 .0322734
648.352 .0322563
649.106 .0322396
649.860 .0322233
650.613 .0322072
651.367 .0321912
652.120 .0321753
652.872 .0321589
653.625 .0321403
654.377 .0321195
655.129 .0320968
655.881 .0320716
656.632 .0320445
657.384 .0320161
658.135 .0319863
658.885 .0319556
659.636 .0319248
660.386 .0318941
661.136 .0318623
661.885 .0318307
662.635 .0317987
663.384 .0317666
664.133 .0317346
664.881 .0317022
665.630 .0316703
666.378 .0316400
667.126 .0316109
667.874 .0315825
668.621 .0315552
669.368 .0315295
670.115 .0315040
670.862 .0314790
671.608 .0314545
672.354 .0314303
673.100 .0314063
673.846 .0313829
674.591 .0313593
675.337 .0313362
676.082 .0313140
676.826 .0312925
677.571 .0312713
678.315 .0312506
679.059 .0312297
679.803 .0312088
680.547 .0311880
681.290 .0311670
682.033 .0311451
682.776 .0311232
683.518 .0311001
684.261 .0310759
685.003 .0310504
685.745 .0310233
686.487 .0309949
687.228 .0309657
687.969 .0309352
688.710 .0309041
689.451 .0308731
690.192 .0308430
690.932 .0308135
691.672 .0307855
692.412 .0307583
693.152 .0307322
693.891 .0307074
694.630 .0306830
695.369 .0306593
696.108 .0306364
696.846 .0306145
697.585 .0305932
698.323 .0305731
699.061 .0305537
699.798 .0305351
700.536 .0305171
701.273 .0304992
702.010 .0304810
702.746 .0304624
703.483 .0304430
704.219 .0304230
704.955 .0304027
705.691 .0303821
706.427 .0303615
707.162 .0303415
707.897 .0303219
708.632 .0303028
709.367 .0302840
710.101 .0302658
710.835 .0302477
711.569 .0302300
712.303 .0302125
713.037 .0301958
713.770 .0301799
714.503 .0301643
715.236 .0301490
715.969 .0301344
716.702 .0301196
717.434 .0301051
718.166 .0300902
718.898 .0300753
719.629 .0300603
720.361 .0300453
721.092 .0300297
721.823 .0300142
722.554 .0299987
723.284 .0299832
724.014 .0299673
724.744 .0299509
725.474 .0299339
726.204 .0299166
726.933 .0298995
727.662 .0298824
728.391 .0298656
729.120 .0298494
729.849 .0298338
730.577 .0298193
731.305 .0298049
732.033 .0297903
732.760 .0297753
733.488 .0297596
734.215 .0297427
734.942 .0297250
735.669 .0297068
736.395 .0296890
737.122 .0296722
737.848 .0296565
738.573 .0296416
739.299 .0296272
740.024 .0296131
740.750 .0295985
741.474 .0295830
742.199 .0295666
742.924 .0295490
743.648 .0295311
744.372 .0295139
745.096 .0294980
745.819 .0294842
746.543 .0294731
747.266 .0294649
747.989 .0294587
748.711 .0294541
749.434 .0294506
750.156 .0294475
750.878 .0294448
751.599 .0294423
752.321 .0294398
753.042 .0294383
753.763 .0294376
754.484 .0294377
755.205 .0294384
755.925 .0294396
756.645 .0294397
757.365 .0294386
758.085 .0294360
758.804 .0294307
759.523 .0294228
760.242 .0294126
760.961 .0294000
761.679 .0293852
762.397 .0293680
763.115 .0293487
763.833 .0293275
764.551 .0293047
765.268 .0292799
765.985 .0292540
766.702 .0292273
767.418 .0292004
768.134 .0291735
768.850 .0291476
769.566 .0291226
770.282 .0290992
770.997 .0290775
771.712 .0290568
772.427 .0290370
773.142 .0290179
773.856 .0289985
774.570 .0289792
775.284 .0289593
775.998 .0289394
776.711 .0289196
777.424 .0289002
778.137 .0288805
778.849 .0288604
779.562 .0288400
780.274 .0288191
780.986 .0287976
781.697 .0287763
782.409 .0287551
783.120 .0287348
783.831 .0287155
784.541 .0286979
785.252 .0286820
785.962 .0286676
786.671 .0286542
787.381 .0286416
788.090 .0286288
788.799 .0286154
789.508 .0286012
790.217 .0285869
790.925 .0285722
791.633 .0285572
792.341 .0285416
793.048 .0285251
793.755 .0285077
794.462 .0284888
795.169 .0284680
795.875 .0284459
796.581 .0284221
797.287 .0283974
797.993 .0283724
798.698 .0283483
799.403 .0283255
800.108 .0283045
800.812 .0282856
801.517 .0282682
802.221 .0282518
802.924 .0282365
803.628 .0282219
804.331 .0282087
805.034 .0281964
805.736 .0281847
806.439 .0281735
807.141 .0281629
807.843 .0281521
808.544 .0281408
809.245 .0281284
809.946 .0281150
810.647 .0281003
811.347 .0280845
812.047 .0280678
812.747 .0280509
813.447 .0280339
814.146 .0280173
814.845 .0280008
815.543 .0279846
816.242 .0279684
816.940 .0279524
817.638 .0279370
818.335 .0279219
819.032 .0279075
819.729 .0278939
820.426 .0278817
821.122 .0278705
821.818 .0278598
822.514 .0278492
823.209 .0278387
823.905 .0278278
824.599 .0278157
825.294 .0278023
825.988 .0277879
826.682 .0277726
827.376 .0277567
828.069 .0277400
828.762 .0277234
829.455 .0277063
830.147 .0276892
830.840 .0276719
831.531 .0276548
832.223 .0276382
832.914 .0276220
833.605 .0276067
834.296 .0275923
834.986 .0275789
835.676 .0275667
836.366 .0275556
837.055 .0275466
837.744 .0275389
838.433 .0275321
839.121 .0275268
839.809 .0275223
840.497 .0275184
841.185 .0275144
841.872 .0275103
842.559 .0275059
843.245 .0275007
843.932 .0274948
844.617 .0274881
845.303 .0274811
845.988 .0274737
846.673 .0274656
847.358 .0274572
848.042 .0274485
848.726 .0274394
849.410 .0274299
850.093 .0274206
850.776 .0274114
851.459 .0274019
852.141 .0273922
852.823 .0273825
853.505 .0273730
854.186 .0273632
854.867 .0273533
855.548 .0273433
856.228 .0273338
856.908 .0273245
857.588 .0273156
858.267 .0273074
858.946 .0273000
859.625 .0272932
860.303 .0272869
860.981 .0272808
861.659 .0272747
862.336 .0272681
863.013 .0272613
863.690 .0272544
864.366 .0272471
865.042 .0272399
865.718 .0272333
866.393 .0272278
867.068 .0272227
867.743 .0272182
868.417 .0272143
869.091 .0272109
869.765 .0272078
870.438 .0272040
871.111 .0271997
871.783 .0271954
872.456 .0271906
873.127 .0271854
873.799 .0271797
874.470 .0271740
875.141 .0271678
875.811 .0271617
876.481 .0271557
877.151 .0271499
877.820 .0271443
878.489 .0271397
879.158 .0271353
879.826 .0271313
880.494 .0271275
881.162 .0271239
881.829 .0271208
882.496 .0271175
883.163 .0271139
883.829 .0271102
884.495 .0271063
885.160 .0271036
885.825 .0271012
886.490 .0271001
887.154 .0271000
887.818 .0271003
888.482 .0271010
889.145 .0271013
889.808 .0271017
890.471 .0271016
891.133 .0271013
891.795 .0271005
892.456 .0270994
893.117 .0270982
893.778 .0270973
894.439 .0270969
895.099 .0270968
895.758 .0270969
896.417 .0270965
897.076 .0270956
897.735 .0270938
898.393 .0270910
899.051 .0270874
899.708 .0270824
900.365 .0270761
901.022 .0270681
901.678 .0270594
902.334 .0270501
902.990 .0270410
903.645 .0270320
904.300 .0270231
904.954 .0270145
905.608 .0270056
906.262 .0269966
906.915 .0269877
907.568 .0269787
908.221 .0269701
908.873 .0269616
909.525 .0269537
910.176 .0269462
910.828 .0269398
911.478 .0269342
912.129 .0269289
912.778 .0269231
913.428 .0269168
914.077 .0269093
914.726 .0269007
915.375 .0268912
916.023 .0268813
916.670 .0268711
917.318 .0268608
917.964 .0268502
918.611 .0268390
919.257 .0268274
919.903 .0268155
920.548 .0268031
921.193 .0267910
921.838 .0267792
922.482 .0267680
923.126 .0267578
923.770 .0267490
924.413 .0267407
925.056 .0267328
925.698 .0267247
926.340 .0267159
926.982 .0267059
927.623 .0266950
928.264 .0266832
928.904 .0266706
929.544 .0266574
930.184 .0266440
930.823 .0266301
931.462 .0266160
932.101 .0266008
932.739 .0265855
933.377 .0265690
934.014 .0265514
934.651 .0265325
935.288 .0265128
935.924 .0264927
936.560 .0264725
937.196 .0264525
937.831 .0264327
938.466 .0264131
939.100 .0263940
939.734 .0263745
940.368 .0263553
941.001 .0263356
941.634 .0263158
942.266 .0262956
942.899 .0262754
943.530 .0262547
944.162 .0262339
944.793 .0262136
945.423 .0261936
946.053 .0261735
946.683 .0261536
947.313 .0261337
947.942 .0261140
948.571 .0260936
949.199 .0260728
949.827 .0260507
950.455 .0260284
951.082 .0260049
951.709 .0259810
952.335 .0259568
952.961 .0259323
953.587 .0259080
954.212 .0258841
954.837 .0258606
955.462 .0258378
956.086 .0258155
956.710 .0257942
957.334 .0257733
957.957 .0257529
958.579 .0257323
959.202 .0257118
959.824 .0256914
960.445 .0256708
961.067 .0256504
961.688 .0256305
962.308 .0256111
962.928 .0255922
963.548 .0255736
964.168 .0255547
964.787 .0255352
965.406 .0255149
966.024 .0254933
966.642 .0254705
967.260 .0254468
967.877 .0254226
968.494 .0253978
969.110 .0253732
969.727 .0253489
970.342 .0253254
970.958 .0253028
971.573 .0252815
972.188 .0252617
972.802 .0252439
973.416 .0252284
974.030 .0252146
974.643 .0252024
975.256 .0251916
975.869 .0251818
976.481 .0251724
977.093 .0251639
977.705 .0251562
978.316 .0251487
978.927 .0251425
979.538 .0251376
980.148 .0251335
980.758 .0251300
981.367 .0251273
981.977 .0251240
982.586 .0251200
983.194 .0251148
983.802 .0251083
984.410 .0251007
985.018 .0250927
985.625 .0250835
986.232 .0250739
986.838 .0250641
987.445 .0250534
988.050 .0250410
988.656 .0250279
989.261 .0250130
989.866 .0249961
990.471 .0249777
991.075 .0249585
991.679 .0249378
992.282 .0249171
992.886 .0248965
993.489 .0248764
994.091 .0248568
994.694 .0248380
995.296 .0248192
995.897 .0248014
996.499 .0247844
997.100 .0247676
997.701 .0247522
998.301 .0247386
998.901 .0247260
999.501 .0247153
1000.101 .0247067
1000.700 .0247006
1001.299 .0246955
1001.898 .0246921
1002.496 .0246893
1003.094 .0246868
1003.692 .0246844
1004.289 .0246811
1004.887 .0246775
1005.484 .0246741
1006.080 .0246704
1006.677 .0246662
1007.273 .0246617
1007.868 .0246569
1008.464 .0246519
1009.059 .0246467
1009.654 .0246415
1010.249 .0246363
1010.843 .0246312
1011.437 .0246270
1012.031 .0246237
1012.625 .0246216
1013.218 .0246206
1013.811 .0246207
1014.404 .0246220
1014.997 .0246240
1015.589 .0246263
1016.181 .0246288
1016.773 .0246319
1017.365 .0246365
1017.956 .0246414
1018.547 .0246469
1019.138 .0246536
1019.728 .0246612
1020.319 .0246691
1020.909 .0246767
1021.499 .0246835
1022.088 .0246895
1022.678 .0246931
1023.267 .0246943
1023.856 .0246921
1024.445 .0246879
1025.033 .0246813
1025.621 .0246724
1026.209 .0246622
1026.797 .0246508
1027.385 .0246378
1027.972 .0246243
1028.560 .0246107
1029.147 .0245973
1029.734 .0245842
1030.320 .0245720
1030.907 .0245605
1031.493 .0245500
1032.079 .0245411
1032.665 .0245339
1033.250 .0245285
1033.836 .0245253
1034.421 .0245238
1035.006 .0245242
1035.591 .0245265
1036.176 .0245303
1036.761 .0245349
1037.345 .0245406
1037.929 .0245464
1038.514 .0245511
1039.097 .0245540
1039.681 .0245558
1040.265 .0245568
1040.848 .0245571
1041.432 .0245570
1042.015 .0245560
1042.598 .0245549
1043.181 .0245538
1043.764 .0245523
1044.346 .0245506
1044.929 .0245490
1045.511 .0245477
1046.094 .0245456
1046.676 .0245440
1047.258 .0245425
1047.840 .0245413
1048.422 .0245420
1049.003 .0245431
1049.585 .0245445
1050.166 .0245456
1050.748 .0245474
1051.329 .0245499
1051.910 .0245530
1052.491 .0245577
1053.072 .0245640
1053.653 .0245726
1054.234 .0245830
1054.815 .0245936
1055.396 .0246055
1055.976 .0246186
1056.557 .0246314
1057.138 .0246433
1057.718 .0246549
1058.298 .0246657
1058.879 .0246769
1059.459 .0246876
1060.039 .0246976
1060.620 .0247051
1061.200 .0247104
1061.780 .0247127
1062.360 .0247115
1062.940 .0247078
1063.520 .0247012
1064.101 .0246929
1064.681 .0246842
1065.261 .0246728
1065.841 .0246600
1066.421 .0246468
1067.001 .0246324
1067.581 .0246159
1068.161 .0245985
1068.741 .0245800
1069.321 .0245621
1069.901 .0245458
1070.482 .0245313
1071.062 .0245190
1071.642 .0245097
1072.222 .0245026
1072.803 .0244967
1073.383 .0244931
1073.963 .0244899
1074.544 .0244874
1075.124 .0244866
1075.705 .0244863
1076.286 .0244883
1076.866 .0244925
1077.447 .0244985
1078.028 .0245059
1078.609 .0245144
1079.190 .0245222
1079.771 .0245289
1080.352 .0245358
1080.934 .0245408
1081.515 .0245464
1082.097 .0245529
1082.679 .0245596
1083.260 .0245669
1083.842 .0245743
1084.424 .0245804
1085.007 .0245843
1085.589 .0245864
1086.172 .0245857
1086.754 .0245836
1087.337 .0245825
1087.920 .0245831
1088.503 .0245863
1089.087 .0245923
1089.670 .0246004
1090.254 .0246088
1090.838 .0246173
1091.422 .0246231
1092.006 .0246265
1092.590 .0246293
1093.175 .0246323
1093.760 .0246370
1094.345 .0246449
1094.930 .0246567
1095.516 .0246734
1096.102 .0246943
1096.688 .0247188
1097.274 .0247453
1097.860 .0247721
1098.447 .0247963
1099.034 .0248187
1099.622 .0248391
1100.209 .0248582
1100.797 .0248757
1101.385 .0248935
1101.973 .0249100
1102.562 .0249244
1103.151 .0249345
1103.740 .0249379
1104.330 .0249362
1104.920 .0249295
1105.510 .0249168
1106.101 .0249009
1106.691 .0248858
1107.283 .0248714
1107.874 .0248594
1108.466 .0248525
1109.058 .0248478
1109.651 .0248455
1110.244 .0248430
1110.837 .0248397
1111.431 .0248349
1112.025 .0248300
1112.620 .0248270
1113.215 .0248261
1113.810 .0248350
1114.406 .0248526
1115.002 .0248807
1115.599 .0249203
1116.196 .0249661
1116.793 .0250146
1117.391 .0250606
1117.989 .0251004
1118.588 .0251320
1119.187 .0251542
1119.787 .0251700
1120.387 .0251809
1120.988 .0251939
1121.589 .0252083
1122.190 .0252260
1122.793 .0252475
1123.395 .0252732
1123.998 .0252988
1124.602 .0253250
1125.206 .0253488
1125.811 .0253720
1126.416 .0253954
1127.022 .0254157
1127.628 .0254326
1128.235 .0254486
1128.843 .0254650
1129.451 .0254838
1130.059 .0255046
1130.669 .0255323
1131.278 .0255630
1131.889 .0255979
1132.500 .0256374
1133.112 .0256764
1133.724 .0257185
1134.337 .0257600
1134.950 .0257951
1135.564 .0258272
1136.179 .0258584
1136.795 .0258891
1137.411 .0259252
1138.028 .0259731
1138.645 .0260325
1139.263 .0261025
1139.882 .0261886
1140.502 .0262917
1141.122 .0264034
1141.743 .0265457
1142.365 .0266827
1142.987 .0267514
1143.611 .0270412
1144.235 .0269848
1144.859 .0276747
1145.485 .0272564
