Measurement Sequence started on: 10-20-44-796
Integration time: 35
Scans to Average: 2 
>>>>>Begin Spectral Data<<<<<
432.953 .0340760
433.882 .0427970
434.810 .0398903
435.737 .0421065
436.662 .0404515
437.586 .0390428
438.509 .0387484
439.431 .0382071
440.351 .0378105
441.269 .0374294
442.187 .0371582
443.103 .0369622
444.018 .0368009
444.932 .0366428
445.844 .0365113
446.756 .0363861
447.666 .0362871
448.575 .0362077
449.482 .0361460
450.388 .0361008
451.294 .0360740
452.198 .0360595
453.100 .0360483
454.002 .0360418
454.902 .0360311
455.801 .0360200
456.699 .0360078
457.596 .0359932
458.492 .0359711
459.387 .0359451
460.280 .0359075
461.172 .0358537
462.064 .0357933
462.954 .0357293
463.843 .0356598
464.730 .0355862
465.617 .0355063
466.503 .0354269
467.387 .0353466
468.271 .0352642
469.153 .0351827
470.035 .0351060
470.915 .0350373
471.794 .0349751
472.673 .0349209
473.550 .0348816
474.426 .0348583
475.301 .0348496
476.175 .0348531
477.048 .0348609
477.920 .0348723
478.791 .0348813
479.661 .0348858
480.530 .0348850
481.398 .0348769
482.266 .0348628
483.132 .0348465
483.997 .0348275
484.861 .0348077
485.724 .0347862
486.587 .0347663
487.448 .0347408
488.308 .0347059
489.168 .0346600
490.026 .0346044
490.884 .0345419
491.741 .0344757
492.597 .0344062
493.452 .0343397
494.306 .0342797
495.159 .0342263
496.011 .0341767
496.862 .0341317
497.713 .0340824
498.562 .0340260
499.411 .0339600
500.259 .0338847
501.106 .0338010
501.952 .0337171
502.798 .0336336
503.642 .0335532
504.486 .0334779
505.329 .0334039
506.171 .0333289
507.012 .0332536
507.852 .0331693
508.692 .0330758
509.531 .0329727
510.369 .0328631
511.206 .0327450
512.043 .0326266
512.878 .0325055
513.713 .0323821
514.547 .0322542
515.381 .0321214
516.213 .0319795
517.045 .0318323
517.876 .0316741
518.706 .0315057
519.536 .0313357
520.365 .0311594
521.193 .0309817
522.020 .0308080
522.847 .0306328
523.673 .0304650
524.498 .0303006
525.323 .0301387
526.146 .0299882
526.969 .0298504
527.792 .0297265
528.614 .0296107
529.435 .0295135
530.255 .0294252
531.075 .0293391
531.894 .0292559
532.712 .0291674
533.530 .0290665
534.347 .0289696
535.163 .0288596
535.979 .0287554
536.794 .0286638
537.608 .0285852
538.422 .0285232
539.235 .0284791
540.048 .0284459
540.860 .0284192
541.671 .0283907
542.481 .0283690
543.292 .0283305
544.101 .0282948
544.910 .0282609
545.718 .0282335
546.526 .0282225
547.333 .0282318
548.139 .0282622
548.945 .0283206
549.750 .0283912
550.555 .0284712
551.359 .0285516
552.162 .0286316
552.965 .0287049
553.768 .0287639
554.569 .0288142
555.371 .0288605
556.171 .0288972
556.972 .0289317
557.771 .0289634
558.570 .0289962
559.369 .0290312
560.167 .0290668
560.964 .0291068
561.761 .0291489
562.558 .0291962
563.354 .0292470
564.149 .0292976
564.944 .0293489
565.738 .0293964
566.532 .0294403
567.325 .0294853
568.118 .0295271
568.910 .0295714
569.702 .0296221
570.494 .0296775
571.285 .0297396
572.075 .0298050
572.865 .0298729
573.654 .0299430
574.443 .0300127
575.232 .0300802
576.020 .0301413
576.807 .0302019
577.594 .0302617
578.381 .0303212
579.167 .0303824
579.952 .0304451
580.738 .0305113
581.522 .0305803
582.307 .0306462
583.091 .0307101
583.874 .0307708
584.657 .0308280
585.440 .0308804
586.222 .0309281
587.004 .0309730
587.785 .0310163
588.566 .0310576
589.346 .0310958
590.126 .0311283
590.906 .0311562
591.685 .0311769
592.464 .0311903
593.242 .0311970
594.020 .0311962
594.797 .0311910
595.575 .0311827
596.351 .0311718
597.128 .0311595
597.904 .0311449
598.679 .0311293
599.454 .0311111
600.229 .0310902
601.004 .0310663
601.778 .0310399
602.551 .0310119
603.325 .0309827
604.097 .0309530
604.870 .0309244
605.642 .0308974
606.414 .0308725
607.185 .0308492
607.956 .0308276
608.727 .0308068
609.497 .0307863
610.267 .0307655
611.037 .0307449
611.806 .0307240
612.575 .0307036
613.344 .0306835
614.112 .0306633
614.880 .0306436
615.647 .0306240
616.414 .0306046
617.181 .0305855
617.948 .0305669
618.714 .0305485
619.480 .0305301
620.245 .0305120
621.011 .0304930
621.775 .0304736
622.540 .0304536
623.304 .0304327
624.068 .0304113
624.832 .0303894
625.595 .0303679
626.358 .0303475
627.120 .0303283
627.883 .0303098
628.645 .0302925
629.406 .0302762
630.168 .0302590
630.929 .0302409
631.689 .0302210
632.450 .0301995
633.210 .0301765
633.970 .0301522
634.729 .0301274
635.489 .0301026
636.248 .0300786
637.006 .0300546
637.765 .0300308
638.523 .0300072
639.280 .0299828
640.038 .0299577
640.795 .0299324
641.552 .0299065
642.309 .0298808
643.065 .0298564
643.821 .0298339
644.577 .0298129
645.332 .0297934
646.088 .0297754
646.843 .0297583
647.597 .0297412
648.352 .0297243
649.106 .0297076
649.860 .0296918
650.613 .0296769
651.367 .0296625
652.120 .0296485
652.872 .0296353
653.625 .0296222
654.377 .0296090
655.129 .0295948
655.881 .0295801
656.632 .0295640
657.384 .0295466
658.135 .0295284
658.885 .0295094
659.636 .0294902
660.386 .0294715
661.136 .0294528
661.885 .0294347
662.635 .0294170
663.384 .0294006
664.133 .0293849
664.881 .0293706
665.630 .0293572
666.378 .0293445
667.126 .0293328
667.874 .0293217
668.621 .0293103
669.368 .0292992
670.115 .0292882
670.862 .0292768
671.608 .0292652
672.354 .0292536
673.100 .0292418
673.846 .0292312
674.591 .0292212
675.337 .0292117
676.082 .0292023
676.826 .0291933
677.571 .0291832
678.315 .0291725
679.059 .0291612
679.803 .0291493
680.547 .0291368
681.290 .0291246
682.033 .0291115
682.776 .0290994
683.518 .0290878
684.261 .0290768
685.003 .0290665
685.745 .0290562
686.487 .0290454
687.228 .0290335
687.969 .0290200
688.710 .0290044
689.451 .0289861
690.192 .0289663
690.932 .0289438
691.672 .0289198
692.412 .0288951
693.152 .0288699
693.891 .0288451
694.630 .0288209
695.369 .0287966
696.108 .0287720
696.846 .0287470
697.585 .0287209
698.323 .0286937
699.061 .0286656
699.798 .0286369
700.536 .0286080
701.273 .0285797
702.010 .0285524
702.746 .0285263
703.483 .0285022
704.219 .0284794
704.955 .0284573
705.691 .0284359
706.427 .0284143
707.162 .0283929
707.897 .0283710
708.632 .0283493
709.367 .0283277
710.101 .0283062
710.835 .0282846
711.569 .0282630
712.303 .0282412
713.037 .0282194
713.770 .0281969
714.503 .0281744
715.236 .0281513
715.969 .0281279
716.702 .0281042
717.434 .0280810
718.166 .0280579
718.898 .0280351
719.629 .0280121
720.361 .0279890
721.092 .0279656
721.823 .0279421
722.554 .0279177
723.284 .0278934
724.014 .0278684
724.744 .0278431
725.474 .0278175
726.204 .0277924
726.933 .0277679
727.662 .0277438
728.391 .0277206
729.120 .0276980
729.849 .0276760
730.577 .0276545
731.305 .0276327
732.033 .0276113
732.760 .0275903
733.488 .0275694
734.215 .0275484
734.942 .0275284
735.669 .0275093
736.395 .0274910
737.122 .0274733
737.848 .0274564
738.573 .0274397
739.299 .0274230
740.024 .0274059
740.750 .0273880
741.474 .0273700
742.199 .0273516
742.924 .0273329
743.648 .0273149
744.372 .0272973
745.096 .0272809
745.819 .0272654
746.543 .0272514
747.266 .0272387
747.989 .0272272
748.711 .0272171
749.434 .0272082
750.156 .0272007
750.878 .0271945
751.599 .0271894
752.321 .0271856
753.042 .0271827
753.763 .0271802
754.484 .0271771
755.205 .0271738
755.925 .0271699
756.645 .0271650
757.365 .0271591
758.085 .0271524
758.804 .0271448
759.523 .0271364
760.242 .0271271
760.961 .0271170
761.679 .0271062
762.397 .0270949
763.115 .0270825
763.833 .0270691
764.551 .0270549
765.268 .0270397
765.985 .0270236
766.702 .0270074
767.418 .0269904
768.134 .0269736
768.850 .0269573
769.566 .0269416
770.282 .0269272
770.997 .0269140
771.712 .0269020
772.427 .0268911
773.142 .0268811
773.856 .0268713
774.570 .0268613
775.284 .0268512
775.998 .0268411
776.711 .0268317
777.424 .0268231
778.137 .0268156
778.849 .0268095
779.562 .0268046
780.274 .0268005
780.986 .0267970
781.697 .0267937
782.409 .0267902
783.120 .0267870
783.831 .0267838
784.541 .0267811
785.252 .0267797
785.962 .0267791
786.671 .0267793
787.381 .0267796
788.090 .0267795
788.799 .0267783
789.508 .0267757
790.217 .0267715
790.925 .0267654
791.633 .0267585
792.341 .0267504
793.048 .0267412
793.755 .0267310
794.462 .0267194
795.169 .0267062
795.875 .0266919
796.581 .0266767
797.287 .0266611
797.993 .0266459
798.698 .0266317
799.403 .0266191
800.108 .0266086
800.812 .0266001
801.517 .0265932
802.221 .0265877
802.924 .0265825
803.628 .0265773
804.331 .0265725
805.034 .0265682
805.736 .0265644
806.439 .0265614
807.141 .0265590
807.843 .0265569
808.544 .0265542
809.245 .0265500
809.946 .0265437
810.647 .0265354
811.347 .0265245
812.047 .0265110
812.747 .0264962
813.447 .0264809
814.146 .0264654
814.845 .0264509
815.543 .0264377
816.242 .0264259
816.940 .0264154
817.638 .0264057
818.335 .0263966
819.032 .0263881
819.729 .0263801
820.426 .0263722
821.122 .0263644
821.818 .0263569
822.514 .0263494
823.209 .0263421
823.905 .0263350
824.599 .0263272
825.294 .0263184
825.988 .0263085
826.682 .0262967
827.376 .0262829
828.069 .0262669
828.762 .0262490
829.455 .0262297
830.147 .0262092
830.840 .0261879
831.531 .0261665
832.223 .0261460
832.914 .0261259
833.605 .0261064
834.296 .0260879
834.986 .0260703
835.676 .0260533
836.366 .0260371
837.055 .0260218
837.744 .0260073
838.433 .0259940
839.121 .0259817
839.809 .0259703
840.497 .0259604
841.185 .0259512
841.872 .0259431
842.559 .0259362
843.245 .0259301
843.932 .0259243
844.617 .0259189
845.303 .0259136
845.988 .0259078
846.673 .0259013
847.358 .0258946
848.042 .0258871
848.726 .0258790
849.410 .0258705
850.093 .0258614
850.776 .0258516
851.459 .0258414
852.141 .0258298
852.823 .0258170
853.505 .0258025
854.186 .0257861
854.867 .0257676
855.548 .0257476
856.228 .0257271
856.908 .0257060
857.588 .0256848
858.267 .0256646
858.946 .0256448
859.625 .0256260
860.303 .0256081
860.981 .0255910
861.659 .0255743
862.336 .0255585
863.013 .0255429
863.690 .0255274
864.366 .0255122
865.042 .0254980
865.718 .0254840
866.393 .0254710
867.068 .0254584
867.743 .0254459
868.417 .0254337
869.091 .0254215
869.765 .0254086
870.438 .0253951
871.111 .0253809
871.783 .0253653
872.456 .0253481
873.127 .0253297
873.799 .0253106
874.470 .0252908
875.141 .0252713
875.811 .0252521
876.481 .0252330
877.151 .0252148
877.820 .0251973
878.489 .0251805
879.158 .0251648
879.826 .0251502
880.494 .0251362
881.162 .0251227
881.829 .0251100
882.496 .0250976
883.163 .0250853
883.829 .0250733
884.495 .0250613
885.160 .0250493
885.825 .0250372
886.490 .0250254
887.154 .0250140
887.818 .0250035
888.482 .0249937
889.145 .0249842
889.808 .0249751
890.471 .0249662
891.133 .0249570
891.795 .0249474
892.456 .0249380
893.117 .0249285
893.778 .0249187
894.439 .0249097
895.099 .0249012
895.758 .0248934
896.417 .0248865
897.076 .0248800
897.735 .0248736
898.393 .0248670
899.051 .0248596
899.708 .0248508
900.365 .0248412
901.022 .0248301
901.678 .0248178
902.334 .0248046
902.990 .0247912
903.645 .0247779
904.300 .0247652
904.954 .0247537
905.608 .0247429
906.262 .0247333
906.915 .0247248
907.568 .0247170
908.221 .0247099
908.873 .0247031
909.525 .0246966
910.176 .0246903
910.828 .0246842
911.478 .0246783
912.129 .0246729
912.778 .0246675
913.428 .0246618
914.077 .0246551
914.726 .0246467
915.375 .0246364
916.023 .0246241
916.670 .0246107
917.318 .0245959
917.964 .0245804
918.611 .0245646
919.257 .0245488
919.903 .0245336
920.548 .0245183
921.193 .0245036
921.838 .0244895
922.482 .0244757
923.126 .0244619
923.770 .0244482
924.413 .0244354
925.056 .0244238
925.698 .0244138
926.340 .0244056
926.982 .0243991
927.623 .0243942
928.264 .0243905
928.904 .0243872
929.544 .0243843
930.184 .0243809
930.823 .0243765
931.462 .0243710
932.101 .0243644
932.739 .0243570
933.377 .0243490
934.014 .0243411
934.651 .0243335
935.288 .0243259
935.924 .0243188
936.560 .0243116
937.196 .0243044
937.831 .0242968
938.466 .0242883
939.100 .0242783
939.734 .0242671
940.368 .0242551
941.001 .0242422
941.634 .0242292
942.266 .0242165
942.899 .0242038
943.530 .0241910
944.162 .0241785
944.793 .0241660
945.423 .0241529
946.053 .0241399
946.683 .0241266
947.313 .0241128
947.942 .0240985
948.571 .0240833
949.199 .0240670
949.827 .0240503
950.455 .0240325
951.082 .0240140
951.709 .0239955
952.335 .0239778
952.961 .0239611
953.587 .0239458
954.212 .0239322
954.837 .0239197
955.462 .0239075
956.086 .0238957
956.710 .0238836
957.334 .0238717
957.957 .0238599
958.579 .0238489
959.202 .0238389
959.824 .0238307
960.445 .0238240
961.067 .0238193
961.688 .0238160
962.308 .0238144
962.928 .0238126
963.548 .0238104
964.168 .0238081
964.787 .0238048
965.406 .0238007
966.024 .0237960
966.642 .0237905
967.260 .0237847
967.877 .0237780
968.494 .0237707
969.110 .0237628
969.727 .0237551
970.342 .0237471
970.958 .0237390
971.573 .0237316
972.188 .0237250
972.802 .0237184
973.416 .0237127
974.030 .0237071
974.643 .0237008
975.256 .0236945
975.869 .0236874
976.481 .0236796
977.093 .0236723
977.705 .0236652
978.316 .0236587
978.927 .0236536
979.538 .0236501
980.148 .0236474
980.758 .0236459
981.367 .0236459
981.977 .0236460
982.586 .0236464
983.194 .0236474
983.802 .0236484
984.410 .0236495
985.018 .0236514
985.625 .0236535
986.232 .0236565
986.838 .0236605
987.445 .0236648
988.050 .0236691
988.656 .0236736
989.261 .0236772
989.866 .0236788
990.471 .0236790
991.075 .0236780
991.679 .0236754
992.282 .0236727
992.886 .0236703
993.489 .0236688
994.091 .0236683
994.694 .0236688
995.296 .0236698
995.897 .0236709
996.499 .0236721
997.100 .0236727
997.701 .0236731
998.301 .0236739
998.901 .0236755
999.501 .0236785
1000.101 .0236836
1000.700 .0236896
1001.299 .0236962
1001.898 .0237029
1002.496 .0237090
1003.094 .0237133
1003.692 .0237165
1004.289 .0237190
1004.887 .0237220
1005.484 .0237253
1006.080 .0237298
1006.677 .0237348
1007.273 .0237409
1007.868 .0237464
1008.464 .0237508
1009.059 .0237539
1009.654 .0237556
1010.249 .0237558
1010.843 .0237557
1011.437 .0237553
1012.031 .0237551
1012.625 .0237557
1013.218 .0237567
1013.811 .0237569
1014.404 .0237572
1014.997 .0237573
1015.589 .0237574
1016.181 .0237576
1016.773 .0237583
1017.365 .0237601
1017.956 .0237632
1018.547 .0237679
1019.138 .0237728
1019.728 .0237786
1020.319 .0237851
1020.909 .0237921
1021.499 .0237996
1022.088 .0238088
1022.678 .0238188
1023.267 .0238298
1023.856 .0238417
1024.445 .0238538
1025.033 .0238652
1025.621 .0238757
1026.209 .0238850
1026.797 .0238932
1027.385 .0238992
1027.972 .0239044
1028.560 .0239087
1029.147 .0239139
1029.734 .0239191
1030.320 .0239239
1030.907 .0239293
1031.493 .0239349
1032.079 .0239392
1032.665 .0239420
1033.250 .0239431
1033.836 .0239427
1034.421 .0239402
1035.006 .0239361
1035.591 .0239305
1036.176 .0239246
1036.761 .0239186
1037.345 .0239132
1037.929 .0239073
1038.514 .0239022
1039.097 .0238964
1039.681 .0238902
1040.265 .0238839
1040.848 .0238766
1041.432 .0238683
1042.015 .0238601
1042.598 .0238520
1043.181 .0238448
1043.764 .0238380
1044.346 .0238329
1044.929 .0238280
1045.511 .0238241
1046.094 .0238201
1046.676 .0238165
1047.258 .0238129
1047.840 .0238100
1048.422 .0238065
1049.003 .0238028
1049.585 .0237984
1050.166 .0237934
1050.748 .0237874
1051.329 .0237809
1051.910 .0237734
1052.491 .0237658
1053.072 .0237581
1053.653 .0237517
1054.234 .0237456
1054.815 .0237413
1055.396 .0237384
1055.976 .0237370
1056.557 .0237365
1057.138 .0237373
1057.718 .0237389
1058.298 .0237418
1058.879 .0237460
1059.459 .0237516
1060.039 .0237571
1060.620 .0237613
1061.200 .0237633
1061.780 .0237626
1062.360 .0237589
1062.940 .0237523
1063.520 .0237430
1064.101 .0237325
1064.681 .0237206
1065.261 .0237076
1065.841 .0236921
1066.421 .0236753
1067.001 .0236563
1067.581 .0236334
1068.161 .0236082
1068.741 .0235816
1069.321 .0235552
1069.901 .0235316
1070.482 .0235127
1071.062 .0234996
1071.642 .0234923
1072.222 .0234910
1072.803 .0234934
1073.383 .0234980
1073.963 .0235033
1074.544 .0235078
1075.124 .0235113
1075.705 .0235149
1076.286 .0235176
1076.866 .0235203
1077.447 .0235245
1078.028 .0235302
1078.609 .0235354
1079.190 .0235403
1079.771 .0235434
1080.352 .0235436
1080.934 .0235411
1081.515 .0235353
1082.097 .0235260
1082.679 .0235149
1083.260 .0235032
1083.842 .0234908
1084.424 .0234781
1085.007 .0234673
1085.589 .0234586
1086.172 .0234524
1086.754 .0234486
1087.337 .0234475
1087.920 .0234496
1088.503 .0234541
1089.087 .0234608
1089.670 .0234678
1090.254 .0234763
1090.838 .0234841
1091.422 .0234916
1092.006 .0234979
1092.590 .0235041
1093.175 .0235095
1093.760 .0235146
1094.345 .0235186
1094.930 .0235194
1095.516 .0235155
1096.102 .0235077
1096.688 .0234943
1097.274 .0234775
1097.860 .0234552
1098.447 .0234311
1099.034 .0234044
1099.622 .0233773
1100.209 .0233494
1100.797 .0233250
1101.385 .0233038
1101.973 .0232867
1102.562 .0232723
1103.151 .0232622
1103.740 .0232551
1104.330 .0232527
1104.920 .0232540
1105.510 .0232603
1106.101 .0232704
1106.691 .0232844
1107.283 .0233005
1107.874 .0233202
1108.466 .0233396
1109.058 .0233596
1109.651 .0233792
1110.244 .0233971
1110.837 .0234097
1111.431 .0234178
1112.025 .0234208
1112.620 .0234196
1113.215 .0234120
1113.810 .0233996
1114.406 .0233834
1115.002 .0233641
1115.599 .0233424
1116.196 .0233163
1116.793 .0232901
1117.391 .0232618
1117.989 .0232305
1118.588 .0231992
1119.187 .0231665
1119.787 .0231350
1120.387 .0231049
1120.988 .0230782
1121.589 .0230557
1122.190 .0230387
1122.793 .0230293
1123.395 .0230270
1123.998 .0230342
1124.602 .0230497
1125.206 .0230727
1125.811 .0231037
1126.416 .0231437
1127.022 .0231883
1127.628 .0232374
1128.235 .0232907
1128.843 .0233431
1129.451 .0233956
1130.059 .0234507
1130.669 .0235064
1131.278 .0235618
1131.889 .0236163
1132.500 .0236665
1133.112 .0237089
1133.724 .0237455
1134.337 .0237768
1134.950 .0238013
1135.564 .0238262
1136.179 .0238519
1136.795 .0238797
1137.411 .0239159
1138.028 .0239595
1138.645 .0240125
1139.263 .0240704
1139.882 .0241331
1140.502 .0242041
1141.122 .0242855
1141.743 .0243776
1142.365 .0244718
1142.987 .0244566
1143.611 .0247301
1144.235 .0249742
1144.859 .0250037
1145.485 .0248854
