Measurement Sequence started on: 10-20-44-796
Integration time: 35
Scans to Average: 2 
>>>>>Begin Spectral Data<<<<<
432.953 .0318251
433.882 .0432304
434.810 .0405341
435.737 .0392672
436.662 .0370037
437.586 .0377167
438.509 .0375329
439.431 .0370833
440.351 .0368140
441.269 .0366365
442.187 .0365395
443.103 .0364558
444.018 .0363868
444.932 .0363382
445.844 .0362892
446.756 .0362433
447.666 .0361937
448.575 .0361423
449.482 .0360782
450.388 .0360097
451.294 .0359545
452.198 .0359137
453.100 .0358814
454.002 .0358678
454.902 .0358658
455.801 .0358654
456.699 .0358659
457.596 .0358614
458.492 .0358420
459.387 .0358163
460.280 .0357862
461.172 .0357520
462.064 .0357253
462.954 .0357094
463.843 .0357019
464.730 .0357065
465.617 .0357244
466.503 .0357396
467.387 .0357496
468.271 .0357518
469.153 .0357462
470.035 .0357316
470.915 .0357158
471.794 .0357002
472.673 .0356876
473.550 .0356862
474.426 .0356930
475.301 .0357074
476.175 .0357300
477.048 .0357530
477.920 .0357732
478.791 .0357849
479.661 .0357897
480.530 .0357838
481.398 .0357733
482.266 .0357636
483.132 .0357565
483.997 .0357512
484.861 .0357485
485.724 .0357505
486.587 .0357523
487.448 .0357509
488.308 .0357416
489.168 .0357238
490.026 .0356971
490.884 .0356610
491.741 .0356173
492.597 .0355674
493.452 .0355164
494.306 .0354646
495.159 .0354093
496.011 .0353528
496.862 .0352956
497.713 .0352339
498.562 .0351672
499.411 .0350935
500.259 .0350106
501.106 .0349184
501.952 .0348200
502.798 .0347157
503.642 .0346098
504.486 .0345041
505.329 .0344002
506.171 .0342983
507.012 .0342033
507.852 .0341089
508.692 .0340148
509.531 .0339185
510.369 .0338186
511.206 .0337121
512.043 .0335993
512.878 .0334780
513.713 .0333585
514.547 .0332385
515.381 .0331249
516.213 .0330181
517.045 .0329188
517.876 .0328194
518.706 .0327198
519.536 .0326168
520.365 .0325061
521.193 .0323807
522.020 .0322478
522.847 .0321021
523.673 .0319540
524.498 .0317987
525.323 .0316395
526.146 .0314813
526.969 .0313303
527.792 .0311793
528.614 .0310264
529.435 .0308761
530.255 .0307340
531.075 .0305984
531.894 .0304726
532.712 .0303540
533.530 .0302407
534.347 .0301362
535.163 .0300353
535.979 .0299386
536.794 .0298500
537.608 .0297696
538.422 .0297023
539.235 .0296491
540.048 .0296053
540.860 .0295740
541.671 .0295498
542.481 .0295356
543.292 .0295167
544.101 .0294896
544.910 .0294538
545.718 .0294117
546.526 .0293665
547.333 .0293187
548.139 .0292750
548.945 .0292463
549.750 .0292301
550.555 .0292320
551.359 .0292495
552.162 .0292826
552.965 .0293284
553.768 .0293781
554.569 .0294272
555.371 .0294749
556.171 .0295165
556.972 .0295527
557.771 .0295832
558.570 .0296124
559.369 .0296417
560.167 .0296738
560.964 .0297139
561.761 .0297595
562.558 .0298124
563.354 .0298719
564.149 .0299283
564.944 .0299835
565.738 .0300354
566.532 .0300820
567.325 .0301277
568.118 .0301716
568.910 .0302178
569.702 .0302704
570.494 .0303371
571.285 .0304138
572.075 .0305037
572.865 .0306042
573.654 .0307072
574.443 .0308075
575.232 .0309053
576.020 .0309941
576.807 .0310752
577.594 .0311486
578.381 .0312157
579.167 .0312756
579.952 .0313318
580.738 .0313841
581.522 .0314354
582.307 .0314828
583.091 .0315261
583.874 .0315639
584.657 .0315991
585.440 .0316299
586.222 .0316571
587.004 .0316829
587.785 .0317083
588.566 .0317329
589.346 .0317554
590.126 .0317768
590.906 .0317980
591.685 .0318166
592.464 .0318328
593.242 .0318462
594.020 .0318568
594.797 .0318630
595.575 .0318658
596.351 .0318656
597.128 .0318624
597.904 .0318566
598.679 .0318487
599.454 .0318386
600.229 .0318271
601.004 .0318142
601.778 .0317992
602.551 .0317838
603.325 .0317671
604.097 .0317482
604.870 .0317274
605.642 .0317053
606.414 .0316822
607.185 .0316575
607.956 .0316326
608.727 .0316072
609.497 .0315818
610.267 .0315573
611.037 .0315325
611.806 .0315075
612.575 .0314818
613.344 .0314556
614.112 .0314283
614.880 .0313999
615.647 .0313707
616.414 .0313407
617.181 .0313106
617.948 .0312803
618.714 .0312497
619.480 .0312192
620.245 .0311894
621.011 .0311605
621.775 .0311322
622.540 .0311042
623.304 .0310762
624.068 .0310489
624.832 .0310216
625.595 .0309952
626.358 .0309698
627.120 .0309453
627.883 .0309220
628.645 .0308999
629.406 .0308789
630.168 .0308596
630.929 .0308422
631.689 .0308265
632.450 .0308116
633.210 .0307973
633.970 .0307829
634.729 .0307684
635.489 .0307534
636.248 .0307367
637.006 .0307180
637.765 .0306973
638.523 .0306747
639.280 .0306494
640.038 .0306231
640.795 .0305964
641.552 .0305691
642.309 .0305426
643.065 .0305168
643.821 .0304915
644.577 .0304670
645.332 .0304431
646.088 .0304196
646.843 .0303959
647.597 .0303725
648.352 .0303495
649.106 .0303280
649.860 .0303089
650.613 .0302920
651.367 .0302778
652.120 .0302675
652.872 .0302587
653.625 .0302504
654.377 .0302423
655.129 .0302331
655.881 .0302226
656.632 .0302104
657.384 .0301967
658.135 .0301823
658.885 .0301676
659.636 .0301535
660.386 .0301390
661.136 .0301249
661.885 .0301106
662.635 .0300956
663.384 .0300801
664.133 .0300638
664.881 .0300467
665.630 .0300293
666.378 .0300126
667.126 .0299965
667.874 .0299805
668.621 .0299648
669.368 .0299490
670.115 .0299331
670.862 .0299166
671.608 .0299003
672.354 .0298843
673.100 .0298699
673.846 .0298574
674.591 .0298464
675.337 .0298372
676.082 .0298296
676.826 .0298227
677.571 .0298152
678.315 .0298068
679.059 .0297970
679.803 .0297855
680.547 .0297728
681.290 .0297592
682.033 .0297448
682.776 .0297300
683.518 .0297147
684.261 .0296988
685.003 .0296818
685.745 .0296637
686.487 .0296440
687.228 .0296225
687.969 .0295995
688.710 .0295752
689.451 .0295494
690.192 .0295229
690.932 .0294963
691.672 .0294696
692.412 .0294435
693.152 .0294185
693.891 .0293938
694.630 .0293707
695.369 .0293486
696.108 .0293271
696.846 .0293057
697.585 .0292842
698.323 .0292624
699.061 .0292404
699.798 .0292185
700.536 .0291966
701.273 .0291751
702.010 .0291549
702.746 .0291348
703.483 .0291152
704.219 .0290957
704.955 .0290757
705.691 .0290552
706.427 .0290342
707.162 .0290125
707.897 .0289904
708.632 .0289686
709.367 .0289477
710.101 .0289274
710.835 .0289081
711.569 .0288889
712.303 .0288699
713.037 .0288505
713.770 .0288303
714.503 .0288087
715.236 .0287868
715.969 .0287649
716.702 .0287424
717.434 .0287205
718.166 .0286992
718.898 .0286783
719.629 .0286580
720.361 .0286379
721.092 .0286182
721.823 .0285983
722.554 .0285780
723.284 .0285572
724.014 .0285358
724.744 .0285140
725.474 .0284911
726.204 .0284678
726.933 .0284442
727.662 .0284202
728.391 .0283960
729.120 .0283721
729.849 .0283490
730.577 .0283270
731.305 .0283061
732.033 .0282862
732.760 .0282676
733.488 .0282496
734.215 .0282320
734.942 .0282156
735.669 .0281998
736.395 .0281850
737.122 .0281705
737.848 .0281574
738.573 .0281448
739.299 .0281327
740.024 .0281210
740.750 .0281091
741.474 .0280968
742.199 .0280836
742.924 .0280689
743.648 .0280534
744.372 .0280371
745.096 .0280206
745.819 .0280035
746.543 .0279865
747.266 .0279697
747.989 .0279531
748.711 .0279369
749.434 .0279222
750.156 .0279089
750.878 .0278972
751.599 .0278876
752.321 .0278802
753.042 .0278752
753.763 .0278725
754.484 .0278714
755.205 .0278713
755.925 .0278715
756.645 .0278714
757.365 .0278699
758.085 .0278672
758.804 .0278629
759.523 .0278563
760.242 .0278479
760.961 .0278374
761.679 .0278247
762.397 .0278100
763.115 .0277943
763.833 .0277774
764.551 .0277598
765.268 .0277416
765.985 .0277231
766.702 .0277046
767.418 .0276864
768.134 .0276684
768.850 .0276510
769.566 .0276343
770.282 .0276189
770.997 .0276045
771.712 .0275913
772.427 .0275799
773.142 .0275700
773.856 .0275613
774.570 .0275531
775.284 .0275450
775.998 .0275366
776.711 .0275279
777.424 .0275189
778.137 .0275091
778.849 .0274989
779.562 .0274886
780.274 .0274777
780.986 .0274663
781.697 .0274547
782.409 .0274430
783.120 .0274314
783.831 .0274203
784.541 .0274096
785.252 .0273997
785.962 .0273909
786.671 .0273831
787.381 .0273760
788.090 .0273693
788.799 .0273630
789.508 .0273561
790.217 .0273488
790.925 .0273409
791.633 .0273325
792.341 .0273236
793.048 .0273141
793.755 .0273042
794.462 .0272932
795.169 .0272812
795.875 .0272684
796.581 .0272546
797.287 .0272404
797.993 .0272254
798.698 .0272103
799.403 .0271953
800.108 .0271805
800.812 .0271659
801.517 .0271515
802.221 .0271376
802.924 .0271236
803.628 .0271101
804.331 .0270975
805.034 .0270855
805.736 .0270747
806.439 .0270647
807.141 .0270554
807.843 .0270469
808.544 .0270385
809.245 .0270295
809.946 .0270201
810.647 .0270103
811.347 .0269999
812.047 .0269890
812.747 .0269782
813.447 .0269672
814.146 .0269562
814.845 .0269454
815.543 .0269340
816.242 .0269225
816.940 .0269111
817.638 .0268991
818.335 .0268870
819.032 .0268745
819.729 .0268613
820.426 .0268477
821.122 .0268335
821.818 .0268184
822.514 .0268021
823.209 .0267853
823.905 .0267676
824.599 .0267491
825.294 .0267300
825.988 .0267101
826.682 .0266897
827.376 .0266691
828.069 .0266476
828.762 .0266254
829.455 .0266030
830.147 .0265805
830.840 .0265581
831.531 .0265357
832.223 .0265139
832.914 .0264926
833.605 .0264716
834.296 .0264511
834.986 .0264304
835.676 .0264097
836.366 .0263891
837.055 .0263686
837.744 .0263481
838.433 .0263276
839.121 .0263074
839.809 .0262874
840.497 .0262682
841.185 .0262494
841.872 .0262307
842.559 .0262129
843.245 .0261957
843.932 .0261788
844.617 .0261624
845.303 .0261466
845.988 .0261312
846.673 .0261162
847.358 .0261015
848.042 .0260868
848.726 .0260724
849.410 .0260588
850.093 .0260458
850.776 .0260332
851.459 .0260213
852.141 .0260094
852.823 .0259978
853.505 .0259867
854.186 .0259753
854.867 .0259640
855.548 .0259524
856.228 .0259405
856.908 .0259283
857.588 .0259162
858.267 .0259042
858.946 .0258922
859.625 .0258800
860.303 .0258676
860.981 .0258548
861.659 .0258418
862.336 .0258280
863.013 .0258138
863.690 .0257987
864.366 .0257825
865.042 .0257650
865.718 .0257470
866.393 .0257287
867.068 .0257112
867.743 .0256942
868.417 .0256782
869.091 .0256635
869.765 .0256503
870.438 .0256381
871.111 .0256267
871.783 .0256158
872.456 .0256048
873.127 .0255930
873.799 .0255807
874.470 .0255677
875.141 .0255549
875.811 .0255421
876.481 .0255299
877.151 .0255179
877.820 .0255066
878.489 .0254956
879.158 .0254849
879.826 .0254744
880.494 .0254638
881.162 .0254522
881.829 .0254400
882.496 .0254270
883.163 .0254137
883.829 .0253999
884.495 .0253863
885.160 .0253736
885.825 .0253615
886.490 .0253503
887.154 .0253405
887.818 .0253317
888.482 .0253242
889.145 .0253175
889.808 .0253117
890.471 .0253063
891.133 .0253017
891.795 .0252976
892.456 .0252942
893.117 .0252921
893.778 .0252909
894.439 .0252907
895.099 .0252916
895.758 .0252932
896.417 .0252951
897.076 .0252975
897.735 .0252999
898.393 .0253014
899.051 .0253020
899.708 .0253008
900.365 .0252980
901.022 .0252937
901.678 .0252878
902.334 .0252810
902.990 .0252737
903.645 .0252663
904.300 .0252588
904.954 .0252517
905.608 .0252446
906.262 .0252378
906.915 .0252312
907.568 .0252247
908.221 .0252181
908.873 .0252120
909.525 .0252063
910.176 .0252012
910.828 .0251973
911.478 .0251943
912.129 .0251918
912.778 .0251900
913.428 .0251880
914.077 .0251859
914.726 .0251832
915.375 .0251800
916.023 .0251766
916.670 .0251737
917.318 .0251712
917.964 .0251688
918.611 .0251673
919.257 .0251672
919.903 .0251671
920.548 .0251682
921.193 .0251702
921.838 .0251732
922.482 .0251772
923.126 .0251821
923.770 .0251875
924.413 .0251936
925.056 .0251997
925.698 .0252049
926.340 .0252088
926.982 .0252115
927.623 .0252124
928.264 .0252117
928.904 .0252102
929.544 .0252074
930.184 .0252036
930.823 .0251997
931.462 .0251948
932.101 .0251894
932.739 .0251827
933.377 .0251750
934.014 .0251662
934.651 .0251562
935.288 .0251458
935.924 .0251350
936.560 .0251246
937.196 .0251153
937.831 .0251066
938.466 .0250986
939.100 .0250912
939.734 .0250840
940.368 .0250765
941.001 .0250688
941.634 .0250606
942.266 .0250518
942.899 .0250424
943.530 .0250324
944.162 .0250211
944.793 .0250086
945.423 .0249949
946.053 .0249790
946.683 .0249619
947.313 .0249442
947.942 .0249256
948.571 .0249070
949.199 .0248887
949.827 .0248702
950.455 .0248519
951.082 .0248336
951.709 .0248148
952.335 .0247956
952.961 .0247766
953.587 .0247573
954.212 .0247387
954.837 .0247214
955.462 .0247057
956.086 .0246918
956.710 .0246804
957.334 .0246704
957.957 .0246624
958.579 .0246554
959.202 .0246491
959.824 .0246431
960.445 .0246374
961.067 .0246312
961.688 .0246249
962.308 .0246186
962.928 .0246123
963.548 .0246056
964.168 .0245988
964.787 .0245916
965.406 .0245843
966.024 .0245767
966.642 .0245688
967.260 .0245604
967.877 .0245518
968.494 .0245417
969.110 .0245313
969.727 .0245199
970.342 .0245078
970.958 .0244955
971.573 .0244833
972.188 .0244715
972.802 .0244606
973.416 .0244508
974.030 .0244418
974.643 .0244335
975.256 .0244254
975.869 .0244162
976.481 .0244064
977.093 .0243960
977.705 .0243846
978.316 .0243729
978.927 .0243616
979.538 .0243500
980.148 .0243388
980.758 .0243281
981.367 .0243180
981.977 .0243084
982.586 .0242996
983.194 .0242915
983.802 .0242842
984.410 .0242781
985.018 .0242731
985.625 .0242693
986.232 .0242674
986.838 .0242662
987.445 .0242654
988.050 .0242639
988.656 .0242617
989.261 .0242579
989.866 .0242520
990.471 .0242445
991.075 .0242351
991.679 .0242238
992.282 .0242121
992.886 .0241995
993.489 .0241871
994.091 .0241739
994.694 .0241604
995.296 .0241462
995.897 .0241314
996.499 .0241158
997.100 .0240998
997.701 .0240847
998.301 .0240710
998.901 .0240587
999.501 .0240487
1000.101 .0240408
1000.700 .0240348
1001.299 .0240296
1001.898 .0240251
1002.496 .0240202
1003.094 .0240147
1003.692 .0240082
1004.289 .0240004
1004.887 .0239917
1005.484 .0239822
1006.080 .0239719
1006.677 .0239607
1007.273 .0239491
1007.868 .0239370
1008.464 .0239249
1009.059 .0239131
1009.654 .0239018
1010.249 .0238916
1010.843 .0238827
1011.437 .0238751
1012.031 .0238685
1012.625 .0238633
1013.218 .0238593
1013.811 .0238558
1014.404 .0238534
1014.997 .0238512
1015.589 .0238492
1016.181 .0238472
1016.773 .0238442
1017.365 .0238403
1017.956 .0238349
1018.547 .0238281
1019.138 .0238197
1019.728 .0238104
1020.319 .0238010
1020.909 .0237912
1021.499 .0237822
1022.088 .0237741
1022.678 .0237655
1023.267 .0237568
1023.856 .0237472
1024.445 .0237369
1025.033 .0237256
1025.621 .0237139
1026.209 .0237020
1026.797 .0236911
1027.385 .0236819
1027.972 .0236743
1028.560 .0236687
1029.147 .0236648
1029.734 .0236623
1030.320 .0236600
1030.907 .0236576
1031.493 .0236550
1032.079 .0236511
1032.665 .0236469
1033.250 .0236421
1033.836 .0236368
1034.421 .0236312
1035.006 .0236256
1035.591 .0236200
1036.176 .0236145
1036.761 .0236094
1037.345 .0236042
1037.929 .0235992
1038.514 .0235939
1039.097 .0235876
1039.681 .0235802
1040.265 .0235713
1040.848 .0235615
1041.432 .0235495
1042.015 .0235371
1042.598 .0235238
1043.181 .0235099
1043.764 .0234961
1044.346 .0234824
1044.929 .0234696
1045.511 .0234573
1046.094 .0234462
1046.676 .0234362
1047.258 .0234267
1047.840 .0234180
1048.422 .0234102
1049.003 .0234031
1049.585 .0233958
1050.166 .0233886
1050.748 .0233802
1051.329 .0233723
1051.910 .0233644
1052.491 .0233571
1053.072 .0233515
1053.653 .0233480
1054.234 .0233472
1054.815 .0233478
1055.396 .0233507
1055.976 .0233543
1056.557 .0233575
1057.138 .0233596
1057.718 .0233587
1058.298 .0233541
1058.879 .0233464
1059.459 .0233366
1060.039 .0233253
1060.620 .0233139
1061.200 .0233031
1061.780 .0232931
1062.360 .0232845
1062.940 .0232769
1063.520 .0232698
1064.101 .0232626
1064.681 .0232550
1065.261 .0232450
1065.841 .0232326
1066.421 .0232184
1067.001 .0232016
1067.581 .0231832
1068.161 .0231636
1068.741 .0231443
1069.321 .0231248
1069.901 .0231068
1070.482 .0230912
1071.062 .0230775
1071.642 .0230659
1072.222 .0230555
1072.803 .0230460
1073.383 .0230378
1073.963 .0230301
1074.544 .0230231
1075.124 .0230169
1075.705 .0230127
1076.286 .0230099
1076.866 .0230110
1077.447 .0230156
1078.028 .0230244
1078.609 .0230373
1079.190 .0230549
1079.771 .0230739
1080.352 .0230942
1080.934 .0231141
1081.515 .0231319
1082.097 .0231481
1082.679 .0231606
1083.260 .0231677
1083.842 .0231707
1084.424 .0231686
1085.007 .0231622
1085.589 .0231512
1086.172 .0231376
1086.754 .0231209
1087.337 .0231040
1087.920 .0230886
1088.503 .0230751
1089.087 .0230649
1089.670 .0230585
1090.254 .0230540
1090.838 .0230512
1091.422 .0230499
1092.006 .0230480
1092.590 .0230474
1093.175 .0230486
1093.760 .0230516
1094.345 .0230556
1094.930 .0230616
1095.516 .0230710
1096.102 .0230838
1096.688 .0230999
1097.274 .0231170
1097.860 .0231328
1098.447 .0231467
1099.034 .0231564
1099.622 .0231599
1100.209 .0231572
1100.797 .0231504
1101.385 .0231383
1101.973 .0231238
1102.562 .0231078
1103.151 .0230925
1103.740 .0230795
1104.330 .0230716
1104.920 .0230669
1105.510 .0230632
1106.101 .0230589
1106.691 .0230528
1107.283 .0230419
1107.874 .0230289
1108.466 .0230116
1109.058 .0229934
1109.651 .0229788
1110.244 .0229705
1110.837 .0229672
1111.431 .0229736
1112.025 .0229866
1112.620 .0230055
1113.215 .0230254
1113.810 .0230464
1114.406 .0230662
1115.002 .0230861
1115.599 .0231070
1116.196 .0231302
1116.793 .0231571
1117.391 .0231901
1117.989 .0232237
1118.588 .0232604
1119.187 .0232952
1119.787 .0233260
1120.387 .0233508
1120.988 .0233720
1121.589 .0233886
1122.190 .0234026
1122.793 .0234153
1123.395 .0234298
1123.998 .0234456
1124.602 .0234652
1125.206 .0234868
1125.811 .0235123
1126.416 .0235418
1127.022 .0235733
1127.628 .0236070
1128.235 .0236472
1128.843 .0236906
1129.451 .0237391
1130.059 .0237898
1130.669 .0238408
1131.278 .0238878
1131.889 .0239279
1132.500 .0239608
1133.112 .0239855
1133.724 .0240051
1134.337 .0240201
1134.950 .0240326
1135.564 .0240488
1136.179 .0240662
1136.795 .0240893
1137.411 .0241187
1138.028 .0241530
1138.645 .0241888
1139.263 .0242260
1139.882 .0242683
1140.502 .0243205
1141.122 .0243834
1141.743 .0244608
1142.365 .0245644
1142.987 .0245577
1143.611 .0248323
1144.235 .0249236
1144.859 .0250686
1145.485 .0255101
