Measurement Sequence started on: 10-20-44-796
Integration time: 35
Scans to Average: 2 
>>>>>Begin Spectral Data<<<<<
432.953 .0363617
433.882 .0260713
434.810 .0280231
435.737 .0308599
436.662 .0311939
437.586 .0317723
438.509 .0320359
439.431 .0324914
440.351 .0327505
441.269 .0328446
442.187 .0328769
443.103 .0328608
444.018 .0328184
444.932 .0327943
445.844 .0327724
446.756 .0327499
447.666 .0327230
448.575 .0326925
449.482 .0326707
450.388 .0326578
451.294 .0326593
452.198 .0326764
453.100 .0326971
454.002 .0327385
454.902 .0327845
455.801 .0328308
456.699 .0328796
457.596 .0329284
458.492 .0329698
459.387 .0330059
460.280 .0330371
461.172 .0330610
462.064 .0330818
462.954 .0330946
463.843 .0330934
464.730 .0330771
465.617 .0330497
466.503 .0330102
467.387 .0329588
468.271 .0329024
469.153 .0328422
470.035 .0327791
470.915 .0327191
471.794 .0326600
472.673 .0326034
473.550 .0325517
474.426 .0325089
475.301 .0324723
476.175 .0324428
477.048 .0324182
477.920 .0323976
478.791 .0323818
479.661 .0323698
480.530 .0323587
481.398 .0323441
482.266 .0323311
483.132 .0323194
483.997 .0323068
484.861 .0322960
485.724 .0322909
486.587 .0322897
487.448 .0322908
488.308 .0322927
489.168 .0322925
490.026 .0322849
490.884 .0322708
491.741 .0322455
492.597 .0322131
493.452 .0321733
494.306 .0321287
495.159 .0320812
496.011 .0320395
496.862 .0319992
497.713 .0319585
498.562 .0319162
499.411 .0318711
500.259 .0318144
501.106 .0317450
501.952 .0316621
502.798 .0315696
503.642 .0314665
504.486 .0313586
505.329 .0312475
506.171 .0311372
507.012 .0310247
507.852 .0309118
508.692 .0307987
509.531 .0306814
510.369 .0305564
511.206 .0304253
512.043 .0302909
512.878 .0301546
513.713 .0300155
514.547 .0298766
515.381 .0297422
516.213 .0296117
517.045 .0294770
517.876 .0293406
518.706 .0292041
519.536 .0290684
520.365 .0289361
521.193 .0288086
522.020 .0286938
522.847 .0285862
523.673 .0284847
524.498 .0283875
525.323 .0282900
526.146 .0281911
526.969 .0280868
527.792 .0279823
528.614 .0278781
529.435 .0277777
530.255 .0276818
531.075 .0275853
531.894 .0274919
532.712 .0273970
533.530 .0272874
534.347 .0271653
535.163 .0270333
535.979 .0268905
536.794 .0267471
537.608 .0266176
538.422 .0265040
539.235 .0264157
540.048 .0263510
540.860 .0263047
541.671 .0262690
542.481 .0262451
543.292 .0262221
544.101 .0261958
544.910 .0261771
545.718 .0261607
546.526 .0261525
547.333 .0261655
548.139 .0261979
548.945 .0262493
549.750 .0263152
550.555 .0263931
551.359 .0264724
552.162 .0265516
552.965 .0266309
553.768 .0267038
554.569 .0267800
555.371 .0268576
556.171 .0269362
556.972 .0270198
557.771 .0271063
558.570 .0271926
559.369 .0272798
560.167 .0273677
560.964 .0274514
561.761 .0275308
562.558 .0276086
563.354 .0276824
564.149 .0277526
564.944 .0278232
565.738 .0278931
566.532 .0279617
567.325 .0280311
568.118 .0280986
568.910 .0281677
569.702 .0282380
570.494 .0283079
571.285 .0283776
572.075 .0284477
572.865 .0285148
573.654 .0285760
574.443 .0286321
575.232 .0286850
576.020 .0287338
576.807 .0287815
577.594 .0288285
578.381 .0288780
579.167 .0289301
579.952 .0289857
580.738 .0290444
581.522 .0291077
582.307 .0291718
583.091 .0292348
583.874 .0292943
584.657 .0293494
585.440 .0293972
586.222 .0294398
587.004 .0294757
587.785 .0295067
588.566 .0295338
589.346 .0295576
590.126 .0295781
590.906 .0295952
591.685 .0296083
592.464 .0296164
593.242 .0296200
594.020 .0296197
594.797 .0296152
595.575 .0296094
596.351 .0296037
597.128 .0295985
597.904 .0295944
598.679 .0295923
599.454 .0295911
600.229 .0295903
601.004 .0295889
601.778 .0295859
602.551 .0295821
603.325 .0295788
604.097 .0295755
604.870 .0295728
605.642 .0295716
606.414 .0295718
607.185 .0295715
607.956 .0295714
608.727 .0295700
609.497 .0295666
610.267 .0295614
611.037 .0295531
611.806 .0295423
612.575 .0295295
613.344 .0295155
614.112 .0295008
614.880 .0294848
615.647 .0294685
616.414 .0294501
617.181 .0294312
617.948 .0294116
618.714 .0293914
619.480 .0293710
620.245 .0293510
621.011 .0293309
621.775 .0293110
622.540 .0292923
623.304 .0292748
624.068 .0292594
624.832 .0292461
625.595 .0292346
626.358 .0292251
627.120 .0292176
627.883 .0292116
628.645 .0292058
629.406 .0292005
630.168 .0291943
630.929 .0291869
631.689 .0291786
632.450 .0291685
633.210 .0291576
633.970 .0291454
634.729 .0291323
635.489 .0291173
636.248 .0291010
637.006 .0290831
637.765 .0290634
638.523 .0290420
639.280 .0290196
640.038 .0289958
640.795 .0289724
641.552 .0289487
642.309 .0289261
643.065 .0289042
643.821 .0288835
644.577 .0288633
645.332 .0288438
646.088 .0288246
646.843 .0288062
647.597 .0287878
648.352 .0287707
649.106 .0287540
649.860 .0287381
650.613 .0287224
651.367 .0287078
652.120 .0286931
652.872 .0286785
653.625 .0286633
654.377 .0286482
655.129 .0286322
655.881 .0286161
656.632 .0285989
657.384 .0285810
658.135 .0285628
658.885 .0285441
659.636 .0285249
660.386 .0285059
661.136 .0284869
661.885 .0284681
662.635 .0284494
663.384 .0284313
664.133 .0284125
664.881 .0283935
665.630 .0283748
666.378 .0283560
667.126 .0283372
667.874 .0283187
668.621 .0283000
669.368 .0282824
670.115 .0282652
670.862 .0282478
671.608 .0282308
672.354 .0282148
673.100 .0281989
673.846 .0281835
674.591 .0281689
675.337 .0281556
676.082 .0281431
676.826 .0281326
677.571 .0281234
678.315 .0281149
679.059 .0281072
679.803 .0280998
680.547 .0280925
681.290 .0280853
682.033 .0280769
682.776 .0280680
683.518 .0280584
684.261 .0280480
685.003 .0280362
685.745 .0280230
686.487 .0280087
687.228 .0279927
687.969 .0279752
688.710 .0279566
689.451 .0279371
690.192 .0279173
690.932 .0278973
691.672 .0278781
692.412 .0278594
693.152 .0278415
693.891 .0278246
694.630 .0278090
695.369 .0277938
696.108 .0277789
696.846 .0277639
697.585 .0277491
698.323 .0277343
699.061 .0277194
699.798 .0277047
700.536 .0276903
701.273 .0276762
702.010 .0276625
702.746 .0276488
703.483 .0276354
704.219 .0276218
704.955 .0276082
705.691 .0275945
706.427 .0275803
707.162 .0275660
707.897 .0275519
708.632 .0275386
709.367 .0275259
710.101 .0275134
710.835 .0275014
711.569 .0274899
712.303 .0274785
713.037 .0274672
713.770 .0274559
714.503 .0274441
715.236 .0274322
715.969 .0274196
716.702 .0274066
717.434 .0273937
718.166 .0273807
718.898 .0273676
719.629 .0273540
720.361 .0273407
721.092 .0273271
721.823 .0273134
722.554 .0272998
723.284 .0272860
724.014 .0272719
724.744 .0272572
725.474 .0272413
726.204 .0272249
726.933 .0272079
727.662 .0271901
728.391 .0271723
729.120 .0271544
729.849 .0271368
730.577 .0271193
731.305 .0271021
732.033 .0270855
732.760 .0270687
733.488 .0270515
734.215 .0270339
734.942 .0270165
735.669 .0269994
736.395 .0269826
737.122 .0269672
737.848 .0269530
738.573 .0269401
739.299 .0269280
740.024 .0269161
740.750 .0269041
741.474 .0268914
742.199 .0268777
742.924 .0268632
743.648 .0268487
744.372 .0268340
745.096 .0268199
745.819 .0268068
746.543 .0267946
747.266 .0267827
747.989 .0267712
748.711 .0267601
749.434 .0267491
750.156 .0267385
750.878 .0267284
751.599 .0267199
752.321 .0267131
753.042 .0267081
753.763 .0267046
754.484 .0267021
755.205 .0267002
755.925 .0266981
756.645 .0266950
757.365 .0266908
758.085 .0266855
758.804 .0266791
759.523 .0266715
760.242 .0266632
760.961 .0266535
761.679 .0266425
762.397 .0266297
763.115 .0266149
763.833 .0265974
764.551 .0265775
765.268 .0265552
765.985 .0265313
766.702 .0265065
767.418 .0264812
768.134 .0264559
768.850 .0264317
769.566 .0264084
770.282 .0263859
770.997 .0263642
771.712 .0263435
772.427 .0263229
773.142 .0263028
773.856 .0262831
774.570 .0262643
775.284 .0262463
775.998 .0262295
776.711 .0262138
777.424 .0261992
778.137 .0261853
778.849 .0261712
779.562 .0261565
780.274 .0261415
780.986 .0261250
781.697 .0261074
782.409 .0260893
783.120 .0260710
783.831 .0260528
784.541 .0260354
785.252 .0260186
785.962 .0260020
786.671 .0259854
787.381 .0259684
788.090 .0259507
788.799 .0259329
789.508 .0259144
790.217 .0258956
790.925 .0258767
791.633 .0258581
792.341 .0258396
793.048 .0258213
793.755 .0258036
794.462 .0257861
795.169 .0257687
795.875 .0257518
796.581 .0257351
797.287 .0257192
797.993 .0257040
798.698 .0256900
799.403 .0256766
800.108 .0256639
800.812 .0256516
801.517 .0256397
802.221 .0256282
802.924 .0256172
803.628 .0256067
804.331 .0255970
805.034 .0255882
805.736 .0255797
806.439 .0255719
807.141 .0255644
807.843 .0255571
808.544 .0255494
809.245 .0255409
809.946 .0255318
810.647 .0255216
811.347 .0255106
812.047 .0254991
812.747 .0254872
813.447 .0254749
814.146 .0254624
814.845 .0254500
815.543 .0254375
816.242 .0254248
816.940 .0254122
817.638 .0253994
818.335 .0253862
819.032 .0253730
819.729 .0253599
820.426 .0253473
821.122 .0253351
821.818 .0253233
822.514 .0253121
823.209 .0253016
823.905 .0252919
824.599 .0252824
825.294 .0252735
825.988 .0252649
826.682 .0252560
827.376 .0252473
828.069 .0252382
828.762 .0252288
829.455 .0252187
830.147 .0252081
830.840 .0251967
831.531 .0251848
832.223 .0251728
832.914 .0251606
833.605 .0251487
834.296 .0251374
834.986 .0251263
835.676 .0251154
836.366 .0251051
837.055 .0250945
837.744 .0250844
838.433 .0250744
839.121 .0250648
839.809 .0250557
840.497 .0250476
841.185 .0250408
841.872 .0250352
842.559 .0250311
843.245 .0250279
843.932 .0250251
844.617 .0250230
845.303 .0250205
845.988 .0250177
846.673 .0250146
847.358 .0250115
848.042 .0250080
848.726 .0250046
849.410 .0250006
850.093 .0249963
850.776 .0249912
851.459 .0249853
852.141 .0249778
852.823 .0249694
853.505 .0249601
854.186 .0249499
854.867 .0249395
855.548 .0249294
856.228 .0249193
856.908 .0249104
857.588 .0249023
858.267 .0248952
858.946 .0248884
859.625 .0248825
860.303 .0248766
860.981 .0248713
861.659 .0248664
862.336 .0248621
863.013 .0248587
863.690 .0248561
864.366 .0248540
865.042 .0248524
865.718 .0248507
866.393 .0248487
867.068 .0248457
867.743 .0248421
868.417 .0248374
869.091 .0248318
869.765 .0248258
870.438 .0248197
871.111 .0248135
871.783 .0248076
872.456 .0248018
873.127 .0247959
873.799 .0247898
874.470 .0247831
875.141 .0247759
875.811 .0247687
876.481 .0247615
877.151 .0247549
877.820 .0247493
878.489 .0247450
879.158 .0247418
879.826 .0247394
880.494 .0247375
881.162 .0247354
881.829 .0247327
882.496 .0247289
883.163 .0247236
883.829 .0247173
884.495 .0247103
885.160 .0247032
885.825 .0246963
886.490 .0246899
887.154 .0246842
887.818 .0246788
888.482 .0246732
889.145 .0246673
889.808 .0246608
890.471 .0246539
891.133 .0246467
891.795 .0246390
892.456 .0246316
893.117 .0246249
893.778 .0246192
894.439 .0246147
895.099 .0246112
895.758 .0246085
896.417 .0246060
897.076 .0246038
897.735 .0246015
898.393 .0245986
899.051 .0245950
899.708 .0245911
900.365 .0245862
901.022 .0245810
901.678 .0245752
902.334 .0245691
902.990 .0245630
903.645 .0245569
904.300 .0245505
904.954 .0245440
905.608 .0245378
906.262 .0245322
906.915 .0245263
907.568 .0245209
908.221 .0245156
908.873 .0245108
909.525 .0245063
910.176 .0245025
910.828 .0244990
911.478 .0244958
912.129 .0244924
912.778 .0244882
913.428 .0244827
914.077 .0244757
914.726 .0244671
915.375 .0244570
916.023 .0244455
916.670 .0244330
917.318 .0244193
917.964 .0244056
918.611 .0243916
919.257 .0243770
919.903 .0243615
920.548 .0243453
921.193 .0243282
921.838 .0243104
922.482 .0242926
923.126 .0242754
923.770 .0242592
924.413 .0242445
925.056 .0242314
925.698 .0242198
926.340 .0242096
926.982 .0242005
927.623 .0241918
928.264 .0241833
928.904 .0241744
929.544 .0241650
930.184 .0241552
930.823 .0241453
931.462 .0241350
932.101 .0241245
932.739 .0241136
933.377 .0241019
934.014 .0240892
934.651 .0240757
935.288 .0240614
935.924 .0240464
936.560 .0240308
937.196 .0240152
937.831 .0239996
938.466 .0239843
939.100 .0239689
939.734 .0239536
940.368 .0239385
941.001 .0239232
941.634 .0239078
942.266 .0238925
942.899 .0238765
943.530 .0238604
944.162 .0238437
944.793 .0238262
945.423 .0238076
946.053 .0237877
946.683 .0237665
947.313 .0237440
947.942 .0237195
948.571 .0236932
949.199 .0236653
949.827 .0236363
950.455 .0236059
951.082 .0235748
951.709 .0235439
952.335 .0235134
952.961 .0234837
953.587 .0234556
954.212 .0234285
954.837 .0234031
955.462 .0233789
956.086 .0233556
956.710 .0233332
957.334 .0233115
957.957 .0232903
958.579 .0232702
959.202 .0232510
959.824 .0232328
960.445 .0232150
961.067 .0231988
961.688 .0231832
962.308 .0231686
962.928 .0231546
963.548 .0231408
964.168 .0231270
964.787 .0231128
965.406 .0230983
966.024 .0230838
966.642 .0230694
967.260 .0230555
967.877 .0230421
968.494 .0230294
969.110 .0230172
969.727 .0230054
970.342 .0229941
970.958 .0229832
971.573 .0229721
972.188 .0229606
972.802 .0229485
973.416 .0229360
974.030 .0229228
974.643 .0229093
975.256 .0228966
975.869 .0228840
976.481 .0228715
977.093 .0228595
977.705 .0228485
978.316 .0228382
978.927 .0228284
979.538 .0228195
980.148 .0228111
980.758 .0228033
981.367 .0227963
981.977 .0227902
982.586 .0227855
983.194 .0227816
983.802 .0227780
984.410 .0227741
985.018 .0227693
985.625 .0227632
986.232 .0227562
986.838 .0227487
987.445 .0227406
988.050 .0227321
988.656 .0227237
989.261 .0227159
989.866 .0227081
990.471 .0226998
991.075 .0226909
991.679 .0226812
992.282 .0226703
992.886 .0226585
993.489 .0226467
994.091 .0226357
994.694 .0226262
995.296 .0226183
995.897 .0226119
996.499 .0226065
997.100 .0226011
997.701 .0225955
998.301 .0225893
998.901 .0225819
999.501 .0225739
1000.101 .0225656
1000.700 .0225582
1001.299 .0225519
1001.898 .0225470
1002.496 .0225434
1003.094 .0225407
1003.692 .0225386
1004.289 .0225352
1004.887 .0225310
1005.484 .0225264
1006.080 .0225209
1006.677 .0225159
1007.273 .0225119
1007.868 .0225098
1008.464 .0225099
1009.059 .0225121
1009.654 .0225159
1010.249 .0225206
1010.843 .0225252
1011.437 .0225292
1012.031 .0225322
1012.625 .0225348
1013.218 .0225362
1013.811 .0225370
1014.404 .0225386
1014.997 .0225410
1015.589 .0225438
1016.181 .0225479
1016.773 .0225524
1017.365 .0225581
1017.956 .0225635
1018.547 .0225687
1019.138 .0225738
1019.728 .0225789
1020.319 .0225842
1020.909 .0225897
1021.499 .0225953
1022.088 .0226009
1022.678 .0226064
1023.267 .0226123
1023.856 .0226182
1024.445 .0226243
1025.033 .0226309
1025.621 .0226377
1026.209 .0226448
1026.797 .0226520
1027.385 .0226585
1027.972 .0226650
1028.560 .0226715
1029.147 .0226767
1029.734 .0226814
1030.320 .0226855
1030.907 .0226889
1031.493 .0226921
1032.079 .0226953
1032.665 .0226980
1033.250 .0227002
1033.836 .0227027
1034.421 .0227050
1035.006 .0227068
1035.591 .0227093
1036.176 .0227120
1036.761 .0227150
1037.345 .0227180
1037.929 .0227200
1038.514 .0227211
1039.097 .0227220
1039.681 .0227214
1040.265 .0227202
1040.848 .0227197
1041.432 .0227202
1042.015 .0227221
1042.598 .0227264
1043.181 .0227332
1043.764 .0227412
1044.346 .0227503
1044.929 .0227592
1045.511 .0227666
1046.094 .0227730
1046.676 .0227766
1047.258 .0227778
1047.840 .0227774
1048.422 .0227753
1049.003 .0227721
1049.585 .0227678
1050.166 .0227633
1050.748 .0227578
1051.329 .0227521
1051.910 .0227466
1052.491 .0227414
1053.072 .0227371
1053.653 .0227333
1054.234 .0227303
1054.815 .0227289
1055.396 .0227288
1055.976 .0227310
1056.557 .0227362
1057.138 .0227448
1057.718 .0227570
1058.298 .0227721
1058.879 .0227898
1059.459 .0228092
1060.039 .0228293
1060.620 .0228472
1061.200 .0228621
1061.780 .0228732
1062.360 .0228791
1062.940 .0228799
1063.520 .0228772
1064.101 .0228716
1064.681 .0228638
1065.261 .0228547
1065.841 .0228435
1066.421 .0228314
1067.001 .0228182
1067.581 .0228031
1068.161 .0227871
1068.741 .0227711
1069.321 .0227558
1069.901 .0227426
1070.482 .0227343
1071.062 .0227312
1071.642 .0227315
1072.222 .0227373
1072.803 .0227450
1073.383 .0227552
1073.963 .0227663
1074.544 .0227783
1075.124 .0227915
1075.705 .0228060
1076.286 .0228214
1076.866 .0228383
1077.447 .0228576
1078.028 .0228787
1078.609 .0228996
1079.190 .0229210
1079.771 .0229413
1080.352 .0229597
1080.934 .0229762
1081.515 .0229916
1082.097 .0230055
1082.679 .0230193
1083.260 .0230311
1083.842 .0230417
1084.424 .0230501
1085.007 .0230560
1085.589 .0230583
1086.172 .0230559
1086.754 .0230498
1087.337 .0230405
1087.920 .0230289
1088.503 .0230166
1089.087 .0230044
1089.670 .0229922
1090.254 .0229807
1090.838 .0229696
1091.422 .0229593
1092.006 .0229498
1092.590 .0229440
1093.175 .0229428
1093.760 .0229454
1094.345 .0229529
1094.930 .0229646
1095.516 .0229799
1096.102 .0229989
1096.688 .0230192
1097.274 .0230398
1097.860 .0230597
1098.447 .0230802
1099.034 .0230994
1099.622 .0231171
1100.209 .0231346
1100.797 .0231492
1101.385 .0231602
1101.973 .0231655
1102.562 .0231637
1103.151 .0231538
1103.740 .0231383
1104.330 .0231167
1104.920 .0230903
1105.510 .0230623
1106.101 .0230356
1106.691 .0230115
1107.283 .0229909
1107.874 .0229744
1108.466 .0229611
1109.058 .0229523
1109.651 .0229454
1110.244 .0229379
1110.837 .0229308
1111.431 .0229242
1112.025 .0229191
1112.620 .0229163
1113.215 .0229167
1113.810 .0229234
1114.406 .0229365
1115.002 .0229576
1115.599 .0229830
1116.196 .0230123
1116.793 .0230432
1117.391 .0230758
1117.989 .0231057
1118.588 .0231324
1119.187 .0231553
1119.787 .0231784
1120.387 .0231997
1120.988 .0232211
1121.589 .0232442
1122.190 .0232687
1122.793 .0232956
1123.395 .0233206
1123.998 .0233399
1124.602 .0233553
1125.206 .0233632
1125.811 .0233650
1126.416 .0233587
1127.022 .0233509
1127.628 .0233383
1128.235 .0233259
1128.843 .0233174
1129.451 .0233117
1130.059 .0233103
1130.669 .0233125
1131.278 .0233167
1131.889 .0233199
1132.500 .0233242
1133.112 .0233338
1133.724 .0233482
1134.337 .0233745
1134.950 .0234084
1135.564 .0234519
1136.179 .0235027
1136.795 .0235598
1137.411 .0236138
1138.028 .0236641
1138.645 .0237100
1139.263 .0237502
1139.882 .0237871
1140.502 .0238319
1141.122 .0238748
1141.743 .0239238
1142.365 .0239783
1142.987 .0240892
1143.611 .0243093
1144.235 .0240579
1144.859 .0241266
1145.485 .0242533
