Measurement Sequence started on: 10-20-44-796
Integration time: 35
Scans to Average: 2 
>>>>>Begin Spectral Data<<<<<
432.953 .0243439
433.882 .0274532
434.810 .0261749
435.737 .0268374
436.662 .0274698
437.586 .0282580
438.509 .0287539
439.431 .0291270
440.351 .0294729
441.269 .0297301
442.187 .0299136
443.103 .0300391
444.018 .0301208
444.932 .0301996
445.844 .0302593
446.756 .0302993
447.666 .0303339
448.575 .0303428
449.482 .0303304
450.388 .0303023
451.294 .0302572
452.198 .0301952
453.100 .0301221
454.002 .0300602
454.902 .0300000
455.801 .0299574
456.699 .0299261
457.596 .0299021
458.492 .0298897
459.387 .0298767
460.280 .0298659
461.172 .0298516
462.064 .0298338
462.954 .0298095
463.843 .0297810
464.730 .0297557
465.617 .0297296
466.503 .0297094
467.387 .0296979
468.271 .0296910
469.153 .0296868
470.035 .0296867
470.915 .0296854
471.794 .0296861
472.673 .0296881
473.550 .0296890
474.426 .0296910
475.301 .0296954
476.175 .0297026
477.048 .0297078
477.920 .0297133
478.791 .0297195
479.661 .0297237
480.530 .0297309
481.398 .0297370
482.266 .0297426
483.132 .0297507
483.997 .0297594
484.861 .0297658
485.724 .0297725
486.587 .0297768
487.448 .0297777
488.308 .0297736
489.168 .0297675
490.026 .0297566
490.884 .0297440
491.741 .0297323
492.597 .0297205
493.452 .0297098
494.306 .0297018
495.159 .0296917
496.011 .0296816
496.862 .0296689
497.713 .0296508
498.562 .0296240
499.411 .0295902
500.259 .0295486
501.106 .0295002
501.952 .0294476
502.798 .0293936
503.642 .0293363
504.486 .0292783
505.329 .0292190
506.171 .0291551
507.012 .0290899
507.852 .0290186
508.692 .0289375
509.531 .0288496
510.369 .0287544
511.206 .0286581
512.043 .0285578
512.878 .0284555
513.713 .0283519
514.547 .0282435
515.381 .0281332
516.213 .0280166
517.045 .0278936
517.876 .0277684
518.706 .0276378
519.536 .0275019
520.365 .0273629
521.193 .0272196
522.020 .0270757
522.847 .0269259
523.673 .0267710
524.498 .0266099
525.323 .0264314
526.146 .0262529
526.969 .0260744
527.792 .0258981
528.614 .0257315
529.435 .0255725
530.255 .0254274
531.075 .0252917
531.894 .0251674
532.712 .0250492
533.530 .0249305
534.347 .0248189
535.163 .0246990
535.979 .0245797
536.794 .0244788
537.608 .0243927
538.422 .0243309
539.235 .0242991
540.048 .0242875
540.860 .0242964
541.671 .0243210
542.481 .0243544
543.292 .0243887
544.101 .0244234
544.910 .0244567
545.718 .0244860
546.526 .0245250
547.333 .0245732
548.139 .0246277
548.945 .0246963
549.750 .0247709
550.555 .0248502
551.359 .0249328
552.162 .0250135
552.965 .0250900
553.768 .0251641
554.569 .0252336
555.371 .0252952
556.171 .0253524
556.972 .0254076
557.771 .0254593
558.570 .0255113
559.369 .0255638
560.167 .0256217
560.964 .0256853
561.761 .0257556
562.558 .0258313
563.354 .0259125
564.149 .0259961
564.944 .0260779
565.738 .0261586
566.532 .0262370
567.325 .0263112
568.118 .0263848
568.910 .0264603
569.702 .0265414
570.494 .0266296
571.285 .0267235
572.075 .0268235
572.865 .0269253
573.654 .0270239
574.443 .0271177
575.232 .0272070
576.020 .0272932
576.807 .0273774
577.594 .0274597
578.381 .0275431
579.167 .0276271
579.952 .0277118
580.738 .0277970
581.522 .0278798
582.307 .0279587
583.091 .0280315
583.874 .0280979
584.657 .0281575
585.440 .0282115
586.222 .0282595
587.004 .0283036
587.785 .0283437
588.566 .0283814
589.346 .0284166
590.126 .0284501
590.906 .0284827
591.685 .0285135
592.464 .0285418
593.242 .0285680
594.020 .0285903
594.797 .0286114
595.575 .0286310
596.351 .0286501
597.128 .0286679
597.904 .0286852
598.679 .0287032
599.454 .0287196
600.229 .0287352
601.004 .0287498
601.778 .0287618
602.551 .0287720
603.325 .0287804
604.097 .0287859
604.870 .0287894
605.642 .0287916
606.414 .0287923
607.185 .0287923
607.956 .0287926
608.727 .0287928
609.497 .0287931
610.267 .0287946
611.037 .0287960
611.806 .0287960
612.575 .0287962
613.344 .0287949
614.112 .0287922
614.880 .0287885
615.647 .0287836
616.414 .0287776
617.181 .0287717
617.948 .0287661
618.714 .0287602
619.480 .0287550
620.245 .0287495
621.011 .0287433
621.775 .0287366
622.540 .0287289
623.304 .0287199
624.068 .0287106
624.832 .0287013
625.595 .0286915
626.358 .0286818
627.120 .0286724
627.883 .0286630
628.645 .0286541
629.406 .0286446
630.168 .0286350
630.929 .0286257
631.689 .0286172
632.450 .0286083
633.210 .0285999
633.970 .0285912
634.729 .0285821
635.489 .0285717
636.248 .0285602
637.006 .0285469
637.765 .0285325
638.523 .0285171
639.280 .0285017
640.038 .0284877
640.795 .0284762
641.552 .0284668
642.309 .0284605
643.065 .0284568
643.821 .0284550
644.577 .0284538
645.332 .0284529
646.088 .0284520
646.843 .0284509
647.597 .0284488
648.352 .0284464
649.106 .0284444
649.860 .0284435
650.613 .0284434
651.367 .0284441
652.120 .0284458
652.872 .0284471
653.625 .0284474
654.377 .0284458
655.129 .0284424
655.881 .0284365
656.632 .0284276
657.384 .0284172
658.135 .0284059
658.885 .0283946
659.636 .0283837
660.386 .0283742
661.136 .0283664
661.885 .0283592
662.635 .0283523
663.384 .0283454
664.133 .0283384
664.881 .0283309
665.630 .0283226
666.378 .0283142
667.126 .0283058
667.874 .0282977
668.621 .0282893
669.368 .0282814
670.115 .0282736
670.862 .0282654
671.608 .0282574
672.354 .0282496
673.100 .0282420
673.846 .0282344
674.591 .0282274
675.337 .0282208
676.082 .0282143
676.826 .0282077
677.571 .0282006
678.315 .0281928
679.059 .0281850
679.803 .0281768
680.547 .0281686
681.290 .0281608
682.033 .0281528
682.776 .0281441
683.518 .0281349
684.261 .0281248
685.003 .0281134
685.745 .0281009
686.487 .0280879
687.228 .0280739
687.969 .0280598
688.710 .0280458
689.451 .0280322
690.192 .0280194
690.932 .0280072
691.672 .0279948
692.412 .0279823
693.152 .0279697
693.891 .0279569
694.630 .0279442
695.369 .0279319
696.108 .0279202
696.846 .0279085
697.585 .0278969
698.323 .0278854
699.061 .0278735
699.798 .0278609
700.536 .0278474
701.273 .0278329
702.010 .0278176
702.746 .0278018
703.483 .0277856
704.219 .0277692
704.955 .0277536
705.691 .0277381
706.427 .0277225
707.162 .0277073
707.897 .0276923
708.632 .0276772
709.367 .0276625
710.101 .0276475
710.835 .0276325
711.569 .0276174
712.303 .0276026
713.037 .0275880
713.770 .0275743
714.503 .0275614
715.236 .0275495
715.969 .0275387
716.702 .0275287
717.434 .0275186
718.166 .0275088
718.898 .0274990
719.629 .0274884
720.361 .0274772
721.092 .0274657
721.823 .0274538
722.554 .0274424
723.284 .0274312
724.014 .0274203
724.744 .0274094
725.474 .0273982
726.204 .0273861
726.933 .0273724
727.662 .0273570
728.391 .0273392
729.120 .0273197
729.849 .0272994
730.577 .0272790
731.305 .0272588
732.033 .0272397
732.760 .0272217
733.488 .0272047
734.215 .0271878
734.942 .0271709
735.669 .0271535
736.395 .0271353
737.122 .0271162
737.848 .0270965
738.573 .0270765
739.299 .0270571
740.024 .0270382
740.750 .0270199
741.474 .0270025
742.199 .0269848
742.924 .0269666
743.648 .0269477
744.372 .0269280
745.096 .0269077
745.819 .0268869
746.543 .0268662
747.266 .0268458
747.989 .0268263
748.711 .0268083
749.434 .0267915
750.156 .0267768
750.878 .0267635
751.599 .0267520
752.321 .0267417
753.042 .0267329
753.763 .0267257
754.484 .0267196
755.205 .0267142
755.925 .0267092
756.645 .0267042
757.365 .0266985
758.085 .0266918
758.804 .0266845
759.523 .0266755
760.242 .0266651
760.961 .0266531
761.679 .0266396
762.397 .0266242
763.115 .0266076
763.833 .0265893
764.551 .0265697
765.268 .0265485
765.985 .0265255
766.702 .0265010
767.418 .0264751
768.134 .0264487
768.850 .0264220
769.566 .0263957
770.282 .0263702
770.997 .0263454
771.712 .0263220
772.427 .0262995
773.142 .0262781
773.856 .0262569
774.570 .0262354
775.284 .0262135
775.998 .0261903
776.711 .0261665
777.424 .0261424
778.137 .0261182
778.849 .0260941
779.562 .0260706
780.274 .0260475
780.986 .0260248
781.697 .0260029
782.409 .0259817
783.120 .0259610
783.831 .0259413
784.541 .0259223
785.252 .0259044
785.962 .0258884
786.671 .0258744
787.381 .0258622
788.090 .0258522
788.799 .0258437
789.508 .0258359
790.217 .0258285
790.925 .0258214
791.633 .0258138
792.341 .0258054
793.048 .0257960
793.755 .0257853
794.462 .0257731
795.169 .0257593
795.875 .0257438
796.581 .0257270
797.287 .0257088
797.993 .0256893
798.698 .0256691
799.403 .0256483
800.108 .0256272
800.812 .0256061
801.517 .0255859
802.221 .0255664
802.924 .0255475
803.628 .0255296
804.331 .0255130
805.034 .0254980
805.736 .0254841
806.439 .0254719
807.141 .0254617
807.843 .0254532
808.544 .0254453
809.245 .0254380
809.946 .0254314
810.647 .0254248
811.347 .0254179
812.047 .0254101
812.747 .0254019
813.447 .0253929
814.146 .0253830
814.845 .0253724
815.543 .0253611
816.242 .0253493
816.940 .0253361
817.638 .0253214
818.335 .0253052
819.032 .0252875
819.729 .0252683
820.426 .0252481
821.122 .0252273
821.818 .0252055
822.514 .0251834
823.209 .0251614
823.905 .0251398
824.599 .0251181
825.294 .0250966
825.988 .0250750
826.682 .0250536
827.376 .0250324
828.069 .0250112
828.762 .0249908
829.455 .0249713
830.147 .0249528
830.840 .0249353
831.531 .0249187
832.223 .0249034
832.914 .0248888
833.605 .0248750
834.296 .0248615
834.986 .0248483
835.676 .0248351
836.366 .0248220
837.055 .0248089
837.744 .0247958
838.433 .0247823
839.121 .0247688
839.809 .0247548
840.497 .0247404
841.185 .0247256
841.872 .0247103
842.559 .0246949
843.245 .0246798
843.932 .0246650
844.617 .0246507
845.303 .0246368
845.988 .0246231
846.673 .0246094
847.358 .0245955
848.042 .0245810
848.726 .0245657
849.410 .0245498
850.093 .0245332
850.776 .0245162
851.459 .0244992
852.141 .0244821
852.823 .0244654
853.505 .0244493
854.186 .0244335
854.867 .0244178
855.548 .0244024
856.228 .0243873
856.908 .0243726
857.588 .0243587
858.267 .0243454
858.946 .0243329
859.625 .0243214
860.303 .0243109
860.981 .0243015
861.659 .0242928
862.336 .0242846
863.013 .0242764
863.690 .0242684
864.366 .0242600
865.042 .0242510
865.718 .0242414
866.393 .0242314
867.068 .0242207
867.743 .0242095
868.417 .0241977
869.091 .0241853
869.765 .0241726
870.438 .0241598
871.111 .0241465
871.783 .0241328
872.456 .0241188
873.127 .0241046
873.799 .0240899
874.470 .0240749
875.141 .0240594
875.811 .0240443
876.481 .0240295
877.151 .0240150
877.820 .0240007
878.489 .0239872
879.158 .0239743
879.826 .0239618
880.494 .0239497
881.162 .0239377
881.829 .0239257
882.496 .0239133
883.163 .0239006
883.829 .0238875
884.495 .0238744
885.160 .0238616
885.825 .0238493
886.490 .0238381
887.154 .0238273
887.818 .0238173
888.482 .0238081
889.145 .0237995
889.808 .0237912
890.471 .0237823
891.133 .0237730
891.795 .0237634
892.456 .0237535
893.117 .0237434
893.778 .0237332
894.439 .0237237
895.099 .0237143
895.758 .0237052
896.417 .0236965
897.076 .0236877
897.735 .0236787
898.393 .0236692
899.051 .0236590
899.708 .0236473
900.365 .0236344
901.022 .0236202
901.678 .0236051
902.334 .0235894
902.990 .0235728
903.645 .0235559
904.300 .0235394
904.954 .0235236
905.608 .0235084
906.262 .0234949
906.915 .0234828
907.568 .0234717
908.221 .0234619
908.873 .0234525
909.525 .0234435
910.176 .0234349
910.828 .0234267
911.478 .0234186
912.129 .0234104
912.778 .0234020
913.428 .0233935
914.077 .0233851
914.726 .0233761
915.375 .0233662
916.023 .0233559
916.670 .0233451
917.318 .0233333
917.964 .0233209
918.611 .0233085
919.257 .0232963
919.903 .0232845
920.548 .0232730
921.193 .0232621
921.838 .0232519
922.482 .0232424
923.126 .0232336
923.770 .0232255
924.413 .0232181
925.056 .0232112
925.698 .0232051
926.340 .0231998
926.982 .0231947
927.623 .0231896
928.264 .0231847
928.904 .0231792
929.544 .0231728
930.184 .0231650
930.823 .0231564
931.462 .0231469
932.101 .0231365
932.739 .0231255
933.377 .0231139
934.014 .0231018
934.651 .0230894
935.288 .0230761
935.924 .0230626
936.560 .0230484
937.196 .0230342
937.831 .0230196
938.466 .0230052
939.100 .0229909
939.734 .0229768
940.368 .0229637
941.001 .0229516
941.634 .0229402
942.266 .0229298
942.899 .0229197
943.530 .0229096
944.162 .0228991
944.793 .0228879
945.423 .0228753
946.053 .0228617
946.683 .0228468
947.313 .0228313
947.942 .0228147
948.571 .0227975
949.199 .0227799
949.827 .0227620
950.455 .0227436
951.082 .0227244
951.709 .0227045
952.335 .0226843
952.961 .0226633
953.587 .0226424
954.212 .0226212
954.837 .0226005
955.462 .0225805
956.086 .0225616
956.710 .0225441
957.334 .0225280
957.957 .0225129
958.579 .0224989
959.202 .0224858
959.824 .0224728
960.445 .0224598
961.067 .0224470
961.688 .0224344
962.308 .0224221
962.928 .0224100
963.548 .0223986
964.168 .0223878
964.787 .0223780
965.406 .0223690
966.024 .0223609
966.642 .0223538
967.260 .0223477
967.877 .0223429
968.494 .0223390
969.110 .0223360
969.727 .0223336
970.342 .0223321
970.958 .0223316
971.573 .0223316
972.188 .0223318
972.802 .0223323
973.416 .0223330
974.030 .0223334
974.643 .0223328
975.256 .0223316
975.869 .0223295
976.481 .0223267
977.093 .0223234
977.705 .0223201
978.316 .0223170
978.927 .0223147
979.538 .0223126
980.148 .0223114
980.758 .0223099
981.367 .0223088
981.977 .0223076
982.586 .0223061
983.194 .0223045
983.802 .0223025
984.410 .0223000
985.018 .0222979
985.625 .0222958
986.232 .0222938
986.838 .0222923
987.445 .0222908
988.050 .0222888
988.656 .0222863
989.261 .0222834
989.866 .0222797
990.471 .0222753
991.075 .0222716
991.679 .0222672
992.282 .0222632
992.886 .0222600
993.489 .0222579
994.091 .0222570
994.694 .0222568
995.296 .0222573
995.897 .0222580
996.499 .0222589
997.100 .0222590
997.701 .0222584
998.301 .0222579
998.901 .0222571
999.501 .0222562
1000.101 .0222551
1000.700 .0222540
1001.299 .0222527
1001.898 .0222509
1002.496 .0222488
1003.094 .0222456
1003.692 .0222418
1004.289 .0222369
1004.887 .0222328
1005.484 .0222287
1006.080 .0222254
1006.677 .0222231
1007.273 .0222220
1007.868 .0222214
1008.464 .0222207
1009.059 .0222201
1009.654 .0222194
1010.249 .0222187
1010.843 .0222185
1011.437 .0222180
1012.031 .0222185
1012.625 .0222196
1013.218 .0222218
1013.811 .0222245
1014.404 .0222280
1014.997 .0222314
1015.589 .0222350
1016.181 .0222388
1016.773 .0222425
1017.365 .0222460
1017.956 .0222497
1018.547 .0222536
1019.138 .0222574
1019.728 .0222604
1020.319 .0222630
1020.909 .0222645
1021.499 .0222651
1022.088 .0222647
1022.678 .0222634
1023.267 .0222612
1023.856 .0222585
1024.445 .0222560
1025.033 .0222536
1025.621 .0222510
1026.209 .0222480
1026.797 .0222445
1027.385 .0222407
1027.972 .0222374
1028.560 .0222348
1029.147 .0222337
1029.734 .0222348
1030.320 .0222385
1030.907 .0222439
1031.493 .0222508
1032.079 .0222582
1032.665 .0222660
1033.250 .0222729
1033.836 .0222789
1034.421 .0222833
1035.006 .0222872
1035.591 .0222916
1036.176 .0222965
1036.761 .0223016
1037.345 .0223076
1037.929 .0223130
1038.514 .0223181
1039.097 .0223212
1039.681 .0223228
1040.265 .0223230
1040.848 .0223224
1041.432 .0223213
1042.015 .0223203
1042.598 .0223192
1043.181 .0223190
1043.764 .0223194
1044.346 .0223202
1044.929 .0223201
1045.511 .0223193
1046.094 .0223178
1046.676 .0223155
1047.258 .0223127
1047.840 .0223105
1048.422 .0223086
1049.003 .0223078
1049.585 .0223074
1050.166 .0223073
1050.748 .0223075
1051.329 .0223075
1051.910 .0223069
1052.491 .0223059
1053.072 .0223046
1053.653 .0223029
1054.234 .0223012
1054.815 .0223008
1055.396 .0223016
1055.976 .0223032
1056.557 .0223062
1057.138 .0223105
1057.718 .0223156
1058.298 .0223193
1058.879 .0223221
1059.459 .0223228
1060.039 .0223214
1060.620 .0223158
1061.200 .0223085
1061.780 .0222993
1062.360 .0222888
1062.940 .0222773
1063.520 .0222655
1064.101 .0222541
1064.681 .0222433
1065.261 .0222323
1065.841 .0222206
1066.421 .0222084
1067.001 .0221953
1067.581 .0221792
1068.161 .0221622
1068.741 .0221446
1069.321 .0221269
1069.901 .0221101
1070.482 .0220957
1071.062 .0220828
1071.642 .0220728
1072.222 .0220659
1072.803 .0220612
1073.383 .0220581
1073.963 .0220556
1074.544 .0220526
1075.124 .0220483
1075.705 .0220431
1076.286 .0220353
1076.866 .0220265
1077.447 .0220172
1078.028 .0220062
1078.609 .0219935
1079.190 .0219804
1079.771 .0219677
1080.352 .0219552
1080.934 .0219439
1081.515 .0219341
1082.097 .0219255
1082.679 .0219189
1083.260 .0219120
1083.842 .0219064
1084.424 .0219004
1085.007 .0218940
1085.589 .0218868
1086.172 .0218792
1086.754 .0218710
1087.337 .0218644
1087.920 .0218606
1088.503 .0218608
1089.087 .0218651
1089.670 .0218705
1090.254 .0218769
1090.838 .0218829
1091.422 .0218871
1092.006 .0218872
1092.590 .0218839
1093.175 .0218793
1093.760 .0218712
1094.345 .0218615
1094.930 .0218498
1095.516 .0218365
1096.102 .0218242
1096.688 .0218099
1097.274 .0217946
1097.860 .0217784
1098.447 .0217610
1099.034 .0217414
1099.622 .0217219
1100.209 .0217013
1100.797 .0216796
1101.385 .0216565
1101.973 .0216339
1102.562 .0216114
1103.151 .0215905
1103.740 .0215717
1104.330 .0215564
1104.920 .0215466
1105.510 .0215424
1106.101 .0215400
1106.691 .0215419
1107.283 .0215461
1107.874 .0215508
1108.466 .0215550
1109.058 .0215577
1109.651 .0215583
1110.244 .0215593
1110.837 .0215590
1111.431 .0215582
1112.025 .0215579
1112.620 .0215578
1113.215 .0215559
1113.810 .0215554
1114.406 .0215546
1115.002 .0215521
1115.599 .0215480
1116.196 .0215441
1116.793 .0215385
1117.391 .0215318
1117.989 .0215219
1118.588 .0215090
1119.187 .0214971
1119.787 .0214846
1120.387 .0214682
1120.988 .0214553
1121.589 .0214460
1122.190 .0214401
1122.793 .0214346
1123.395 .0214321
1123.998 .0214296
1124.602 .0214262
1125.206 .0214227
1125.811 .0214207
1126.416 .0214231
1127.022 .0214311
1127.628 .0214451
1128.235 .0214658
1128.843 .0214934
1129.451 .0215246
1130.059 .0215569
1130.669 .0215907
1131.278 .0216219
1131.889 .0216513
1132.500 .0216781
1133.112 .0217072
1133.724 .0217409
1134.337 .0217773
1134.950 .0218202
1135.564 .0218682
1136.179 .0219199
1136.795 .0219723
1137.411 .0220265
1138.028 .0220800
1138.645 .0221346
1139.263 .0221924
1139.882 .0222556
1140.502 .0223226
1141.122 .0223995
1141.743 .0224909
1142.365 .0225859
1142.987 .0227218
1143.611 .0227324
1144.235 .0228874
1144.859 .0231793
1145.485 .0230619
