Measurement Sequence started on: 10-20-44-796
Integration time: 35
Scans to Average: 2 
>>>>>Begin Spectral Data<<<<<
432.953 .0445983
433.882 .0385499
434.810 .0358604
435.737 .0354411
436.662 .0343608
437.586 .0357007
438.509 .0352906
439.431 .0351794
440.351 .0351830
441.269 .0352098
442.187 .0352589
443.103 .0352910
444.018 .0353263
444.932 .0353494
445.844 .0353718
446.756 .0353951
447.666 .0353966
448.575 .0353730
449.482 .0353332
450.388 .0352825
451.294 .0352178
452.198 .0351517
453.100 .0350872
454.002 .0350306
454.902 .0349869
455.801 .0349408
456.699 .0348942
457.596 .0348527
458.492 .0348113
459.387 .0347682
460.280 .0347199
461.172 .0346763
462.064 .0346361
462.954 .0345983
463.843 .0345592
464.730 .0345243
465.617 .0344943
466.503 .0344576
467.387 .0344172
468.271 .0343670
469.153 .0343125
470.035 .0342542
470.915 .0342003
471.794 .0341509
472.673 .0341070
473.550 .0340714
474.426 .0340413
475.301 .0340166
476.175 .0339958
477.048 .0339732
477.920 .0339510
478.791 .0339290
479.661 .0339040
480.530 .0338763
481.398 .0338527
482.266 .0338329
483.132 .0338182
483.997 .0338034
484.861 .0337918
485.724 .0337792
486.587 .0337632
487.448 .0337433
488.308 .0337180
489.168 .0336900
490.026 .0336587
490.884 .0336259
491.741 .0335924
492.597 .0335607
493.452 .0335314
494.306 .0335018
495.159 .0334737
496.011 .0334416
496.862 .0334056
497.713 .0333643
498.562 .0333154
499.411 .0332600
500.259 .0331975
501.106 .0331316
501.952 .0330607
502.798 .0329890
503.642 .0329150
504.486 .0328386
505.329 .0327619
506.171 .0326797
507.012 .0325907
507.852 .0324963
508.692 .0323970
509.531 .0322904
510.369 .0321837
511.206 .0320760
512.043 .0319684
512.878 .0318648
513.713 .0317617
514.547 .0316579
515.381 .0315520
516.213 .0314406
517.045 .0313177
517.876 .0311839
518.706 .0310423
519.536 .0308864
520.365 .0307275
521.193 .0305633
522.020 .0303952
522.847 .0302235
523.673 .0300502
524.498 .0298750
525.323 .0296994
526.146 .0295253
526.969 .0293587
527.792 .0291990
528.614 .0290514
529.435 .0289168
530.255 .0288006
531.075 .0287010
531.894 .0286167
532.712 .0285372
533.530 .0284606
534.347 .0283853
535.163 .0283089
535.979 .0282286
536.794 .0281521
537.608 .0280787
538.422 .0280077
539.235 .0279387
540.048 .0278705
540.860 .0278036
541.671 .0277437
542.481 .0276890
543.292 .0276395
544.101 .0275979
544.910 .0275690
545.718 .0275506
546.526 .0275494
547.333 .0275649
548.139 .0275911
548.945 .0276274
549.750 .0276679
550.555 .0277098
551.359 .0277540
552.162 .0277968
552.965 .0278409
553.768 .0278829
554.569 .0279252
555.371 .0279575
556.171 .0279844
556.972 .0280104
557.771 .0280313
558.570 .0280473
559.369 .0280624
560.167 .0280752
560.964 .0280937
561.761 .0281196
562.558 .0281567
563.354 .0282070
564.149 .0282713
564.944 .0283423
565.738 .0284218
566.532 .0285063
567.325 .0285959
568.118 .0286873
568.910 .0287858
569.702 .0288902
570.494 .0289975
571.285 .0291092
572.075 .0292241
572.865 .0293376
573.654 .0294495
574.443 .0295529
575.232 .0296494
576.020 .0297372
576.807 .0298172
577.594 .0298896
578.381 .0299578
579.167 .0300221
579.952 .0300816
580.738 .0301379
581.522 .0301923
582.307 .0302407
583.091 .0302851
583.874 .0303267
584.657 .0303648
585.440 .0304004
586.222 .0304344
587.004 .0304658
587.785 .0304983
588.566 .0305303
589.346 .0305606
590.126 .0305887
590.906 .0306140
591.685 .0306360
592.464 .0306540
593.242 .0306699
594.020 .0306827
594.797 .0306942
595.575 .0307061
596.351 .0307164
597.128 .0307250
597.904 .0307318
598.679 .0307354
599.454 .0307348
600.229 .0307286
601.004 .0307173
601.778 .0307015
602.551 .0306829
603.325 .0306611
604.097 .0306385
604.870 .0306165
605.642 .0305959
606.414 .0305762
607.185 .0305575
607.956 .0305402
608.727 .0305233
609.497 .0305068
610.267 .0304899
611.037 .0304729
611.806 .0304553
612.575 .0304374
613.344 .0304203
614.112 .0304036
614.880 .0303868
615.647 .0303699
616.414 .0303534
617.181 .0303366
617.948 .0303191
618.714 .0303012
619.480 .0302826
620.245 .0302631
621.011 .0302415
621.775 .0302182
622.540 .0301935
623.304 .0301678
624.068 .0301414
624.832 .0301147
625.595 .0300889
626.358 .0300641
627.120 .0300398
627.883 .0300165
628.645 .0299939
629.406 .0299717
630.168 .0299486
630.929 .0299250
631.689 .0299008
632.450 .0298763
633.210 .0298521
633.970 .0298279
634.729 .0298039
635.489 .0297800
636.248 .0297558
637.006 .0297306
637.765 .0297045
638.523 .0296769
639.280 .0296480
640.038 .0296183
640.795 .0295884
641.552 .0295581
642.309 .0295287
643.065 .0295008
643.821 .0294745
644.577 .0294492
645.332 .0294254
646.088 .0294022
646.843 .0293806
647.597 .0293597
648.352 .0293403
649.106 .0293230
649.860 .0293086
650.613 .0292964
651.367 .0292871
652.120 .0292798
652.872 .0292740
653.625 .0292686
654.377 .0292640
655.129 .0292584
655.881 .0292518
656.632 .0292435
657.384 .0292335
658.135 .0292219
658.885 .0292090
659.636 .0291942
660.386 .0291784
661.136 .0291617
661.885 .0291438
662.635 .0291247
663.384 .0291054
664.133 .0290852
664.881 .0290652
665.630 .0290456
666.378 .0290270
667.126 .0290095
667.874 .0289936
668.621 .0289796
669.368 .0289670
670.115 .0289559
670.862 .0289451
671.608 .0289349
672.354 .0289254
673.100 .0289160
673.846 .0289071
674.591 .0288992
675.337 .0288925
676.082 .0288869
676.826 .0288827
677.571 .0288794
678.315 .0288761
679.059 .0288725
679.803 .0288680
680.547 .0288619
681.290 .0288540
682.033 .0288444
682.776 .0288331
683.518 .0288207
684.261 .0288073
685.003 .0287935
685.745 .0287794
686.487 .0287657
687.228 .0287522
687.969 .0287384
688.710 .0287243
689.451 .0287097
690.192 .0286938
690.932 .0286768
691.672 .0286582
692.412 .0286385
693.152 .0286178
693.891 .0285971
694.630 .0285767
695.369 .0285573
696.108 .0285392
696.846 .0285220
697.585 .0285047
698.323 .0284871
699.061 .0284682
699.798 .0284476
700.536 .0284256
701.273 .0284025
702.010 .0283792
702.746 .0283566
703.483 .0283353
704.219 .0283161
704.955 .0282988
705.691 .0282833
706.427 .0282686
707.162 .0282541
707.897 .0282396
708.632 .0282245
709.367 .0282088
710.101 .0281930
710.835 .0281768
711.569 .0281602
712.303 .0281437
713.037 .0281272
713.770 .0281106
714.503 .0280935
715.236 .0280763
715.969 .0280588
716.702 .0280412
717.434 .0280239
718.166 .0280065
718.898 .0279896
719.629 .0279731
720.361 .0279564
721.092 .0279400
721.823 .0279236
722.554 .0279071
723.284 .0278908
724.014 .0278746
724.744 .0278580
725.474 .0278402
726.204 .0278214
726.933 .0278012
727.662 .0277789
728.391 .0277547
729.120 .0277286
729.849 .0277012
730.577 .0276735
731.305 .0276451
732.033 .0276173
732.760 .0275899
733.488 .0275631
734.215 .0275367
734.942 .0275111
735.669 .0274863
736.395 .0274620
737.122 .0274386
737.848 .0274167
738.573 .0273958
739.299 .0273760
740.024 .0273574
740.750 .0273398
741.474 .0273231
742.199 .0273066
742.924 .0272896
743.648 .0272728
744.372 .0272556
745.096 .0272379
745.819 .0272197
746.543 .0272013
747.266 .0271832
747.989 .0271651
748.711 .0271479
749.434 .0271313
750.156 .0271156
750.878 .0271015
751.599 .0270887
752.321 .0270771
753.042 .0270667
753.763 .0270570
754.484 .0270480
755.205 .0270394
755.925 .0270307
756.645 .0270213
757.365 .0270113
758.085 .0270009
758.804 .0269896
759.523 .0269771
760.242 .0269639
760.961 .0269498
761.679 .0269350
762.397 .0269188
763.115 .0269015
763.833 .0268835
764.551 .0268646
765.268 .0268450
765.985 .0268246
766.702 .0268037
767.418 .0267823
768.134 .0267602
768.850 .0267381
769.566 .0267161
770.282 .0266946
770.997 .0266742
771.712 .0266550
772.427 .0266372
773.142 .0266208
773.856 .0266057
774.570 .0265916
775.284 .0265782
775.998 .0265646
776.711 .0265512
777.424 .0265376
778.137 .0265243
778.849 .0265111
779.562 .0264989
780.274 .0264878
780.986 .0264776
781.697 .0264687
782.409 .0264609
783.120 .0264538
783.831 .0264475
784.541 .0264416
785.252 .0264360
785.962 .0264302
786.671 .0264238
787.381 .0264167
788.090 .0264091
788.799 .0264009
789.508 .0263920
790.217 .0263826
790.925 .0263730
791.633 .0263630
792.341 .0263527
793.048 .0263425
793.755 .0263321
794.462 .0263211
795.169 .0263091
795.875 .0262961
796.581 .0262826
797.287 .0262687
797.993 .0262551
798.698 .0262425
799.403 .0262316
800.108 .0262224
800.812 .0262146
801.517 .0262085
802.221 .0262036
802.924 .0261994
803.628 .0261956
804.331 .0261921
805.034 .0261890
805.736 .0261864
806.439 .0261843
807.141 .0261832
807.843 .0261828
808.544 .0261821
809.245 .0261806
809.946 .0261775
810.647 .0261726
811.347 .0261655
812.047 .0261566
812.747 .0261463
813.447 .0261352
814.146 .0261235
814.845 .0261120
815.543 .0261012
816.242 .0260911
816.940 .0260814
817.638 .0260720
818.335 .0260628
819.032 .0260536
819.729 .0260439
820.426 .0260342
821.122 .0260247
821.818 .0260153
822.514 .0260060
823.209 .0259969
823.905 .0259884
824.599 .0259802
825.294 .0259725
825.988 .0259648
826.682 .0259570
827.376 .0259490
828.069 .0259403
828.762 .0259303
829.455 .0259193
830.147 .0259071
830.840 .0258940
831.531 .0258804
832.223 .0258666
832.914 .0258527
833.605 .0258397
834.296 .0258279
834.986 .0258171
835.676 .0258070
836.366 .0257978
837.055 .0257891
837.744 .0257806
838.433 .0257720
839.121 .0257631
839.809 .0257544
840.497 .0257461
841.185 .0257381
841.872 .0257308
842.559 .0257243
843.245 .0257189
843.932 .0257143
844.617 .0257106
845.303 .0257071
845.988 .0257037
846.673 .0257003
847.358 .0256964
848.042 .0256919
848.726 .0256865
849.410 .0256805
850.093 .0256737
850.776 .0256665
851.459 .0256582
852.141 .0256486
852.823 .0256386
853.505 .0256279
854.186 .0256160
854.867 .0256038
855.548 .0255909
856.228 .0255779
856.908 .0255652
857.588 .0255529
858.267 .0255412
858.946 .0255300
859.625 .0255197
860.303 .0255101
860.981 .0255009
861.659 .0254924
862.336 .0254839
863.013 .0254758
863.690 .0254681
864.366 .0254598
865.042 .0254514
865.718 .0254432
866.393 .0254348
867.068 .0254260
867.743 .0254170
868.417 .0254078
869.091 .0253981
869.765 .0253875
870.438 .0253757
871.111 .0253623
871.783 .0253477
872.456 .0253321
873.127 .0253157
873.799 .0252996
874.470 .0252845
875.141 .0252713
875.811 .0252599
876.481 .0252499
877.151 .0252415
877.820 .0252337
878.489 .0252261
879.158 .0252178
879.826 .0252084
880.494 .0251982
881.162 .0251877
881.829 .0251773
882.496 .0251669
883.163 .0251573
883.829 .0251482
884.495 .0251391
885.160 .0251304
885.825 .0251211
886.490 .0251113
887.154 .0251008
887.818 .0250901
888.482 .0250786
889.145 .0250670
889.808 .0250559
890.471 .0250460
891.133 .0250365
891.795 .0250274
892.456 .0250185
893.117 .0250099
893.778 .0250014
894.439 .0249927
895.099 .0249837
895.758 .0249748
896.417 .0249656
897.076 .0249562
897.735 .0249457
898.393 .0249354
899.051 .0249242
899.708 .0249123
900.365 .0248998
901.022 .0248870
901.678 .0248740
902.334 .0248610
902.990 .0248483
903.645 .0248364
904.300 .0248250
904.954 .0248143
905.608 .0248037
906.262 .0247940
906.915 .0247842
907.568 .0247746
908.221 .0247650
908.873 .0247561
909.525 .0247473
910.176 .0247388
910.828 .0247304
911.478 .0247223
912.129 .0247137
912.778 .0247041
913.428 .0246930
914.077 .0246808
914.726 .0246667
915.375 .0246513
916.023 .0246353
916.670 .0246198
917.318 .0246041
917.964 .0245888
918.611 .0245736
919.257 .0245585
919.903 .0245431
920.548 .0245270
921.193 .0245103
921.838 .0244936
922.482 .0244767
923.126 .0244603
923.770 .0244448
924.413 .0244309
925.056 .0244179
925.698 .0244058
926.340 .0243945
926.982 .0243832
927.623 .0243718
928.264 .0243602
928.904 .0243487
929.544 .0243375
930.184 .0243264
930.823 .0243156
931.462 .0243051
932.101 .0242948
932.739 .0242841
933.377 .0242724
934.014 .0242593
934.651 .0242450
935.288 .0242296
935.924 .0242137
936.560 .0241977
937.196 .0241818
937.831 .0241665
938.466 .0241515
939.100 .0241365
939.734 .0241208
940.368 .0241043
941.001 .0240871
941.634 .0240689
942.266 .0240501
942.899 .0240310
943.530 .0240121
944.162 .0239941
944.793 .0239770
945.423 .0239606
946.053 .0239449
946.683 .0239298
947.313 .0239149
947.942 .0238997
948.571 .0238837
949.199 .0238669
949.827 .0238493
950.455 .0238310
951.082 .0238122
951.709 .0237928
952.335 .0237737
952.961 .0237544
953.587 .0237355
954.212 .0237163
954.837 .0236968
955.462 .0236773
956.086 .0236574
956.710 .0236379
957.334 .0236182
957.957 .0235989
958.579 .0235805
959.202 .0235632
959.824 .0235469
960.445 .0235321
961.067 .0235189
961.688 .0235067
962.308 .0234962
962.928 .0234867
963.548 .0234781
964.168 .0234704
964.787 .0234633
965.406 .0234565
966.024 .0234497
966.642 .0234430
967.260 .0234352
967.877 .0234270
968.494 .0234184
969.110 .0234088
969.727 .0233983
970.342 .0233870
970.958 .0233752
971.573 .0233630
972.188 .0233510
972.802 .0233392
973.416 .0233277
974.030 .0233166
974.643 .0233058
975.256 .0232951
975.869 .0232847
976.481 .0232746
977.093 .0232654
977.705 .0232574
978.316 .0232505
978.927 .0232447
979.538 .0232405
980.148 .0232376
980.758 .0232363
981.367 .0232353
981.977 .0232347
982.586 .0232342
983.194 .0232333
983.802 .0232319
984.410 .0232298
985.018 .0232274
985.625 .0232252
986.232 .0232236
986.838 .0232228
987.445 .0232231
988.050 .0232250
988.656 .0232279
989.261 .0232309
989.866 .0232338
990.471 .0232359
991.075 .0232368
991.679 .0232368
992.282 .0232359
992.886 .0232345
993.489 .0232336
994.091 .0232337
994.694 .0232348
995.296 .0232368
995.897 .0232398
996.499 .0232427
997.100 .0232448
997.701 .0232464
998.301 .0232473
998.901 .0232476
999.501 .0232486
1000.101 .0232499
1000.700 .0232519
1001.299 .0232547
1001.898 .0232585
1002.496 .0232621
1003.094 .0232660
1003.692 .0232696
1004.289 .0232724
1004.887 .0232753
1005.484 .0232780
1006.080 .0232807
1006.677 .0232841
1007.273 .0232882
1007.868 .0232919
1008.464 .0232950
1009.059 .0232972
1009.654 .0232979
1010.249 .0232975
1010.843 .0232965
1011.437 .0232947
1012.031 .0232929
1012.625 .0232919
1013.218 .0232912
1013.811 .0232908
1014.404 .0232909
1014.997 .0232909
1015.589 .0232913
1016.181 .0232918
1016.773 .0232927
1017.365 .0232948
1017.956 .0232983
1018.547 .0233036
1019.138 .0233105
1019.728 .0233190
1020.319 .0233285
1020.909 .0233384
1021.499 .0233482
1022.088 .0233577
1022.678 .0233665
1023.267 .0233753
1023.856 .0233840
1024.445 .0233932
1025.033 .0234026
1025.621 .0234119
1026.209 .0234212
1026.797 .0234297
1027.385 .0234367
1027.972 .0234424
1028.560 .0234467
1029.147 .0234496
1029.734 .0234521
1030.320 .0234550
1030.907 .0234584
1031.493 .0234636
1032.079 .0234693
1032.665 .0234762
1033.250 .0234827
1033.836 .0234890
1034.421 .0234937
1035.006 .0234967
1035.591 .0234984
1036.176 .0234983
1036.761 .0234967
1037.345 .0234944
1037.929 .0234908
1038.514 .0234871
1039.097 .0234829
1039.681 .0234794
1040.265 .0234759
1040.848 .0234730
1041.432 .0234713
1042.015 .0234706
1042.598 .0234704
1043.181 .0234722
1043.764 .0234747
1044.346 .0234790
1044.929 .0234853
1045.511 .0234928
1046.094 .0235009
1046.676 .0235099
1047.258 .0235196
1047.840 .0235293
1048.422 .0235390
1049.003 .0235485
1049.585 .0235563
1050.166 .0235634
1050.748 .0235695
1051.329 .0235733
1051.910 .0235771
1052.491 .0235805
1053.072 .0235821
1053.653 .0235830
1054.234 .0235828
1054.815 .0235810
1055.396 .0235785
1055.976 .0235757
1056.557 .0235723
1057.138 .0235691
1057.718 .0235672
1058.298 .0235660
1058.879 .0235673
1059.459 .0235708
1060.039 .0235742
1060.620 .0235769
1061.200 .0235785
1061.780 .0235761
1062.360 .0235707
1062.940 .0235629
1063.520 .0235526
1064.101 .0235415
1064.681 .0235303
1065.261 .0235195
1065.841 .0235096
1066.421 .0235012
1067.001 .0234927
1067.581 .0234834
1068.161 .0234735
1068.741 .0234614
1069.321 .0234493
1069.901 .0234392
1070.482 .0234314
1071.062 .0234269
1071.642 .0234266
1072.222 .0234306
1072.803 .0234372
1073.383 .0234468
1073.963 .0234573
1074.544 .0234686
1075.124 .0234787
1075.705 .0234885
1076.286 .0234965
1076.866 .0235048
1077.447 .0235121
1078.028 .0235187
1078.609 .0235256
1079.190 .0235315
1079.771 .0235357
1080.352 .0235388
1080.934 .0235409
1081.515 .0235431
1082.097 .0235437
1082.679 .0235463
1083.260 .0235486
1083.842 .0235532
1084.424 .0235586
1085.007 .0235654
1085.589 .0235736
1086.172 .0235817
1086.754 .0235888
1087.337 .0235937
1087.920 .0235960
1088.503 .0235964
1089.087 .0235927
1089.670 .0235875
1090.254 .0235787
1090.838 .0235666
1091.422 .0235513
1092.006 .0235345
1092.590 .0235149
1093.175 .0234939
1093.760 .0234704
1094.345 .0234458
1094.930 .0234185
1095.516 .0233904
1096.102 .0233624
1096.688 .0233356
1097.274 .0233123
1097.860 .0232908
1098.447 .0232714
1099.034 .0232566
1099.622 .0232430
1100.209 .0232324
1100.797 .0232247
1101.385 .0232194
1101.973 .0232158
1102.562 .0232139
1103.151 .0232144
1103.740 .0232165
1104.330 .0232204
1104.920 .0232260
1105.510 .0232309
1106.101 .0232374
1106.691 .0232451
1107.283 .0232532
1107.874 .0232635
1108.466 .0232745
1109.058 .0232856
1109.651 .0232975
1110.244 .0233102
1110.837 .0233201
1111.431 .0233277
1112.025 .0233351
1112.620 .0233404
1113.215 .0233458
1113.810 .0233530
1114.406 .0233641
1115.002 .0233795
1115.599 .0233984
1116.196 .0234179
1116.793 .0234358
1117.391 .0234542
1117.989 .0234678
1118.588 .0234768
1119.187 .0234799
1119.787 .0234778
1120.387 .0234718
1120.988 .0234659
1121.589 .0234612
1122.190 .0234547
1122.793 .0234477
1123.395 .0234399
1123.998 .0234296
1124.602 .0234171
1125.206 .0234045
1125.811 .0233968
1126.416 .0233923
1127.022 .0233918
1127.628 .0233913
1128.235 .0233941
1128.843 .0233973
1129.451 .0234025
1130.059 .0234082
1130.669 .0234170
1131.278 .0234321
1131.889 .0234525
1132.500 .0234817
1133.112 .0235237
1133.724 .0235723
1134.337 .0236271
1134.950 .0236766
1135.564 .0237242
1136.179 .0237635
1136.795 .0237990
1137.411 .0238335
1138.028 .0238705
1138.645 .0239168
1139.263 .0239691
1139.882 .0240220
1140.502 .0240841
1141.122 .0241417
1141.743 .0242147
1142.365 .0242686
1142.987 .0242072
1143.611 .0243782
1144.235 .0242884
1144.859 .0248192
1145.485 .0242932
