Measurement Sequence started on: 10-20-44-796
Integration time: 35
Scans to Average: 2 
>>>>>Begin Spectral Data<<<<<
432.953 .0317025
433.882 .0346823
434.810 .0365666
435.737 .0338996
436.662 .0334283
437.586 .0337207
438.509 .0336131
439.431 .0334270
440.351 .0332480
441.269 .0331727
442.187 .0331196
443.103 .0330661
444.018 .0330216
444.932 .0329868
445.844 .0329449
446.756 .0328911
447.666 .0328292
448.575 .0327477
449.482 .0326589
450.388 .0325526
451.294 .0324362
452.198 .0323104
453.100 .0321859
454.002 .0320664
454.902 .0319519
455.801 .0318481
456.699 .0317590
457.596 .0316880
458.492 .0316314
459.387 .0315896
460.280 .0315661
461.172 .0315591
462.064 .0315656
462.954 .0315807
463.843 .0316034
464.730 .0316319
465.617 .0316614
466.503 .0316877
467.387 .0317116
468.271 .0317322
469.153 .0317496
470.035 .0317615
470.915 .0317716
471.794 .0317767
472.673 .0317786
473.550 .0317800
474.426 .0317791
475.301 .0317767
476.175 .0317701
477.048 .0317595
477.920 .0317440
478.791 .0317246
479.661 .0317004
480.530 .0316755
481.398 .0316527
482.266 .0316335
483.132 .0316186
483.997 .0316078
484.861 .0316026
485.724 .0316011
486.587 .0316005
487.448 .0315991
488.308 .0315926
489.168 .0315813
490.026 .0315626
490.884 .0315400
491.741 .0315110
492.597 .0314806
493.452 .0314498
494.306 .0314213
495.159 .0313960
496.011 .0313732
496.862 .0313480
497.713 .0313210
498.562 .0312883
499.411 .0312469
500.259 .0311966
501.106 .0311390
501.952 .0310744
502.798 .0310072
503.642 .0309391
504.486 .0308731
505.329 .0308086
506.171 .0307507
507.012 .0306947
507.852 .0306364
508.692 .0305723
509.531 .0304962
510.369 .0304095
511.206 .0303122
512.043 .0302016
512.878 .0300782
513.713 .0299470
514.547 .0298082
515.381 .0296639
516.213 .0295115
517.045 .0293545
517.876 .0291906
518.706 .0290163
519.536 .0288313
520.365 .0286334
521.193 .0284277
522.020 .0282230
522.847 .0280187
523.673 .0278253
524.498 .0276378
525.323 .0274624
526.146 .0272997
526.969 .0271543
527.792 .0270238
528.614 .0269036
529.435 .0267932
530.255 .0266938
531.075 .0266002
531.894 .0265171
532.712 .0264425
533.530 .0263785
534.347 .0263177
535.163 .0262538
535.979 .0261878
536.794 .0261222
537.608 .0260558
538.422 .0259923
539.235 .0259360
540.048 .0258841
540.860 .0258400
541.671 .0258039
542.481 .0257783
543.292 .0257607
544.101 .0257494
544.910 .0257391
545.718 .0257296
546.526 .0257262
547.333 .0257302
548.139 .0257413
548.945 .0257688
549.750 .0258051
550.555 .0258512
551.359 .0259056
552.162 .0259677
552.965 .0260339
553.768 .0261035
554.569 .0261779
555.371 .0262500
556.171 .0263226
556.972 .0263987
557.771 .0264728
558.570 .0265514
559.369 .0266313
560.167 .0267102
560.964 .0267883
561.761 .0268639
562.558 .0269358
563.354 .0270062
564.149 .0270732
564.944 .0271335
565.738 .0271902
566.532 .0272456
567.325 .0272990
568.118 .0273495
568.910 .0274012
569.702 .0274534
570.494 .0275092
571.285 .0275700
572.075 .0276311
572.865 .0276974
573.654 .0277679
574.443 .0278395
575.232 .0279152
576.020 .0279939
576.807 .0280748
577.594 .0281563
578.381 .0282394
579.167 .0283220
579.952 .0284053
580.738 .0284894
581.522 .0285727
582.307 .0286538
583.091 .0287327
583.874 .0288083
584.657 .0288791
585.440 .0289474
586.222 .0290093
587.004 .0290643
587.785 .0291128
588.566 .0291535
589.346 .0291888
590.126 .0292197
590.906 .0292483
591.685 .0292752
592.464 .0292997
593.242 .0293220
594.020 .0293418
594.797 .0293597
595.575 .0293744
596.351 .0293859
597.128 .0293943
597.904 .0293995
598.679 .0294023
599.454 .0294036
600.229 .0294042
601.004 .0294046
601.778 .0294050
602.551 .0294045
603.325 .0294033
604.097 .0294017
604.870 .0293987
605.642 .0293947
606.414 .0293891
607.185 .0293812
607.956 .0293719
608.727 .0293620
609.497 .0293526
610.267 .0293431
611.037 .0293344
611.806 .0293257
612.575 .0293166
613.344 .0293069
614.112 .0292958
614.880 .0292835
615.647 .0292701
616.414 .0292550
617.181 .0292385
617.948 .0292210
618.714 .0292027
619.480 .0291835
620.245 .0291635
621.011 .0291414
621.775 .0291178
622.540 .0290923
623.304 .0290661
624.068 .0290393
624.832 .0290128
625.595 .0289875
626.358 .0289636
627.120 .0289421
627.883 .0289217
628.645 .0289028
629.406 .0288853
630.168 .0288680
630.929 .0288513
631.689 .0288353
632.450 .0288203
633.210 .0288069
633.970 .0287946
634.729 .0287841
635.489 .0287740
636.248 .0287642
637.006 .0287538
637.765 .0287430
638.523 .0287304
639.280 .0287162
640.038 .0286999
640.795 .0286835
641.552 .0286661
642.309 .0286487
643.065 .0286317
643.821 .0286156
644.577 .0286007
645.332 .0285869
646.088 .0285746
646.843 .0285648
647.597 .0285565
648.352 .0285501
649.106 .0285448
649.860 .0285411
650.613 .0285379
651.367 .0285355
652.120 .0285340
652.872 .0285328
653.625 .0285311
654.377 .0285293
655.129 .0285268
655.881 .0285234
656.632 .0285185
657.384 .0285119
658.135 .0285033
658.885 .0284930
659.636 .0284811
660.386 .0284677
661.136 .0284539
661.885 .0284399
662.635 .0284257
663.384 .0284118
664.133 .0283982
664.881 .0283849
665.630 .0283716
666.378 .0283588
667.126 .0283459
667.874 .0283325
668.621 .0283197
669.368 .0283068
670.115 .0282944
670.862 .0282825
671.608 .0282716
672.354 .0282616
673.100 .0282527
673.846 .0282439
674.591 .0282349
675.337 .0282260
676.082 .0282170
676.826 .0282075
677.571 .0281976
678.315 .0281880
679.059 .0281787
679.803 .0281702
680.547 .0281626
681.290 .0281552
682.033 .0281483
682.776 .0281407
683.518 .0281320
684.261 .0281216
685.003 .0281097
685.745 .0280963
686.487 .0280819
687.228 .0280670
687.969 .0280518
688.710 .0280370
689.451 .0280228
690.192 .0280086
690.932 .0279944
691.672 .0279789
692.412 .0279616
693.152 .0279431
693.891 .0279235
694.630 .0279032
695.369 .0278830
696.108 .0278635
696.846 .0278451
697.585 .0278273
698.323 .0278104
699.061 .0277937
699.798 .0277772
700.536 .0277604
701.273 .0277426
702.010 .0277241
702.746 .0277056
703.483 .0276872
704.219 .0276695
704.955 .0276528
705.691 .0276371
706.427 .0276219
707.162 .0276074
707.897 .0275934
708.632 .0275792
709.367 .0275650
710.101 .0275502
710.835 .0275345
711.569 .0275182
712.303 .0275007
713.037 .0274828
713.770 .0274645
714.503 .0274463
715.236 .0274280
715.969 .0274100
716.702 .0273929
717.434 .0273763
718.166 .0273602
718.898 .0273443
719.629 .0273287
720.361 .0273133
721.092 .0272980
721.823 .0272822
722.554 .0272662
723.284 .0272498
724.014 .0272328
724.744 .0272152
725.474 .0271968
726.204 .0271780
726.933 .0271586
727.662 .0271389
728.391 .0271193
729.120 .0270997
729.849 .0270810
730.577 .0270627
731.305 .0270448
732.033 .0270268
732.760 .0270087
733.488 .0269906
734.215 .0269726
734.942 .0269552
735.669 .0269385
736.395 .0269227
737.122 .0269078
737.848 .0268937
738.573 .0268805
739.299 .0268676
740.024 .0268544
740.750 .0268408
741.474 .0268261
742.199 .0268103
742.924 .0267941
743.648 .0267779
744.372 .0267620
745.096 .0267470
745.819 .0267323
746.543 .0267180
747.266 .0267044
747.989 .0266913
748.711 .0266785
749.434 .0266671
750.156 .0266566
750.878 .0266468
751.599 .0266387
752.321 .0266328
753.042 .0266284
753.763 .0266258
754.484 .0266248
755.205 .0266245
755.925 .0266246
756.645 .0266244
757.365 .0266231
758.085 .0266214
758.804 .0266185
759.523 .0266137
760.242 .0266076
760.961 .0266007
761.679 .0265927
762.397 .0265836
763.115 .0265741
763.833 .0265632
764.551 .0265507
765.268 .0265366
765.985 .0265203
766.702 .0265023
767.418 .0264827
768.134 .0264617
768.850 .0264406
769.566 .0264200
770.282 .0264004
770.997 .0263817
771.712 .0263649
772.427 .0263492
773.142 .0263341
773.856 .0263192
774.570 .0263047
775.284 .0262898
775.998 .0262750
776.711 .0262603
777.424 .0262462
778.137 .0262329
778.849 .0262204
779.562 .0262080
780.274 .0261961
780.986 .0261839
781.697 .0261712
782.409 .0261579
783.120 .0261443
783.831 .0261303
784.541 .0261160
785.252 .0261021
785.962 .0260884
786.671 .0260752
787.381 .0260623
788.090 .0260493
788.799 .0260360
789.508 .0260224
790.217 .0260083
790.925 .0259936
791.633 .0259789
792.341 .0259640
793.048 .0259492
793.755 .0259345
794.462 .0259200
795.169 .0259061
795.875 .0258926
796.581 .0258795
797.287 .0258664
797.993 .0258532
798.698 .0258399
799.403 .0258264
800.108 .0258130
800.812 .0257992
801.517 .0257850
802.221 .0257707
802.924 .0257559
803.628 .0257412
804.331 .0257265
805.034 .0257120
805.736 .0256976
806.439 .0256830
807.141 .0256680
807.843 .0256529
808.544 .0256374
809.245 .0256217
809.946 .0256054
810.647 .0255888
811.347 .0255721
812.047 .0255553
812.747 .0255391
813.447 .0255233
814.146 .0255082
814.845 .0254942
815.543 .0254806
816.242 .0254673
816.940 .0254541
817.638 .0254410
818.335 .0254279
819.032 .0254146
819.729 .0254015
820.426 .0253888
821.122 .0253769
821.818 .0253656
822.514 .0253542
823.209 .0253428
823.905 .0253309
824.599 .0253178
825.294 .0253030
825.988 .0252864
826.682 .0252680
827.376 .0252486
828.069 .0252286
828.762 .0252082
829.455 .0251879
830.147 .0251679
830.840 .0251482
831.531 .0251277
832.223 .0251070
832.914 .0250856
833.605 .0250640
834.296 .0250420
834.986 .0250203
835.676 .0249992
836.366 .0249794
837.055 .0249608
837.744 .0249436
838.433 .0249272
839.121 .0249118
839.809 .0248969
840.497 .0248829
841.185 .0248696
841.872 .0248573
842.559 .0248464
843.245 .0248374
843.932 .0248299
844.617 .0248232
845.303 .0248174
845.988 .0248123
846.673 .0248070
847.358 .0248014
848.042 .0247954
848.726 .0247894
849.410 .0247834
850.093 .0247774
850.776 .0247714
851.459 .0247649
852.141 .0247578
852.823 .0247498
853.505 .0247401
854.186 .0247284
854.867 .0247151
855.548 .0247005
856.228 .0246850
856.908 .0246691
857.588 .0246536
858.267 .0246391
858.946 .0246256
859.625 .0246132
860.303 .0246016
860.981 .0245911
861.659 .0245817
862.336 .0245728
863.013 .0245646
863.690 .0245574
864.366 .0245509
865.042 .0245450
865.718 .0245402
866.393 .0245360
867.068 .0245321
867.743 .0245290
868.417 .0245261
869.091 .0245235
869.765 .0245211
870.438 .0245184
871.111 .0245157
871.783 .0245126
872.456 .0245084
873.127 .0245032
873.799 .0244975
874.470 .0244909
875.141 .0244834
875.811 .0244757
876.481 .0244683
877.151 .0244616
877.820 .0244559
878.489 .0244507
879.158 .0244458
879.826 .0244410
880.494 .0244351
881.162 .0244279
881.829 .0244197
882.496 .0244104
883.163 .0244006
883.829 .0243912
884.495 .0243825
885.160 .0243754
885.825 .0243701
886.490 .0243671
887.154 .0243652
887.818 .0243645
888.482 .0243640
889.145 .0243631
889.808 .0243622
890.471 .0243609
891.133 .0243591
891.795 .0243575
892.456 .0243563
893.117 .0243557
893.778 .0243552
894.439 .0243549
895.099 .0243544
895.758 .0243537
896.417 .0243521
897.076 .0243496
897.735 .0243463
898.393 .0243419
899.051 .0243365
899.708 .0243303
900.365 .0243236
901.022 .0243167
901.678 .0243102
902.334 .0243041
902.990 .0242989
903.645 .0242944
904.300 .0242907
904.954 .0242878
905.608 .0242852
906.262 .0242831
906.915 .0242808
907.568 .0242783
908.221 .0242759
908.873 .0242731
909.525 .0242703
910.176 .0242670
910.828 .0242637
911.478 .0242595
912.129 .0242540
912.778 .0242476
913.428 .0242402
914.077 .0242322
914.726 .0242240
915.375 .0242159
916.023 .0242082
916.670 .0242009
917.318 .0241940
917.964 .0241868
918.611 .0241794
919.257 .0241715
919.903 .0241623
920.548 .0241522
921.193 .0241416
921.838 .0241309
922.482 .0241210
923.126 .0241125
923.770 .0241051
924.413 .0240986
925.056 .0240925
925.698 .0240862
926.340 .0240792
926.982 .0240715
927.623 .0240628
928.264 .0240534
928.904 .0240434
929.544 .0240327
930.184 .0240215
930.823 .0240104
931.462 .0239991
932.101 .0239873
932.739 .0239746
933.377 .0239610
934.014 .0239463
934.651 .0239309
935.288 .0239150
935.924 .0238989
936.560 .0238829
937.196 .0238668
937.831 .0238504
938.466 .0238338
939.100 .0238171
939.734 .0238000
940.368 .0237825
941.001 .0237644
941.634 .0237457
942.266 .0237267
942.899 .0237077
943.530 .0236883
944.162 .0236687
944.793 .0236484
945.423 .0236272
946.053 .0236051
946.683 .0235820
947.313 .0235582
947.942 .0235339
948.571 .0235094
949.199 .0234843
949.827 .0234588
950.455 .0234330
951.082 .0234067
951.709 .0233803
952.335 .0233543
952.961 .0233283
953.587 .0233030
954.212 .0232788
954.837 .0232558
955.462 .0232340
956.086 .0232137
956.710 .0231943
957.334 .0231756
957.957 .0231571
958.579 .0231390
959.202 .0231204
959.824 .0231024
960.445 .0230846
961.067 .0230677
961.688 .0230518
962.308 .0230374
962.928 .0230237
963.548 .0230110
964.168 .0229989
964.787 .0229868
965.406 .0229738
966.024 .0229607
966.642 .0229468
967.260 .0229323
967.877 .0229174
968.494 .0229027
969.110 .0228877
969.727 .0228732
970.342 .0228590
970.958 .0228449
971.573 .0228311
972.188 .0228177
972.802 .0228043
973.416 .0227914
974.030 .0227785
974.643 .0227655
975.256 .0227524
975.869 .0227398
976.481 .0227271
977.093 .0227148
977.705 .0227034
978.316 .0226928
978.927 .0226832
979.538 .0226749
980.148 .0226676
980.758 .0226611
981.367 .0226552
981.977 .0226495
982.586 .0226437
983.194 .0226380
983.802 .0226317
984.410 .0226252
985.018 .0226184
985.625 .0226114
986.232 .0226042
986.838 .0225969
987.445 .0225896
988.050 .0225826
988.656 .0225763
989.261 .0225701
989.866 .0225632
990.471 .0225563
991.075 .0225490
991.679 .0225411
992.282 .0225329
992.886 .0225247
993.489 .0225172
994.091 .0225107
994.694 .0225055
995.296 .0225013
995.897 .0224988
996.499 .0224970
997.100 .0224949
997.701 .0224917
998.301 .0224873
998.901 .0224810
999.501 .0224737
1000.101 .0224664
1000.700 .0224589
1001.299 .0224514
1001.898 .0224452
1002.496 .0224402
1003.094 .0224363
1003.692 .0224334
1004.289 .0224308
1004.887 .0224284
1005.484 .0224264
1006.080 .0224243
1006.677 .0224222
1007.273 .0224213
1007.868 .0224217
1008.464 .0224231
1009.059 .0224262
1009.654 .0224304
1010.249 .0224354
1010.843 .0224419
1011.437 .0224497
1012.031 .0224570
1012.625 .0224640
1013.218 .0224705
1013.811 .0224757
1014.404 .0224801
1014.997 .0224833
1015.589 .0224860
1016.181 .0224893
1016.773 .0224940
1017.365 .0224997
1017.956 .0225065
1018.547 .0225150
1019.138 .0225235
1019.728 .0225317
1020.319 .0225389
1020.909 .0225442
1021.499 .0225477
1022.088 .0225507
1022.678 .0225529
1023.267 .0225548
1023.856 .0225570
1024.445 .0225595
1025.033 .0225631
1025.621 .0225665
1026.209 .0225689
1026.797 .0225697
1027.385 .0225703
1027.972 .0225701
1028.560 .0225690
1029.147 .0225687
1029.734 .0225698
1030.320 .0225727
1030.907 .0225772
1031.493 .0225825
1032.079 .0225890
1032.665 .0225961
1033.250 .0226038
1033.836 .0226112
1034.421 .0226193
1035.006 .0226271
1035.591 .0226363
1036.176 .0226463
1036.761 .0226566
1037.345 .0226664
1037.929 .0226759
1038.514 .0226839
1039.097 .0226904
1039.681 .0226955
1040.265 .0226992
1040.848 .0227031
1041.432 .0227086
1042.015 .0227146
1042.598 .0227226
1043.181 .0227321
1043.764 .0227428
1044.346 .0227524
1044.929 .0227607
1045.511 .0227657
1046.094 .0227676
1046.676 .0227678
1047.258 .0227658
1047.840 .0227634
1048.422 .0227620
1049.003 .0227612
1049.585 .0227616
1050.166 .0227625
1050.748 .0227627
1051.329 .0227614
1051.910 .0227587
1052.491 .0227532
1053.072 .0227458
1053.653 .0227374
1054.234 .0227308
1054.815 .0227265
1055.396 .0227256
1055.976 .0227282
1056.557 .0227335
1057.138 .0227426
1057.718 .0227530
1058.298 .0227634
1058.879 .0227750
1059.459 .0227853
1060.039 .0227958
1060.620 .0228043
1061.200 .0228119
1061.780 .0228193
1062.360 .0228257
1062.940 .0228314
1063.520 .0228360
1064.101 .0228389
1064.681 .0228402
1065.261 .0228401
1065.841 .0228397
1066.421 .0228385
1067.001 .0228358
1067.581 .0228320
1068.161 .0228265
1068.741 .0228191
1069.321 .0228111
1069.901 .0228024
1070.482 .0227950
1071.062 .0227895
1071.642 .0227851
1072.222 .0227836
1072.803 .0227834
1073.383 .0227854
1073.963 .0227877
1074.544 .0227896
1075.124 .0227897
1075.705 .0227864
1076.286 .0227819
1076.866 .0227769
1077.447 .0227708
1078.028 .0227657
1078.609 .0227610
1079.190 .0227580
1079.771 .0227551
1080.352 .0227525
1080.934 .0227487
1081.515 .0227447
1082.097 .0227416
1082.679 .0227388
1083.260 .0227371
1083.842 .0227380
1084.424 .0227404
1085.007 .0227452
1085.589 .0227523
1086.172 .0227589
1086.754 .0227655
1087.337 .0227738
1087.920 .0227836
1088.503 .0227950
1089.087 .0228083
1089.670 .0228253
1090.254 .0228461
1090.838 .0228682
1091.422 .0228883
1092.006 .0229044
1092.590 .0229168
1093.175 .0229232
1093.760 .0229225
1094.345 .0229166
1094.930 .0229074
1095.516 .0228959
1096.102 .0228831
1096.688 .0228688
1097.274 .0228543
1097.860 .0228401
1098.447 .0228247
1099.034 .0228071
1099.622 .0227874
1100.209 .0227664
1100.797 .0227466
1101.385 .0227289
1101.973 .0227136
1102.562 .0227008
1103.151 .0226912
1103.740 .0226865
1104.330 .0226849
1104.920 .0226851
1105.510 .0226877
1106.101 .0226922
1106.691 .0226960
1107.283 .0226979
1107.874 .0226961
1108.466 .0226914
1109.058 .0226847
1109.651 .0226732
1110.244 .0226573
1110.837 .0226397
1111.431 .0226224
1112.025 .0226092
1112.620 .0226003
1113.215 .0225993
1113.810 .0226046
1114.406 .0226192
1115.002 .0226409
1115.599 .0226664
1116.196 .0226940
1116.793 .0227219
1117.391 .0227476
1117.989 .0227704
1118.588 .0227896
1119.187 .0228051
1119.787 .0228189
1120.387 .0228306
1120.988 .0228397
1121.589 .0228472
1122.190 .0228474
1122.793 .0228437
1123.395 .0228310
1123.998 .0228089
1124.602 .0227775
1125.206 .0227390
1125.811 .0226973
1126.416 .0226565
1127.022 .0226226
1127.628 .0225959
1128.235 .0225808
1128.843 .0225794
1129.451 .0225875
1130.059 .0226055
1130.669 .0226310
1131.278 .0226611
1131.889 .0226909
1132.500 .0227247
1133.112 .0227603
1133.724 .0227974
1134.337 .0228388
1134.950 .0228812
1135.564 .0229263
1136.179 .0229721
1136.795 .0230165
1137.411 .0230599
1138.028 .0231020
1138.645 .0231418
1139.263 .0231775
1139.882 .0232071
1140.502 .0232404
1141.122 .0232694
1141.743 .0233053
1142.365 .0233516
1142.987 .0232937
1143.611 .0234908
1144.235 .0233728
1144.859 .0236237
1145.485 .0238319
