Measurement Sequence started on: 10-20-44-796
Integration time: 35
Scans to Average: 2 
>>>>>Begin Spectral Data<<<<<
432.953 .0395227
433.882 .0365513
434.810 .0381323
435.737 .0359401
436.662 .0348668
437.586 .0347675
438.509 .0343161
439.431 .0340670
440.351 .0338967
441.269 .0338504
442.187 .0338502
443.103 .0338494
444.018 .0338281
444.932 .0337673
445.844 .0336801
446.756 .0335878
447.666 .0335120
448.575 .0334500
449.482 .0334128
450.388 .0333734
451.294 .0333415
452.198 .0332949
453.100 .0332462
454.002 .0331781
454.902 .0330972
455.801 .0330126
456.699 .0329308
457.596 .0328513
458.492 .0327768
459.387 .0327015
460.280 .0326405
461.172 .0325884
462.064 .0325479
462.954 .0325105
463.843 .0324819
464.730 .0324616
465.617 .0324493
466.503 .0324443
467.387 .0324502
468.271 .0324632
469.153 .0324779
470.035 .0324976
470.915 .0325180
471.794 .0325327
472.673 .0325477
473.550 .0325620
474.426 .0325741
475.301 .0325822
476.175 .0325886
477.048 .0325969
477.920 .0326045
478.791 .0326082
479.661 .0326009
480.530 .0325880
481.398 .0325625
482.266 .0325248
483.132 .0324771
483.997 .0324295
484.861 .0323780
485.724 .0323309
486.587 .0322924
487.448 .0322574
488.308 .0322282
489.168 .0321997
490.026 .0321659
490.884 .0321253
491.741 .0320682
492.597 .0319989
493.452 .0319176
494.306 .0318331
495.159 .0317464
496.011 .0316626
496.862 .0315858
497.713 .0315121
498.562 .0314379
499.411 .0313619
500.259 .0312770
501.106 .0311809
501.952 .0310755
502.798 .0309644
503.642 .0308490
504.486 .0307374
505.329 .0306376
506.171 .0305517
507.012 .0304818
507.852 .0304263
508.692 .0303775
509.531 .0303271
510.369 .0302725
511.206 .0302053
512.043 .0301234
512.878 .0300317
513.713 .0299320
514.547 .0298322
515.381 .0297375
516.213 .0296460
517.045 .0295546
517.876 .0294680
518.706 .0293784
519.536 .0292675
520.365 .0291371
521.193 .0289802
522.020 .0287976
522.847 .0285907
523.673 .0283750
524.498 .0281550
525.323 .0279357
526.146 .0277310
526.969 .0275347
527.792 .0273419
528.614 .0271475
529.435 .0269498
530.255 .0267581
531.075 .0265622
531.894 .0263740
532.712 .0261958
533.530 .0260474
534.347 .0259370
535.163 .0258493
535.979 .0257927
536.794 .0257725
537.608 .0257711
538.422 .0257824
539.235 .0258030
540.048 .0258282
540.860 .0258551
541.671 .0258793
542.481 .0258967
543.292 .0259025
544.101 .0259038
544.910 .0259001
545.718 .0258926
546.526 .0258958
547.333 .0259034
548.139 .0259222
548.945 .0259646
549.750 .0260150
550.555 .0260736
551.359 .0261361
552.162 .0261989
552.965 .0262583
553.768 .0263087
554.569 .0263544
555.371 .0264019
556.171 .0264580
556.972 .0265297
557.771 .0266127
558.570 .0267147
559.369 .0268304
560.167 .0269509
560.964 .0270698
561.761 .0271809
562.558 .0272833
563.354 .0273747
564.149 .0274540
564.944 .0275260
565.738 .0275935
566.532 .0276639
567.325 .0277368
568.118 .0278114
568.910 .0278907
569.702 .0279716
570.494 .0280482
571.285 .0281223
572.075 .0281921
572.865 .0282602
573.654 .0283234
574.443 .0283884
575.232 .0284546
576.020 .0285258
576.807 .0286039
577.594 .0286873
578.381 .0287779
579.167 .0288764
579.952 .0289756
580.738 .0290769
581.522 .0291759
582.307 .0292715
583.091 .0293589
583.874 .0294399
584.657 .0295079
585.440 .0295673
586.222 .0296161
587.004 .0296574
587.785 .0296922
588.566 .0297226
589.346 .0297487
590.126 .0297717
590.906 .0297909
591.685 .0298034
592.464 .0298088
593.242 .0298075
594.020 .0297992
594.797 .0297867
595.575 .0297689
596.351 .0297495
597.128 .0297316
597.904 .0297170
598.679 .0297053
599.454 .0296981
600.229 .0296950
601.004 .0296937
601.778 .0296932
602.551 .0296901
603.325 .0296839
604.097 .0296762
604.870 .0296676
605.642 .0296578
606.414 .0296493
607.185 .0296424
607.956 .0296376
608.727 .0296344
609.497 .0296330
610.267 .0296305
611.037 .0296265
611.806 .0296194
612.575 .0296084
613.344 .0295923
614.112 .0295737
614.880 .0295529
615.647 .0295323
616.414 .0295133
617.181 .0294967
617.948 .0294822
618.714 .0294708
619.480 .0294612
620.245 .0294514
621.011 .0294393
621.775 .0294261
622.540 .0294091
623.304 .0293904
624.068 .0293704
624.832 .0293509
625.595 .0293330
626.358 .0293186
627.120 .0293058
627.883 .0292944
628.645 .0292841
629.406 .0292733
630.168 .0292599
630.929 .0292446
631.689 .0292268
632.450 .0292081
633.210 .0291898
633.970 .0291731
634.729 .0291575
635.489 .0291451
636.248 .0291342
637.006 .0291242
637.765 .0291143
638.523 .0291029
639.280 .0290895
640.038 .0290747
640.795 .0290590
641.552 .0290428
642.309 .0290272
643.065 .0290134
643.821 .0290011
644.577 .0289905
645.332 .0289799
646.088 .0289690
646.843 .0289591
647.597 .0289488
648.352 .0289382
649.106 .0289287
649.860 .0289202
650.613 .0289130
651.367 .0289074
652.120 .0289027
652.872 .0288980
653.625 .0288929
654.377 .0288868
655.129 .0288789
655.881 .0288694
656.632 .0288579
657.384 .0288445
658.135 .0288294
658.885 .0288138
659.636 .0287961
660.386 .0287778
661.136 .0287585
661.885 .0287381
662.635 .0287172
663.384 .0286960
664.133 .0286749
664.881 .0286547
665.630 .0286354
666.378 .0286172
667.126 .0285987
667.874 .0285807
668.621 .0285628
669.368 .0285457
670.115 .0285295
670.862 .0285139
671.608 .0284998
672.354 .0284881
673.100 .0284784
673.846 .0284705
674.591 .0284639
675.337 .0284585
676.082 .0284532
676.826 .0284473
677.571 .0284402
678.315 .0284319
679.059 .0284228
679.803 .0284132
680.547 .0284029
681.290 .0283923
682.033 .0283809
682.776 .0283692
683.518 .0283573
684.261 .0283449
685.003 .0283318
685.745 .0283173
686.487 .0283020
687.228 .0282857
687.969 .0282682
688.710 .0282500
689.451 .0282314
690.192 .0282138
690.932 .0281966
691.672 .0281790
692.412 .0281623
693.152 .0281465
693.891 .0281315
694.630 .0281168
695.369 .0281017
696.108 .0280867
696.846 .0280714
697.585 .0280556
698.323 .0280393
699.061 .0280232
699.798 .0280070
700.536 .0279906
701.273 .0279739
702.010 .0279573
702.746 .0279400
703.483 .0279230
704.219 .0279067
704.955 .0278912
705.691 .0278766
706.427 .0278630
707.162 .0278507
707.897 .0278400
708.632 .0278298
709.367 .0278197
710.101 .0278097
710.835 .0278003
711.569 .0277902
712.303 .0277802
713.037 .0277708
713.770 .0277619
714.503 .0277531
715.236 .0277440
715.969 .0277341
716.702 .0277228
717.434 .0277100
718.166 .0276950
718.898 .0276781
719.629 .0276593
720.361 .0276391
721.092 .0276177
721.823 .0275954
722.554 .0275727
723.284 .0275495
724.014 .0275259
724.744 .0275017
725.474 .0274773
726.204 .0274531
726.933 .0274292
727.662 .0274057
728.391 .0273825
729.120 .0273604
729.849 .0273392
730.577 .0273187
731.305 .0272986
732.033 .0272795
732.760 .0272605
733.488 .0272414
734.215 .0272223
734.942 .0272031
735.669 .0271838
736.395 .0271641
737.122 .0271446
737.848 .0271254
738.573 .0271063
739.299 .0270878
740.024 .0270703
740.750 .0270541
741.474 .0270387
742.199 .0270240
742.924 .0270096
743.648 .0269956
744.372 .0269816
745.096 .0269674
745.819 .0269535
746.543 .0269399
747.266 .0269262
747.989 .0269122
748.711 .0268988
749.434 .0268853
750.156 .0268722
750.878 .0268599
751.599 .0268488
752.321 .0268386
753.042 .0268304
753.763 .0268236
754.484 .0268186
755.205 .0268153
755.925 .0268126
756.645 .0268098
757.365 .0268067
758.085 .0268026
758.804 .0267972
759.523 .0267905
760.242 .0267829
760.961 .0267735
761.679 .0267626
762.397 .0267493
763.115 .0267337
763.833 .0267154
764.551 .0266954
765.268 .0266731
765.985 .0266491
766.702 .0266240
767.418 .0265983
768.134 .0265724
768.850 .0265471
769.566 .0265226
770.282 .0264989
770.997 .0264763
771.712 .0264551
772.427 .0264354
773.142 .0264177
773.856 .0264018
774.570 .0263868
775.284 .0263724
775.998 .0263586
776.711 .0263445
777.424 .0263301
778.137 .0263157
778.849 .0263008
779.562 .0262862
780.274 .0262716
780.986 .0262571
781.697 .0262430
782.409 .0262294
783.120 .0262159
783.831 .0262022
784.541 .0261884
785.252 .0261748
785.962 .0261616
786.671 .0261495
787.381 .0261380
788.090 .0261275
788.799 .0261175
789.508 .0261074
790.217 .0260972
790.925 .0260864
791.633 .0260750
792.341 .0260630
793.048 .0260506
793.755 .0260381
794.462 .0260255
795.169 .0260133
795.875 .0260017
796.581 .0259906
797.287 .0259794
797.993 .0259685
798.698 .0259576
799.403 .0259465
800.108 .0259352
800.812 .0259234
801.517 .0259117
802.221 .0259001
802.924 .0258889
803.628 .0258785
804.331 .0258698
805.034 .0258631
805.736 .0258582
806.439 .0258556
807.141 .0258544
807.843 .0258544
808.544 .0258546
809.245 .0258545
809.946 .0258532
810.647 .0258507
811.347 .0258476
812.047 .0258436
812.747 .0258390
813.447 .0258341
814.146 .0258294
814.845 .0258250
815.543 .0258196
816.242 .0258132
816.940 .0258052
817.638 .0257950
818.335 .0257826
819.032 .0257679
819.729 .0257518
820.426 .0257351
821.122 .0257184
821.818 .0257016
822.514 .0256854
823.209 .0256694
823.905 .0256535
824.599 .0256373
825.294 .0256208
825.988 .0256028
826.682 .0255839
827.376 .0255646
828.069 .0255447
828.762 .0255240
829.455 .0255037
830.147 .0254832
830.840 .0254633
831.531 .0254437
832.223 .0254252
832.914 .0254081
833.605 .0253922
834.296 .0253774
834.986 .0253636
835.676 .0253503
836.366 .0253378
837.055 .0253250
837.744 .0253123
838.433 .0252994
839.121 .0252865
839.809 .0252741
840.497 .0252627
841.185 .0252525
841.872 .0252432
842.559 .0252350
843.245 .0252272
843.932 .0252188
844.617 .0252095
845.303 .0251992
845.988 .0251877
846.673 .0251756
847.358 .0251636
848.042 .0251522
848.726 .0251424
849.410 .0251347
850.093 .0251288
850.776 .0251245
851.459 .0251208
852.141 .0251173
852.823 .0251132
853.505 .0251086
854.186 .0251024
854.867 .0250952
855.548 .0250869
856.228 .0250776
856.908 .0250678
857.588 .0250575
858.267 .0250473
858.946 .0250370
859.625 .0250257
860.303 .0250133
860.981 .0249994
861.659 .0249842
862.336 .0249667
863.013 .0249478
863.690 .0249275
864.366 .0249063
865.042 .0248845
865.718 .0248633
866.393 .0248430
867.068 .0248240
867.743 .0248070
868.417 .0247916
869.091 .0247780
869.765 .0247658
870.438 .0247542
871.111 .0247436
871.783 .0247333
872.456 .0247230
873.127 .0247121
873.799 .0247014
874.470 .0246902
875.141 .0246785
875.811 .0246665
876.481 .0246545
877.151 .0246424
877.820 .0246303
878.489 .0246182
879.158 .0246058
879.826 .0245929
880.494 .0245792
881.162 .0245640
881.829 .0245479
882.496 .0245302
883.163 .0245114
883.829 .0244924
884.495 .0244738
885.160 .0244562
885.825 .0244403
886.490 .0244261
887.154 .0244133
887.818 .0244014
888.482 .0243897
889.145 .0243775
889.808 .0243650
890.471 .0243520
891.133 .0243386
891.795 .0243256
892.456 .0243133
893.117 .0243020
893.778 .0242928
894.439 .0242853
895.099 .0242792
895.758 .0242741
896.417 .0242694
897.076 .0242643
897.735 .0242589
898.393 .0242532
899.051 .0242476
899.708 .0242423
900.365 .0242374
901.022 .0242331
901.678 .0242292
902.334 .0242254
902.990 .0242217
903.645 .0242176
904.300 .0242132
904.954 .0242076
905.608 .0242007
906.262 .0241926
906.915 .0241837
907.568 .0241739
908.221 .0241630
908.873 .0241516
909.525 .0241398
910.176 .0241275
910.828 .0241152
911.478 .0241025
912.129 .0240896
912.778 .0240762
913.428 .0240625
914.077 .0240482
914.726 .0240343
915.375 .0240208
916.023 .0240087
916.670 .0239982
917.318 .0239896
917.964 .0239828
918.611 .0239776
919.257 .0239741
919.903 .0239713
920.548 .0239691
921.193 .0239671
921.838 .0239646
922.482 .0239620
923.126 .0239587
923.770 .0239552
924.413 .0239512
925.056 .0239471
925.698 .0239428
926.340 .0239383
926.982 .0239336
927.623 .0239278
928.264 .0239210
928.904 .0239128
929.544 .0239033
930.184 .0238925
930.823 .0238817
931.462 .0238703
932.101 .0238590
932.739 .0238486
933.377 .0238391
934.014 .0238301
934.651 .0238218
935.288 .0238141
935.924 .0238065
936.560 .0237987
937.196 .0237908
937.831 .0237822
938.466 .0237741
939.100 .0237661
939.734 .0237579
940.368 .0237491
941.001 .0237404
941.634 .0237308
942.266 .0237207
942.899 .0237103
943.530 .0236991
944.162 .0236871
944.793 .0236751
945.423 .0236621
946.053 .0236478
946.683 .0236326
947.313 .0236164
947.942 .0235987
948.571 .0235800
949.199 .0235601
949.827 .0235390
950.455 .0235184
951.082 .0234985
951.709 .0234790
952.335 .0234601
952.961 .0234416
953.587 .0234236
954.212 .0234057
954.837 .0233886
955.462 .0233721
956.086 .0233576
956.710 .0233460
957.334 .0233360
957.957 .0233279
958.579 .0233215
959.202 .0233162
959.824 .0233104
960.445 .0233037
961.067 .0232955
961.688 .0232860
962.308 .0232763
962.928 .0232668
963.548 .0232579
964.168 .0232492
964.787 .0232412
965.406 .0232332
966.024 .0232254
966.642 .0232172
967.260 .0232084
967.877 .0232005
968.494 .0231927
969.110 .0231850
969.727 .0231784
970.342 .0231731
970.958 .0231699
971.573 .0231674
972.188 .0231657
972.802 .0231638
973.416 .0231619
974.030 .0231595
974.643 .0231567
975.256 .0231531
975.869 .0231488
976.481 .0231435
977.093 .0231385
977.705 .0231333
978.316 .0231283
978.927 .0231238
979.538 .0231202
980.148 .0231171
980.758 .0231149
981.367 .0231134
981.977 .0231138
982.586 .0231156
983.194 .0231185
983.802 .0231222
984.410 .0231263
985.018 .0231310
985.625 .0231352
986.232 .0231393
986.838 .0231427
987.445 .0231450
988.050 .0231462
988.656 .0231459
989.261 .0231445
989.866 .0231413
990.471 .0231363
991.075 .0231299
991.679 .0231206
992.282 .0231100
992.886 .0230982
993.489 .0230859
994.091 .0230734
994.694 .0230622
995.296 .0230522
995.897 .0230439
996.499 .0230369
997.100 .0230305
997.701 .0230241
998.301 .0230180
998.901 .0230112
999.501 .0230034
1000.101 .0229956
1000.700 .0229881
1001.299 .0229813
1001.898 .0229775
1002.496 .0229747
1003.094 .0229732
1003.692 .0229732
1004.289 .0229740
1004.887 .0229744
1005.484 .0229738
1006.080 .0229728
1006.677 .0229707
1007.273 .0229686
1007.868 .0229661
1008.464 .0229632
1009.059 .0229628
1009.654 .0229648
1010.249 .0229689
1010.843 .0229747
1011.437 .0229824
1012.031 .0229895
1012.625 .0229962
1013.218 .0230018
1013.811 .0230049
1014.404 .0230064
1014.997 .0230066
1015.589 .0230064
1016.181 .0230069
1016.773 .0230091
1017.365 .0230129
1017.956 .0230183
1018.547 .0230251
1019.138 .0230303
1019.728 .0230332
1020.319 .0230347
1020.909 .0230348
1021.499 .0230335
1022.088 .0230315
1022.678 .0230288
1023.267 .0230266
1023.856 .0230251
1024.445 .0230228
1025.033 .0230194
1025.621 .0230147
1026.209 .0230084
1026.797 .0230000
1027.385 .0229902
1027.972 .0229808
1028.560 .0229724
1029.147 .0229660
1029.734 .0229613
1030.320 .0229574
1030.907 .0229533
1031.493 .0229487
1032.079 .0229430
1032.665 .0229372
1033.250 .0229307
1033.836 .0229256
1034.421 .0229221
1035.006 .0229216
1035.591 .0229243
1036.176 .0229294
1036.761 .0229369
1037.345 .0229457
1037.929 .0229529
1038.514 .0229578
1039.097 .0229603
1039.681 .0229614
1040.265 .0229606
1040.848 .0229592
1041.432 .0229571
1042.015 .0229557
1042.598 .0229544
1043.181 .0229534
1043.764 .0229518
1044.346 .0229507
1044.929 .0229482
1045.511 .0229438
1046.094 .0229378
1046.676 .0229298
1047.258 .0229202
1047.840 .0229111
1048.422 .0229023
1049.003 .0228945
1049.585 .0228875
1050.166 .0228819
1050.748 .0228768
1051.329 .0228717
1051.910 .0228656
1052.491 .0228587
1053.072 .0228512
1053.653 .0228424
1054.234 .0228325
1054.815 .0228232
1055.396 .0228156
1055.976 .0228097
1056.557 .0228051
1057.138 .0228021
1057.718 .0228000
1058.298 .0227983
1058.879 .0227970
1059.459 .0227959
1060.039 .0227950
1060.620 .0227938
1061.200 .0227927
1061.780 .0227915
1062.360 .0227895
1062.940 .0227871
1063.520 .0227832
1064.101 .0227778
1064.681 .0227698
1065.261 .0227570
1065.841 .0227390
1066.421 .0227170
1067.001 .0226902
1067.581 .0226610
1068.161 .0226304
1068.741 .0226010
1069.321 .0225739
1069.901 .0225511
1070.482 .0225322
1071.062 .0225173
1071.642 .0225057
1072.222 .0224967
1072.803 .0224879
1073.383 .0224806
1073.963 .0224746
1074.544 .0224713
1075.124 .0224709
1075.705 .0224749
1076.286 .0224830
1076.866 .0224950
1077.447 .0225082
1078.028 .0225220
1078.609 .0225344
1079.190 .0225437
1079.771 .0225493
1080.352 .0225514
1080.934 .0225500
1081.515 .0225475
1082.097 .0225435
1082.679 .0225394
1083.260 .0225338
1083.842 .0225270
1084.424 .0225176
1085.007 .0225062
1085.589 .0224907
1086.172 .0224724
1086.754 .0224523
1087.337 .0224329
1087.920 .0224136
1088.503 .0223949
1089.087 .0223787
1089.670 .0223627
1090.254 .0223475
1090.838 .0223316
1091.422 .0223140
1092.006 .0222961
1092.590 .0222772
1093.175 .0222588
1093.760 .0222415
1094.345 .0222253
1094.930 .0222131
1095.516 .0222054
1096.102 .0222033
1096.688 .0222051
1097.274 .0222102
1097.860 .0222175
1098.447 .0222260
1099.034 .0222327
1099.622 .0222383
1100.209 .0222427
1100.797 .0222482
1101.385 .0222543
1101.973 .0222645
1102.562 .0222787
1103.151 .0222978
1103.740 .0223190
1104.330 .0223402
1104.920 .0223567
1105.510 .0223683
1106.101 .0223732
1106.691 .0223715
1107.283 .0223636
1107.874 .0223522
1108.466 .0223381
1109.058 .0223251
1109.651 .0223108
1110.244 .0222970
1110.837 .0222851
1111.431 .0222728
1112.025 .0222569
1112.620 .0222392
1113.215 .0222209
1113.810 .0222048
1114.406 .0221924
1115.002 .0221830
1115.599 .0221785
1116.196 .0221790
1116.793 .0221838
1117.391 .0221909
1117.989 .0222009
1118.588 .0222121
1119.187 .0222226
1119.787 .0222324
1120.387 .0222390
1120.988 .0222435
1121.589 .0222474
1122.190 .0222491
1122.793 .0222515
1123.395 .0222505
1123.998 .0222514
1124.602 .0222545
1125.206 .0222653
1125.811 .0222812
1126.416 .0223045
1127.022 .0223371
1127.628 .0223721
1128.235 .0224099
1128.843 .0224499
1129.451 .0224885
1130.059 .0225260
1130.669 .0225597
1131.278 .0225954
1131.889 .0226305
1132.500 .0226709
1133.112 .0227127
1133.724 .0227599
1134.337 .0228119
1134.950 .0228656
1135.564 .0229109
1136.179 .0229489
1136.795 .0229777
1137.411 .0229912
1138.028 .0229935
1138.645 .0229839
1139.263 .0229728
1139.882 .0229579
1140.502 .0229405
1141.122 .0229277
1141.743 .0229003
1142.365 .0229008
1142.987 .0228706
1143.611 .0228579
1144.235 .0228881
1144.859 .0224533
1145.485 .0233507
