Measurement Sequence started on: 10-20-44-796
Integration time: 35
Scans to Average: 2 
>>>>>Begin Spectral Data<<<<<
432.953 .0442192
433.882 .0389188
434.810 .0372408
435.737 .0373793
436.662 .0358428
437.586 .0363971
438.509 .0358146
439.431 .0354811
440.351 .0352320
441.269 .0350099
442.187 .0348475
443.103 .0346890
444.018 .0345472
444.932 .0344190
445.844 .0343016
446.756 .0341844
447.666 .0340796
448.575 .0339793
449.482 .0338905
450.388 .0338160
451.294 .0337508
452.198 .0336896
453.100 .0336363
454.002 .0335932
454.902 .0335589
455.801 .0335319
456.699 .0335233
457.596 .0335257
458.492 .0335409
459.387 .0335600
460.280 .0335875
461.172 .0336098
462.064 .0336289
462.954 .0336325
463.843 .0336225
464.730 .0335951
465.617 .0335565
466.503 .0335067
467.387 .0334492
468.271 .0333826
469.153 .0333152
470.035 .0332418
470.915 .0331723
471.794 .0330985
472.673 .0330269
473.550 .0329548
474.426 .0328926
475.301 .0328323
476.175 .0327799
477.048 .0327342
477.920 .0326980
478.791 .0326648
479.661 .0326381
480.530 .0326109
481.398 .0325865
482.266 .0325653
483.132 .0325518
483.997 .0325375
484.861 .0325299
485.724 .0325246
486.587 .0325242
487.448 .0325256
488.308 .0325280
489.168 .0325279
490.026 .0325270
490.884 .0325222
491.741 .0325125
492.597 .0324982
493.452 .0324856
494.306 .0324729
495.159 .0324633
496.011 .0324558
496.862 .0324474
497.713 .0324373
498.562 .0324242
499.411 .0324063
500.259 .0323827
501.106 .0323518
501.952 .0323112
502.798 .0322643
503.642 .0322095
504.486 .0321482
505.329 .0320774
506.171 .0320004
507.012 .0319167
507.852 .0318271
508.692 .0317318
509.531 .0316337
510.369 .0315322
511.206 .0314319
512.043 .0313245
512.878 .0312064
513.713 .0310720
514.547 .0309236
515.381 .0307576
516.213 .0305778
517.045 .0303815
517.876 .0301778
518.706 .0299729
519.536 .0297766
520.365 .0295907
521.193 .0294155
522.020 .0292495
522.847 .0290867
523.673 .0289207
524.498 .0287464
525.323 .0285654
526.146 .0283864
526.969 .0282198
527.792 .0280663
528.614 .0279265
529.435 .0278106
530.255 .0277185
531.075 .0276488
531.894 .0275907
532.712 .0275334
533.530 .0274772
534.347 .0274104
535.163 .0273309
535.979 .0272419
536.794 .0271535
537.608 .0270688
538.422 .0269941
539.235 .0269323
540.048 .0268878
540.860 .0268661
541.671 .0268658
542.481 .0268842
543.292 .0269146
544.101 .0269489
544.910 .0269792
545.718 .0270062
546.526 .0270300
547.333 .0270491
548.139 .0270739
548.945 .0271029
549.750 .0271358
550.555 .0271740
551.359 .0272165
552.162 .0272658
552.965 .0273210
553.768 .0273702
554.569 .0274148
555.371 .0274561
556.171 .0274924
556.972 .0275234
557.771 .0275545
558.570 .0275898
559.369 .0276285
560.167 .0276721
560.964 .0277226
561.761 .0277770
562.558 .0278444
563.354 .0279180
564.149 .0279969
564.944 .0280787
565.738 .0281616
566.532 .0282394
567.325 .0283155
568.118 .0283891
568.910 .0284612
569.702 .0285350
570.494 .0286175
571.285 .0287054
572.075 .0288006
572.865 .0289029
573.654 .0290103
574.443 .0291189
575.232 .0292250
576.020 .0293230
576.807 .0294146
577.594 .0294976
578.381 .0295736
579.167 .0296424
579.952 .0297086
580.738 .0297742
581.522 .0298375
582.307 .0298997
583.091 .0299593
583.874 .0300153
584.657 .0300658
585.440 .0301100
586.222 .0301480
587.004 .0301812
587.785 .0302093
588.566 .0302334
589.346 .0302557
590.126 .0302766
590.906 .0302953
591.685 .0303126
592.464 .0303269
593.242 .0303385
594.020 .0303469
594.797 .0303545
595.575 .0303603
596.351 .0303657
597.128 .0303705
597.904 .0303753
598.679 .0303810
599.454 .0303864
600.229 .0303908
601.004 .0303940
601.778 .0303962
602.551 .0303961
603.325 .0303935
604.097 .0303898
604.870 .0303850
605.642 .0303798
606.414 .0303747
607.185 .0303693
607.956 .0303639
608.727 .0303581
609.497 .0303509
610.267 .0303420
611.037 .0303319
611.806 .0303200
612.575 .0303070
613.344 .0302935
614.112 .0302803
614.880 .0302673
615.647 .0302562
616.414 .0302459
617.181 .0302368
617.948 .0302285
618.714 .0302205
619.480 .0302117
620.245 .0302025
621.011 .0301920
621.775 .0301809
622.540 .0301696
623.304 .0301584
624.068 .0301473
624.832 .0301372
625.595 .0301275
626.358 .0301179
627.120 .0301079
627.883 .0300967
628.645 .0300832
629.406 .0300682
630.168 .0300507
630.929 .0300311
631.689 .0300104
632.450 .0299884
633.210 .0299664
633.970 .0299446
634.729 .0299233
635.489 .0299020
636.248 .0298808
637.006 .0298591
637.765 .0298363
638.523 .0298122
639.280 .0297869
640.038 .0297601
640.795 .0297334
641.552 .0297058
642.309 .0296788
643.065 .0296524
643.821 .0296270
644.577 .0296023
645.332 .0295789
646.088 .0295557
646.843 .0295331
647.597 .0295107
648.352 .0294891
649.106 .0294677
649.860 .0294468
650.613 .0294260
651.367 .0294063
652.120 .0293873
652.872 .0293696
653.625 .0293526
654.377 .0293371
655.129 .0293224
655.881 .0293081
656.632 .0292934
657.384 .0292785
658.135 .0292633
658.885 .0292470
659.636 .0292294
660.386 .0292113
661.136 .0291924
661.885 .0291740
662.635 .0291563
663.384 .0291395
664.133 .0291235
664.881 .0291083
665.630 .0290933
666.378 .0290783
667.126 .0290637
667.874 .0290486
668.621 .0290337
669.368 .0290188
670.115 .0290038
670.862 .0289890
671.608 .0289757
672.354 .0289638
673.100 .0289527
673.846 .0289428
674.591 .0289329
675.337 .0289234
676.082 .0289143
676.826 .0289046
677.571 .0288950
678.315 .0288858
679.059 .0288768
679.803 .0288685
680.547 .0288613
681.290 .0288554
682.033 .0288509
682.776 .0288471
683.518 .0288434
684.261 .0288391
685.003 .0288345
685.745 .0288286
686.487 .0288215
687.228 .0288136
687.969 .0288043
688.710 .0287941
689.451 .0287830
690.192 .0287709
690.932 .0287581
691.672 .0287441
692.412 .0287285
693.152 .0287117
693.891 .0286940
694.630 .0286751
695.369 .0286559
696.108 .0286362
696.846 .0286165
697.585 .0285965
698.323 .0285769
699.061 .0285577
699.798 .0285395
700.536 .0285225
701.273 .0285065
702.010 .0284926
702.746 .0284806
703.483 .0284699
704.219 .0284608
704.955 .0284522
705.691 .0284440
706.427 .0284351
707.162 .0284256
707.897 .0284154
708.632 .0284051
709.367 .0283945
710.101 .0283831
710.835 .0283715
711.569 .0283595
712.303 .0283461
713.037 .0283317
713.770 .0283153
714.503 .0282972
715.236 .0282773
715.969 .0282560
716.702 .0282339
717.434 .0282122
718.166 .0281906
718.898 .0281693
719.629 .0281482
720.361 .0281272
721.092 .0281060
721.823 .0280845
722.554 .0280626
723.284 .0280405
724.014 .0280180
724.744 .0279953
725.474 .0279721
726.204 .0279487
726.933 .0279250
727.662 .0279006
728.391 .0278756
729.120 .0278500
729.849 .0278245
730.577 .0277994
731.305 .0277746
732.033 .0277511
732.760 .0277286
733.488 .0277067
734.215 .0276855
734.942 .0276649
735.669 .0276442
736.395 .0276239
737.122 .0276037
737.848 .0275838
738.573 .0275643
739.299 .0275450
740.024 .0275262
740.750 .0275073
741.474 .0274889
742.199 .0274699
742.924 .0274504
743.648 .0274308
744.372 .0274107
745.096 .0273911
745.819 .0273719
746.543 .0273535
747.266 .0273366
747.989 .0273213
748.711 .0273075
749.434 .0272952
750.156 .0272844
750.878 .0272753
751.599 .0272678
752.321 .0272611
753.042 .0272555
753.763 .0272500
754.484 .0272445
755.205 .0272382
755.925 .0272308
756.645 .0272219
757.365 .0272112
758.085 .0271986
758.804 .0271838
759.523 .0271671
760.242 .0271490
760.961 .0271289
761.679 .0271079
762.397 .0270852
763.115 .0270612
763.833 .0270361
764.551 .0270106
765.268 .0269847
765.985 .0269589
766.702 .0269336
767.418 .0269094
768.134 .0268869
768.850 .0268662
769.566 .0268474
770.282 .0268305
770.997 .0268152
771.712 .0268009
772.427 .0267872
773.142 .0267741
773.856 .0267607
774.570 .0267476
775.284 .0267344
775.998 .0267210
776.711 .0267080
777.424 .0266955
778.137 .0266833
778.849 .0266714
779.562 .0266595
780.274 .0266472
780.986 .0266345
781.697 .0266213
782.409 .0266074
783.120 .0265932
783.831 .0265790
784.541 .0265646
785.252 .0265508
785.962 .0265374
786.671 .0265243
787.381 .0265115
788.090 .0264986
788.799 .0264850
789.508 .0264704
790.217 .0264551
790.925 .0264390
791.633 .0264219
792.341 .0264047
793.048 .0263875
793.755 .0263705
794.462 .0263541
795.169 .0263386
795.875 .0263238
796.581 .0263101
797.287 .0262974
797.993 .0262854
798.698 .0262745
799.403 .0262650
800.108 .0262568
800.812 .0262499
801.517 .0262446
802.221 .0262406
802.924 .0262374
803.628 .0262352
804.331 .0262327
805.034 .0262294
805.736 .0262251
806.439 .0262190
807.141 .0262110
807.843 .0262011
808.544 .0261899
809.245 .0261770
809.946 .0261635
810.647 .0261493
811.347 .0261346
812.047 .0261201
812.747 .0261062
813.447 .0260922
814.146 .0260785
814.845 .0260655
815.543 .0260526
816.242 .0260405
816.940 .0260296
817.638 .0260197
818.335 .0260115
819.032 .0260053
819.729 .0260010
820.426 .0259982
821.122 .0259971
821.818 .0259971
822.514 .0259975
823.209 .0259983
823.905 .0259978
824.599 .0259962
825.294 .0259938
825.988 .0259898
826.682 .0259840
827.376 .0259775
828.069 .0259702
828.762 .0259618
829.455 .0259523
830.147 .0259416
830.840 .0259298
831.531 .0259171
832.223 .0259037
832.914 .0258890
833.605 .0258740
834.296 .0258595
834.986 .0258450
835.676 .0258313
836.366 .0258189
837.055 .0258071
837.744 .0257964
838.433 .0257868
839.121 .0257782
839.809 .0257705
840.497 .0257650
841.185 .0257615
841.872 .0257596
842.559 .0257594
843.245 .0257602
843.932 .0257611
844.617 .0257617
845.303 .0257612
845.988 .0257589
846.673 .0257549
847.358 .0257498
848.042 .0257437
848.726 .0257373
849.410 .0257312
850.093 .0257250
850.776 .0257184
851.459 .0257112
852.141 .0257021
852.823 .0256911
853.505 .0256784
854.186 .0256637
854.867 .0256481
855.548 .0256324
856.228 .0256177
856.908 .0256044
857.588 .0255928
858.267 .0255829
858.946 .0255736
859.625 .0255649
860.303 .0255559
860.981 .0255469
861.659 .0255381
862.336 .0255295
863.013 .0255216
863.690 .0255147
864.366 .0255085
865.042 .0255032
865.718 .0254988
866.393 .0254938
867.068 .0254885
867.743 .0254820
868.417 .0254740
869.091 .0254646
869.765 .0254539
870.438 .0254423
871.111 .0254296
871.783 .0254165
872.456 .0254024
873.127 .0253873
873.799 .0253720
874.470 .0253559
875.141 .0253397
875.811 .0253237
876.481 .0253079
877.151 .0252926
877.820 .0252782
878.489 .0252646
879.158 .0252517
879.826 .0252392
880.494 .0252271
881.162 .0252151
881.829 .0252032
882.496 .0251914
883.163 .0251797
883.829 .0251687
884.495 .0251584
885.160 .0251490
885.825 .0251408
886.490 .0251335
887.154 .0251274
887.818 .0251217
888.482 .0251163
889.145 .0251110
889.808 .0251053
890.471 .0250994
891.133 .0250934
891.795 .0250871
892.456 .0250806
893.117 .0250744
893.778 .0250681
894.439 .0250615
895.099 .0250542
895.758 .0250460
896.417 .0250364
897.076 .0250258
897.735 .0250138
898.393 .0250004
899.051 .0249865
899.708 .0249720
900.365 .0249571
901.022 .0249423
901.678 .0249280
902.334 .0249143
902.990 .0249014
903.645 .0248898
904.300 .0248789
904.954 .0248692
905.608 .0248607
906.262 .0248533
906.915 .0248467
907.568 .0248407
908.221 .0248346
908.873 .0248287
909.525 .0248229
910.176 .0248165
910.828 .0248096
911.478 .0248024
912.129 .0247940
912.778 .0247841
913.428 .0247726
914.077 .0247597
914.726 .0247448
915.375 .0247279
916.023 .0247095
916.670 .0246895
917.318 .0246683
917.964 .0246461
918.611 .0246232
919.257 .0246004
919.903 .0245772
920.548 .0245540
921.193 .0245312
921.838 .0245095
922.482 .0244892
923.126 .0244701
923.770 .0244529
924.413 .0244374
925.056 .0244230
925.698 .0244093
926.340 .0243963
926.982 .0243835
927.623 .0243705
928.264 .0243574
928.904 .0243439
929.544 .0243304
930.184 .0243167
930.823 .0243030
931.462 .0242893
932.101 .0242755
932.739 .0242613
933.377 .0242460
934.014 .0242298
934.651 .0242125
935.288 .0241943
935.924 .0241760
936.560 .0241581
937.196 .0241415
937.831 .0241264
938.466 .0241128
939.100 .0241007
939.734 .0240898
940.368 .0240793
941.001 .0240681
941.634 .0240560
942.266 .0240424
942.899 .0240267
943.530 .0240092
944.162 .0239900
944.793 .0239705
945.423 .0239500
946.053 .0239291
946.683 .0239078
947.313 .0238860
947.942 .0238635
948.571 .0238397
949.199 .0238152
949.827 .0237897
950.455 .0237636
951.082 .0237378
951.709 .0237129
952.335 .0236896
952.961 .0236681
953.587 .0236488
954.212 .0236310
954.837 .0236148
955.462 .0235992
956.086 .0235844
956.710 .0235701
957.334 .0235563
957.957 .0235431
958.579 .0235304
959.202 .0235185
959.824 .0235073
960.445 .0234964
961.067 .0234864
961.688 .0234760
962.308 .0234658
962.928 .0234551
963.548 .0234444
964.168 .0234333
964.787 .0234219
965.406 .0234099
966.024 .0233977
966.642 .0233849
967.260 .0233714
967.877 .0233571
968.494 .0233421
969.110 .0233265
969.727 .0233102
970.342 .0232931
970.958 .0232761
971.573 .0232591
972.188 .0232429
972.802 .0232271
973.416 .0232124
974.030 .0231987
974.643 .0231862
975.256 .0231749
975.869 .0231649
976.481 .0231562
977.093 .0231495
977.705 .0231443
978.316 .0231410
978.927 .0231389
979.538 .0231380
980.148 .0231382
980.758 .0231389
981.367 .0231400
981.977 .0231414
982.586 .0231434
983.194 .0231463
983.802 .0231499
984.410 .0231542
985.018 .0231588
985.625 .0231642
986.232 .0231695
986.838 .0231743
987.445 .0231784
988.050 .0231819
988.656 .0231841
989.261 .0231854
989.866 .0231855
990.471 .0231845
991.075 .0231830
991.679 .0231806
992.282 .0231773
992.886 .0231734
993.489 .0231696
994.091 .0231656
994.694 .0231617
995.296 .0231586
995.897 .0231555
996.499 .0231528
997.100 .0231502
997.701 .0231479
998.301 .0231458
998.901 .0231447
999.501 .0231447
1000.101 .0231459
1000.700 .0231482
1001.299 .0231517
1001.898 .0231560
1002.496 .0231614
1003.094 .0231666
1003.692 .0231710
1004.289 .0231746
1004.887 .0231776
1005.484 .0231795
1006.080 .0231812
1006.677 .0231829
1007.273 .0231854
1007.868 .0231882
1008.464 .0231920
1009.059 .0231964
1009.654 .0232018
1010.249 .0232076
1010.843 .0232137
1011.437 .0232196
1012.031 .0232250
1012.625 .0232294
1013.218 .0232335
1013.811 .0232373
1014.404 .0232413
1014.997 .0232458
1015.589 .0232508
1016.181 .0232568
1016.773 .0232636
1017.365 .0232707
1017.956 .0232779
1018.547 .0232853
1019.138 .0232925
1019.728 .0232993
1020.319 .0233065
1020.909 .0233143
1021.499 .0233232
1022.088 .0233343
1022.678 .0233464
1023.267 .0233592
1023.856 .0233722
1024.445 .0233846
1025.033 .0233953
1025.621 .0234042
1026.209 .0234109
1026.797 .0234160
1027.385 .0234202
1027.972 .0234239
1028.560 .0234279
1029.147 .0234329
1029.734 .0234398
1030.320 .0234471
1030.907 .0234545
1031.493 .0234619
1032.079 .0234681
1032.665 .0234736
1033.250 .0234787
1033.836 .0234835
1034.421 .0234885
1035.006 .0234940
1035.591 .0235005
1036.176 .0235077
1036.761 .0235155
1037.345 .0235230
1037.929 .0235292
1038.514 .0235342
1039.097 .0235377
1039.681 .0235393
1040.265 .0235408
1040.848 .0235430
1041.432 .0235460
1042.015 .0235501
1042.598 .0235554
1043.181 .0235621
1043.764 .0235694
1044.346 .0235777
1044.929 .0235866
1045.511 .0235964
1046.094 .0236075
1046.676 .0236199
1047.258 .0236332
1047.840 .0236481
1048.422 .0236633
1049.003 .0236767
1049.585 .0236884
1050.166 .0236972
1050.748 .0237028
1051.329 .0237055
1051.910 .0237064
1052.491 .0237071
1053.072 .0237074
1053.653 .0237086
1054.234 .0237091
1054.815 .0237102
1055.396 .0237115
1055.976 .0237124
1056.557 .0237137
1057.138 .0237161
1057.718 .0237199
1058.298 .0237257
1058.879 .0237344
1059.459 .0237451
1060.039 .0237566
1060.620 .0237672
1061.200 .0237749
1061.780 .0237790
1062.360 .0237779
1062.940 .0237727
1063.520 .0237641
1064.101 .0237543
1064.681 .0237432
1065.261 .0237314
1065.841 .0237185
1066.421 .0237036
1067.001 .0236858
1067.581 .0236643
1068.161 .0236392
1068.741 .0236119
1069.321 .0235830
1069.901 .0235555
1070.482 .0235314
1071.062 .0235126
1071.642 .0234994
1072.222 .0234939
1072.803 .0234939
1073.383 .0234980
1073.963 .0235045
1074.544 .0235123
1075.124 .0235202
1075.705 .0235287
1076.286 .0235361
1076.866 .0235437
1077.447 .0235520
1078.028 .0235609
1078.609 .0235700
1079.190 .0235807
1079.771 .0235926
1080.352 .0236057
1080.934 .0236191
1081.515 .0236326
1082.097 .0236447
1082.679 .0236566
1083.260 .0236671
1083.842 .0236766
1084.424 .0236851
1085.007 .0236926
1085.589 .0236976
1086.172 .0237017
1086.754 .0237046
1087.337 .0237077
1087.920 .0237125
1088.503 .0237190
1089.087 .0237270
1089.670 .0237357
1090.254 .0237434
1090.838 .0237490
1091.422 .0237510
1092.006 .0237487
1092.590 .0237387
1093.175 .0237238
1093.760 .0237057
1094.345 .0236847
1094.930 .0236631
1095.516 .0236453
1096.102 .0236336
1096.688 .0236272
1097.274 .0236253
1097.860 .0236259
1098.447 .0236283
1099.034 .0236310
1099.622 .0236305
1100.209 .0236269
1100.797 .0236231
1101.385 .0236198
1101.973 .0236165
1102.562 .0236189
1103.151 .0236281
1103.740 .0236426
1104.330 .0236621
1104.920 .0236832
1105.510 .0237021
1106.101 .0237153
1106.691 .0237226
1107.283 .0237227
1107.874 .0237179
1108.466 .0237088
1109.058 .0236954
1109.651 .0236822
1110.244 .0236698
1110.837 .0236575
1111.431 .0236457
1112.025 .0236351
1112.620 .0236243
1113.215 .0236127
1113.810 .0236031
1114.406 .0235954
1115.002 .0235929
1115.599 .0235939
1116.196 .0235980
1116.793 .0236023
1117.391 .0236078
1117.989 .0236112
1118.588 .0236128
1119.187 .0236134
1119.787 .0236133
1120.387 .0236151
1120.988 .0236190
1121.589 .0236245
1122.190 .0236331
1122.793 .0236424
1123.395 .0236508
1123.998 .0236528
1124.602 .0236529
1125.206 .0236469
1125.811 .0236377
1126.416 .0236285
1127.022 .0236214
1127.628 .0236177
1128.235 .0236178
1128.843 .0236223
1129.451 .0236304
1130.059 .0236441
1130.669 .0236614
1131.278 .0236822
1131.889 .0237088
1132.500 .0237380
1133.112 .0237665
1133.724 .0237943
1134.337 .0238233
1134.950 .0238464
1135.564 .0238660
1136.179 .0238846
1136.795 .0239045
1137.411 .0239312
1138.028 .0239650
1138.645 .0240091
1139.263 .0240620
1139.882 .0241169
1140.502 .0241769
1141.122 .0242471
1141.743 .0243272
1142.365 .0244301
1142.987 .0242647
1143.611 .0244846
1144.235 .0248603
1144.859 .0249682
1145.485 .0254594
