Measurement Sequence started on: 10-20-44-796
Integration time: 35
Scans to Average: 2 
>>>>>Begin Spectral Data<<<<<
432.953 .0403893
433.882 .0389653
434.810 .0412459
435.737 .0398334
436.662 .0368445
437.586 .0372438
438.509 .0366724
439.431 .0362354
440.351 .0358279
441.269 .0355870
442.187 .0354911
443.103 .0354577
444.018 .0354589
444.932 .0355098
445.844 .0355949
446.756 .0356963
447.666 .0358200
448.575 .0359398
449.482 .0360587
450.388 .0361915
451.294 .0363023
452.198 .0364136
453.100 .0365235
454.002 .0366250
454.902 .0367017
455.801 .0367836
456.699 .0368508
457.596 .0369102
458.492 .0369572
459.387 .0369927
460.280 .0370293
461.172 .0370587
462.064 .0370863
462.954 .0371024
463.843 .0371072
464.730 .0370942
465.617 .0370614
466.503 .0370140
467.387 .0369470
468.271 .0368542
469.153 .0367543
470.035 .0366506
470.915 .0365463
471.794 .0364460
472.673 .0363516
473.550 .0362682
474.426 .0361979
475.301 .0361259
476.175 .0360615
477.048 .0359942
477.920 .0359304
478.791 .0358604
479.661 .0357882
480.530 .0357155
481.398 .0356494
482.266 .0355946
483.132 .0355583
483.997 .0355288
484.861 .0355106
485.724 .0354959
486.587 .0354782
487.448 .0354519
488.308 .0354107
489.168 .0353523
490.026 .0352850
490.884 .0352083
491.741 .0351359
492.597 .0350684
493.452 .0350180
494.306 .0349785
495.159 .0349503
496.011 .0349287
496.862 .0349060
497.713 .0348792
498.562 .0348514
499.411 .0348205
500.259 .0347913
501.106 .0347668
501.952 .0347514
502.798 .0347518
503.642 .0347656
504.486 .0347847
505.329 .0348043
506.171 .0348153
507.012 .0348142
507.852 .0347894
508.692 .0347472
509.531 .0346846
510.369 .0346051
511.206 .0345098
512.043 .0344005
512.878 .0342812
513.713 .0341501
514.547 .0340076
515.381 .0338537
516.213 .0336902
517.045 .0335177
517.876 .0333352
518.706 .0331512
519.536 .0329728
520.365 .0328067
521.193 .0326437
522.020 .0324924
522.847 .0323469
523.673 .0322023
524.498 .0320555
525.323 .0319059
526.146 .0317606
526.969 .0316185
527.792 .0314773
528.614 .0313395
529.435 .0312159
530.255 .0311020
531.075 .0309761
531.894 .0308488
532.712 .0307075
533.530 .0305489
534.347 .0303733
535.163 .0301860
535.979 .0300017
536.794 .0298350
537.608 .0296881
538.422 .0295567
539.235 .0294546
540.048 .0293820
540.860 .0293192
541.671 .0292719
542.481 .0292295
543.292 .0291913
544.101 .0291551
544.910 .0291297
545.718 .0291105
546.526 .0291008
547.333 .0291071
548.139 .0291203
548.945 .0291415
549.750 .0291677
550.555 .0291971
551.359 .0292345
552.162 .0292761
552.965 .0293262
553.768 .0293810
554.569 .0294488
555.371 .0295249
556.171 .0296036
556.972 .0296837
557.771 .0297616
558.570 .0298391
559.369 .0299175
560.167 .0299993
560.964 .0300876
561.761 .0301861
562.558 .0302935
563.354 .0304118
564.149 .0305366
564.944 .0306656
565.738 .0307930
566.532 .0309129
567.325 .0310180
568.118 .0311063
568.910 .0311787
569.702 .0312400
570.494 .0312914
571.285 .0313394
572.075 .0313844
572.865 .0314305
573.654 .0314806
574.443 .0315299
575.232 .0315752
576.020 .0316181
576.807 .0316536
577.594 .0316789
578.381 .0316955
579.167 .0317077
579.952 .0317202
580.738 .0317372
581.522 .0317611
582.307 .0317897
583.091 .0318292
583.874 .0318749
584.657 .0319213
585.440 .0319684
586.222 .0320125
587.004 .0320494
587.785 .0320803
588.566 .0321046
589.346 .0321242
590.126 .0321383
590.906 .0321528
591.685 .0321664
592.464 .0321802
593.242 .0321924
594.020 .0322006
594.797 .0322063
595.575 .0322091
596.351 .0322062
597.128 .0321984
597.904 .0321882
598.679 .0321782
599.454 .0321681
600.229 .0321593
601.004 .0321528
601.778 .0321487
602.551 .0321451
603.325 .0321413
604.097 .0321367
604.870 .0321313
605.642 .0321250
606.414 .0321178
607.185 .0321102
607.956 .0321022
608.727 .0320944
609.497 .0320868
610.267 .0320799
611.037 .0320725
611.806 .0320631
612.575 .0320520
613.344 .0320401
614.112 .0320269
614.880 .0320130
615.647 .0319987
616.414 .0319845
617.181 .0319705
617.948 .0319567
618.714 .0319427
619.480 .0319291
620.245 .0319151
621.011 .0319001
621.775 .0318832
622.540 .0318645
623.304 .0318444
624.068 .0318232
624.832 .0318007
625.595 .0317768
626.358 .0317517
627.120 .0317248
627.883 .0316960
628.645 .0316660
629.406 .0316349
630.168 .0316025
630.929 .0315697
631.689 .0315360
632.450 .0315025
633.210 .0314702
633.970 .0314380
634.729 .0314071
635.489 .0313771
636.248 .0313482
637.006 .0313210
637.765 .0312955
638.523 .0312726
639.280 .0312518
640.038 .0312331
640.795 .0312160
641.552 .0311997
642.309 .0311853
643.065 .0311712
643.821 .0311573
644.577 .0311434
645.332 .0311294
646.088 .0311155
646.843 .0311013
647.597 .0310861
648.352 .0310694
649.106 .0310507
649.860 .0310296
650.613 .0310061
651.367 .0309812
652.120 .0309560
652.872 .0309313
653.625 .0309081
654.377 .0308868
655.129 .0308676
655.881 .0308500
656.632 .0308338
657.384 .0308172
658.135 .0308004
658.885 .0307826
659.636 .0307644
660.386 .0307464
661.136 .0307294
661.885 .0307134
662.635 .0307001
663.384 .0306891
664.133 .0306797
664.881 .0306700
665.630 .0306602
666.378 .0306485
667.126 .0306352
667.874 .0306190
668.621 .0306009
669.368 .0305811
670.115 .0305617
670.862 .0305418
671.608 .0305229
672.354 .0305055
673.100 .0304894
673.846 .0304735
674.591 .0304574
675.337 .0304395
676.082 .0304202
676.826 .0303985
677.571 .0303762
678.315 .0303533
679.059 .0303315
679.803 .0303112
680.547 .0302938
681.290 .0302794
682.033 .0302668
682.776 .0302551
683.518 .0302433
684.261 .0302305
685.003 .0302162
685.745 .0302005
686.487 .0301838
687.228 .0301678
687.969 .0301524
688.710 .0301381
689.451 .0301252
690.192 .0301133
690.932 .0301010
691.672 .0300876
692.412 .0300723
693.152 .0300547
693.891 .0300348
694.630 .0300141
695.369 .0299929
696.108 .0299733
696.846 .0299548
697.585 .0299378
698.323 .0299222
699.061 .0299080
699.798 .0298932
700.536 .0298779
701.273 .0298609
702.010 .0298424
702.746 .0298220
703.483 .0298008
704.219 .0297792
704.955 .0297582
705.691 .0297371
706.427 .0297161
707.162 .0296944
707.897 .0296721
708.632 .0296476
709.367 .0296219
710.101 .0295950
710.835 .0295677
711.569 .0295403
712.303 .0295136
713.037 .0294887
713.770 .0294669
714.503 .0294468
715.236 .0294286
715.969 .0294117
716.702 .0293959
717.434 .0293800
718.166 .0293642
718.898 .0293481
719.629 .0293322
720.361 .0293167
721.092 .0293016
721.823 .0292865
722.554 .0292720
723.284 .0292575
724.014 .0292420
724.744 .0292258
725.474 .0292082
726.204 .0291887
726.933 .0291682
727.662 .0291462
728.391 .0291234
729.120 .0291001
729.849 .0290773
730.577 .0290552
731.305 .0290344
732.033 .0290155
732.760 .0289976
733.488 .0289812
734.215 .0289659
734.942 .0289505
735.669 .0289350
736.395 .0289196
737.122 .0289034
737.848 .0288868
738.573 .0288693
739.299 .0288521
740.024 .0288349
740.750 .0288182
741.474 .0288017
742.199 .0287853
742.924 .0287695
743.648 .0287536
744.372 .0287365
745.096 .0287202
745.819 .0287036
746.543 .0286870
747.266 .0286700
747.989 .0286531
748.711 .0286359
749.434 .0286191
750.156 .0286026
750.878 .0285870
751.599 .0285721
752.321 .0285592
753.042 .0285468
753.763 .0285360
754.484 .0285263
755.205 .0285165
755.925 .0285058
756.645 .0284945
757.365 .0284807
758.085 .0284654
758.804 .0284483
759.523 .0284308
760.242 .0284131
760.961 .0283962
761.679 .0283801
762.397 .0283640
763.115 .0283481
763.833 .0283315
764.551 .0283129
765.268 .0282928
765.985 .0282698
766.702 .0282452
767.418 .0282198
768.134 .0281940
768.850 .0281691
769.566 .0281460
770.282 .0281249
770.997 .0281059
771.712 .0280886
772.427 .0280722
773.142 .0280564
773.856 .0280404
774.570 .0280237
775.284 .0280063
775.998 .0279878
776.711 .0279691
777.424 .0279500
778.137 .0279310
778.849 .0279119
779.562 .0278925
780.274 .0278736
780.986 .0278542
781.697 .0278345
782.409 .0278145
783.120 .0277950
783.831 .0277770
784.541 .0277609
785.252 .0277474
785.962 .0277369
786.671 .0277288
787.381 .0277224
788.090 .0277167
788.799 .0277107
789.508 .0277033
790.217 .0276949
790.925 .0276847
791.633 .0276733
792.341 .0276608
793.048 .0276485
793.755 .0276361
794.462 .0276238
795.169 .0276111
795.875 .0275965
796.581 .0275806
797.287 .0275631
797.993 .0275437
798.698 .0275236
799.403 .0275037
800.108 .0274844
800.812 .0274666
801.517 .0274510
802.221 .0274375
802.924 .0274264
803.628 .0274176
804.331 .0274106
805.034 .0274045
805.736 .0273994
806.439 .0273945
807.141 .0273895
807.843 .0273845
808.544 .0273787
809.245 .0273714
809.946 .0273636
810.647 .0273544
811.347 .0273444
812.047 .0273339
812.747 .0273238
813.447 .0273142
814.146 .0273052
814.845 .0272970
815.543 .0272896
816.242 .0272830
816.940 .0272775
817.638 .0272722
818.335 .0272676
819.032 .0272626
819.729 .0272571
820.426 .0272509
821.122 .0272437
821.818 .0272348
822.514 .0272251
823.209 .0272140
823.905 .0272023
824.599 .0271900
825.294 .0271771
825.988 .0271642
826.682 .0271506
827.376 .0271359
828.069 .0271197
828.762 .0271020
829.455 .0270828
830.147 .0270619
830.840 .0270407
831.531 .0270200
832.223 .0270002
832.914 .0269820
833.605 .0269659
834.296 .0269521
834.986 .0269405
835.676 .0269308
836.366 .0269225
837.055 .0269159
837.744 .0269092
838.433 .0269027
839.121 .0268959
839.809 .0268889
840.497 .0268816
841.185 .0268736
841.872 .0268654
842.559 .0268573
843.245 .0268488
843.932 .0268404
844.617 .0268312
845.303 .0268216
845.988 .0268110
846.673 .0267992
847.358 .0267865
848.042 .0267730
848.726 .0267588
849.410 .0267453
850.093 .0267318
850.776 .0267193
851.459 .0267075
852.141 .0266966
852.823 .0266866
853.505 .0266769
854.186 .0266676
854.867 .0266589
855.548 .0266498
856.228 .0266413
856.908 .0266326
857.588 .0266241
858.267 .0266154
858.946 .0266062
859.625 .0265967
860.303 .0265861
860.981 .0265748
861.659 .0265631
862.336 .0265504
863.013 .0265372
863.690 .0265231
864.366 .0265076
865.042 .0264913
865.718 .0264743
866.393 .0264562
867.068 .0264379
867.743 .0264203
868.417 .0264030
869.091 .0263863
869.765 .0263711
870.438 .0263571
871.111 .0263433
871.783 .0263301
872.456 .0263161
873.127 .0263012
873.799 .0262854
874.470 .0262685
875.141 .0262511
875.811 .0262343
876.481 .0262178
877.151 .0262016
877.820 .0261861
878.489 .0261710
879.158 .0261551
879.826 .0261393
880.494 .0261229
881.162 .0261060
881.829 .0260885
882.496 .0260705
883.163 .0260528
883.829 .0260358
884.495 .0260199
885.160 .0260052
885.825 .0259916
886.490 .0259794
887.154 .0259681
887.818 .0259580
888.482 .0259487
889.145 .0259400
889.808 .0259318
890.471 .0259238
891.133 .0259155
891.795 .0259071
892.456 .0258985
893.117 .0258895
893.778 .0258806
894.439 .0258714
895.099 .0258627
895.758 .0258547
896.417 .0258480
897.076 .0258428
897.735 .0258380
898.393 .0258338
899.051 .0258291
899.708 .0258237
900.365 .0258170
901.022 .0258088
901.678 .0257997
902.334 .0257903
902.990 .0257805
903.645 .0257711
904.300 .0257628
904.954 .0257553
905.608 .0257482
906.262 .0257401
906.915 .0257314
907.568 .0257215
908.221 .0257096
908.873 .0256967
909.525 .0256832
910.176 .0256698
910.828 .0256567
911.478 .0256448
912.129 .0256341
912.778 .0256250
913.428 .0256173
914.077 .0256105
914.726 .0256038
915.375 .0255973
916.023 .0255909
916.670 .0255847
917.318 .0255794
917.964 .0255747
918.611 .0255702
919.257 .0255667
919.903 .0255634
920.548 .0255605
921.193 .0255584
921.838 .0255570
922.482 .0255560
923.126 .0255552
923.770 .0255542
924.413 .0255521
925.056 .0255489
925.698 .0255452
926.340 .0255402
926.982 .0255347
927.623 .0255284
928.264 .0255217
928.904 .0255147
929.544 .0255066
930.184 .0254971
930.823 .0254858
931.462 .0254725
932.101 .0254571
932.739 .0254399
933.377 .0254216
934.014 .0254026
934.651 .0253837
935.288 .0253653
935.924 .0253482
936.560 .0253322
937.196 .0253170
937.831 .0253024
938.466 .0252884
939.100 .0252744
939.734 .0252597
940.368 .0252452
941.001 .0252312
941.634 .0252181
942.266 .0252060
942.899 .0251947
943.530 .0251843
944.162 .0251742
944.793 .0251640
945.423 .0251531
946.053 .0251406
946.683 .0251273
947.313 .0251123
947.942 .0250964
948.571 .0250802
949.199 .0250632
949.827 .0250459
950.455 .0250281
951.082 .0250105
951.709 .0249928
952.335 .0249752
952.961 .0249585
953.587 .0249421
954.212 .0249270
954.837 .0249126
955.462 .0248991
956.086 .0248873
956.710 .0248776
957.334 .0248690
957.957 .0248618
958.579 .0248560
959.202 .0248514
959.824 .0248475
960.445 .0248441
961.067 .0248414
961.688 .0248386
962.308 .0248358
962.928 .0248332
963.548 .0248298
964.168 .0248264
964.787 .0248216
965.406 .0248161
966.024 .0248099
966.642 .0248032
967.260 .0247953
967.877 .0247865
968.494 .0247767
969.110 .0247657
969.727 .0247522
970.342 .0247376
970.958 .0247222
971.573 .0247069
972.188 .0246922
972.802 .0246792
973.416 .0246683
974.030 .0246601
974.643 .0246538
975.256 .0246496
975.869 .0246468
976.481 .0246454
977.093 .0246448
977.705 .0246463
978.316 .0246500
978.927 .0246567
979.538 .0246657
980.148 .0246775
980.758 .0246909
981.367 .0247049
981.977 .0247189
982.586 .0247325
983.194 .0247452
983.802 .0247563
984.410 .0247652
985.018 .0247728
985.625 .0247786
986.232 .0247840
986.838 .0247878
987.445 .0247901
988.050 .0247910
988.656 .0247902
989.261 .0247875
989.866 .0247837
990.471 .0247793
991.075 .0247740
991.679 .0247681
992.282 .0247618
992.886 .0247540
993.489 .0247451
994.091 .0247354
994.694 .0247253
995.296 .0247142
995.897 .0247031
996.499 .0246921
997.100 .0246821
997.701 .0246735
998.301 .0246658
998.901 .0246587
999.501 .0246520
1000.101 .0246456
1000.700 .0246377
1001.299 .0246301
1001.898 .0246230
1002.496 .0246164
1003.094 .0246115
1003.692 .0246080
1004.289 .0246061
1004.887 .0246056
1005.484 .0246064
1006.080 .0246081
1006.677 .0246089
1007.273 .0246093
1007.868 .0246078
1008.464 .0246061
1009.059 .0246042
1009.654 .0246030
1010.249 .0246030
1010.843 .0246060
1011.437 .0246104
1012.031 .0246160
1012.625 .0246225
1013.218 .0246287
1013.811 .0246346
1014.404 .0246383
1014.997 .0246406
1015.589 .0246414
1016.181 .0246416
1016.773 .0246421
1017.365 .0246422
1017.956 .0246432
1018.547 .0246437
1019.138 .0246436
1019.728 .0246420
1020.319 .0246385
1020.909 .0246341
1021.499 .0246284
1022.088 .0246216
1022.678 .0246138
1023.267 .0246063
1023.856 .0245993
1024.445 .0245934
1025.033 .0245887
1025.621 .0245852
1026.209 .0245834
1026.797 .0245819
1027.385 .0245810
1027.972 .0245806
1028.560 .0245807
1029.147 .0245803
1029.734 .0245800
1030.320 .0245800
1030.907 .0245794
1031.493 .0245790
1032.079 .0245802
1032.665 .0245833
1033.250 .0245878
1033.836 .0245933
1034.421 .0246007
1035.006 .0246084
1035.591 .0246163
1036.176 .0246237
1036.761 .0246308
1037.345 .0246376
1037.929 .0246440
1038.514 .0246484
1039.097 .0246523
1039.681 .0246550
1040.265 .0246564
1040.848 .0246560
1041.432 .0246554
1042.015 .0246538
1042.598 .0246515
1043.181 .0246488
1043.764 .0246465
1044.346 .0246444
1044.929 .0246435
1045.511 .0246430
1046.094 .0246420
1046.676 .0246411
1047.258 .0246401
1047.840 .0246389
1048.422 .0246389
1049.003 .0246403
1049.585 .0246446
1050.166 .0246497
1050.748 .0246556
1051.329 .0246614
1051.910 .0246669
1052.491 .0246712
1053.072 .0246741
1053.653 .0246750
1054.234 .0246745
1054.815 .0246732
1055.396 .0246725
1055.976 .0246715
1056.557 .0246715
1057.138 .0246713
1057.718 .0246702
1058.298 .0246674
1058.879 .0246624
1059.459 .0246545
1060.039 .0246454
1060.620 .0246354
1061.200 .0246237
1061.780 .0246088
1062.360 .0245932
1062.940 .0245776
1063.520 .0245621
1064.101 .0245451
1064.681 .0245275
1065.261 .0245086
1065.841 .0244882
1066.421 .0244672
1067.001 .0244452
1067.581 .0244250
1068.161 .0244085
1068.741 .0243939
1069.321 .0243811
1069.901 .0243723
1070.482 .0243671
1071.062 .0243645
1071.642 .0243656
1072.222 .0243687
1072.803 .0243722
1073.383 .0243774
1073.963 .0243832
1074.544 .0243882
1075.124 .0243901
1075.705 .0243901
1076.286 .0243850
1076.866 .0243792
1077.447 .0243701
1078.028 .0243596
1078.609 .0243502
1079.190 .0243423
1079.771 .0243346
1080.352 .0243261
1080.934 .0243172
1081.515 .0243076
1082.097 .0242923
1082.679 .0242735
1083.260 .0242485
1083.842 .0242217
1084.424 .0241936
1085.007 .0241681
1085.589 .0241443
1086.172 .0241237
1086.754 .0241045
1087.337 .0240880
1087.920 .0240723
1088.503 .0240576
1089.087 .0240426
1089.670 .0240246
1090.254 .0240069
1090.838 .0239891
1091.422 .0239724
1092.006 .0239621
1092.590 .0239567
1093.175 .0239586
1093.760 .0239634
1094.345 .0239721
1094.930 .0239820
1095.516 .0239934
1096.102 .0240065
1096.688 .0240177
1097.274 .0240280
1097.860 .0240380
1098.447 .0240460
1099.034 .0240528
1099.622 .0240601
1100.209 .0240670
1100.797 .0240725
1101.385 .0240730
1101.973 .0240711
1102.562 .0240663
1103.151 .0240574
1103.740 .0240447
1104.330 .0240312
1104.920 .0240185
1105.510 .0240078
1106.101 .0240006
1106.691 .0239977
1107.283 .0239978
1107.874 .0240003
1108.466 .0240000
1109.058 .0239984
1109.651 .0239956
1110.244 .0239937
1110.837 .0239896
1111.431 .0239969
1112.025 .0240125
1112.620 .0240378
1113.215 .0240768
1113.810 .0241299
1114.406 .0241916
1115.002 .0242562
1115.599 .0243202
1116.196 .0243762
1116.793 .0244220
1117.391 .0244584
1117.989 .0244751
1118.588 .0244816
1119.187 .0244784
1119.787 .0244659
1120.387 .0244455
1120.988 .0244283
1121.589 .0244084
1122.190 .0243861
1122.793 .0243623
1123.395 .0243302
1123.998 .0242916
1124.602 .0242464
1125.206 .0241987
1125.811 .0241507
1126.416 .0241081
1127.022 .0240720
1127.628 .0240400
1128.235 .0240261
1128.843 .0240278
1129.451 .0240437
1130.059 .0240750
1130.669 .0241173
1131.278 .0241690
1131.889 .0242226
1132.500 .0242742
1133.112 .0243211
1133.724 .0243641
1134.337 .0244004
1134.950 .0244290
1135.564 .0244561
1136.179 .0244840
1136.795 .0245154
1137.411 .0245552
1138.028 .0246052
1138.645 .0246580
1139.263 .0247172
1139.882 .0247708
1140.502 .0248231
1141.122 .0248731
1141.743 .0249183
1142.365 .0249645
1142.987 .0248419
1143.611 .0250020
1144.235 .0250916
1144.859 .0251619
1145.485 .0253543
