Measurement Sequence started on: 10-20-44-796
Integration time: 35
Scans to Average: 2 
>>>>>Begin Spectral Data<<<<<
432.953 .0583459
433.882 .0452216
434.810 .0401341
435.737 .0398814
436.662 .0391771
437.586 .0401050
438.509 .0390226
439.431 .0385062
440.351 .0381811
441.269 .0378855
442.187 .0376297
443.103 .0373757
444.018 .0371852
444.932 .0370151
445.844 .0368352
446.756 .0366727
447.666 .0365236
448.575 .0363666
449.482 .0362397
450.388 .0361300
451.294 .0360438
452.198 .0359805
453.100 .0359382
454.002 .0358981
454.902 .0358673
455.801 .0358366
456.699 .0357979
457.596 .0357605
458.492 .0357283
459.387 .0356919
460.280 .0356632
461.172 .0356444
462.064 .0356401
462.954 .0356411
463.843 .0356646
464.730 .0356947
465.617 .0357415
466.503 .0357891
467.387 .0358280
468.271 .0358565
469.153 .0358737
470.035 .0358792
470.915 .0358756
471.794 .0358714
472.673 .0358745
473.550 .0358838
474.426 .0359080
475.301 .0359428
476.175 .0359849
477.048 .0360203
477.920 .0360463
478.791 .0360539
479.661 .0360420
480.530 .0360149
481.398 .0359771
482.266 .0359395
483.132 .0359070
483.997 .0358800
484.861 .0358587
485.724 .0358465
486.587 .0358381
487.448 .0358215
488.308 .0357981
489.168 .0357632
490.026 .0357153
490.884 .0356552
491.741 .0355891
492.597 .0355211
493.452 .0354561
494.306 .0353972
495.159 .0353374
496.011 .0352819
496.862 .0352270
497.713 .0351665
498.562 .0351003
499.411 .0350303
500.259 .0349535
501.106 .0348669
501.952 .0347756
502.798 .0346831
503.642 .0345913
504.486 .0345056
505.329 .0344237
506.171 .0343475
507.012 .0342711
507.852 .0341928
508.692 .0341061
509.531 .0340103
510.369 .0339061
511.206 .0337962
512.043 .0336818
512.878 .0335671
513.713 .0334478
514.547 .0333312
515.381 .0332174
516.213 .0331107
517.045 .0329981
517.876 .0328835
518.706 .0327590
519.536 .0326286
520.365 .0324879
521.193 .0323486
522.020 .0322092
522.847 .0320777
523.673 .0319545
524.498 .0318335
525.323 .0317063
526.146 .0315773
526.969 .0314474
527.792 .0313153
528.614 .0311717
529.435 .0310283
530.255 .0308792
531.075 .0307352
531.894 .0305914
532.712 .0304543
533.530 .0303220
534.347 .0302086
535.163 .0300999
535.979 .0299940
536.794 .0299038
537.608 .0298303
538.422 .0297751
539.235 .0297291
540.048 .0296901
540.860 .0296598
541.671 .0296256
542.481 .0295997
543.292 .0295659
544.101 .0295405
544.910 .0295162
545.718 .0294933
546.526 .0294681
547.333 .0294410
548.139 .0294214
548.945 .0294060
549.750 .0293919
550.555 .0293857
551.359 .0293805
552.162 .0293767
552.965 .0293775
553.768 .0293839
554.569 .0293896
555.371 .0294038
556.171 .0294219
556.972 .0294516
557.771 .0294902
558.570 .0295443
559.369 .0296073
560.167 .0296825
560.964 .0297697
561.761 .0298531
562.558 .0299312
563.354 .0300068
564.149 .0300666
564.944 .0301164
565.738 .0301563
566.532 .0301940
567.325 .0302343
568.118 .0302825
568.910 .0303372
569.702 .0303961
570.494 .0304629
571.285 .0305340
572.075 .0306016
572.865 .0306719
573.654 .0307403
574.443 .0308072
575.232 .0308739
576.020 .0309422
576.807 .0310109
577.594 .0310789
578.381 .0311446
579.167 .0312066
579.952 .0312644
580.738 .0313204
581.522 .0313738
582.307 .0314273
583.091 .0314846
583.874 .0315427
584.657 .0315992
585.440 .0316548
586.222 .0317035
587.004 .0317432
587.785 .0317738
588.566 .0317952
589.346 .0318086
590.126 .0318175
590.906 .0318259
591.685 .0318331
592.464 .0318430
593.242 .0318532
594.020 .0318625
594.797 .0318705
595.575 .0318759
596.351 .0318767
597.128 .0318744
597.904 .0318692
598.679 .0318622
599.454 .0318553
600.229 .0318505
601.004 .0318454
601.778 .0318413
602.551 .0318359
603.325 .0318280
604.097 .0318166
604.870 .0318029
605.642 .0317852
606.414 .0317657
607.185 .0317442
607.956 .0317215
608.727 .0316977
609.497 .0316731
610.267 .0316475
611.037 .0316210
611.806 .0315926
612.575 .0315621
613.344 .0315297
614.112 .0314958
614.880 .0314609
615.647 .0314265
616.414 .0313925
617.181 .0313600
617.948 .0313283
618.714 .0312976
619.480 .0312684
620.245 .0312397
621.011 .0312119
621.775 .0311844
622.540 .0311587
623.304 .0311339
624.068 .0311105
624.832 .0310897
625.595 .0310710
626.358 .0310543
627.120 .0310392
627.883 .0310240
628.645 .0310091
629.406 .0309930
630.168 .0309753
630.929 .0309568
631.689 .0309367
632.450 .0309145
633.210 .0308913
633.970 .0308663
634.729 .0308396
635.489 .0308099
636.248 .0307781
637.006 .0307435
637.765 .0307065
638.523 .0306678
639.280 .0306276
640.038 .0305884
640.795 .0305511
641.552 .0305156
642.309 .0304829
643.065 .0304530
643.821 .0304244
644.577 .0303978
645.332 .0303722
646.088 .0303474
646.843 .0303226
647.597 .0302994
648.352 .0302778
649.106 .0302589
649.860 .0302426
650.613 .0302292
651.367 .0302182
652.120 .0302092
652.872 .0301998
653.625 .0301899
654.377 .0301788
655.129 .0301666
655.881 .0301533
656.632 .0301402
657.384 .0301270
658.135 .0301154
658.885 .0301048
659.636 .0300965
660.386 .0300886
661.136 .0300812
661.885 .0300725
662.635 .0300623
663.384 .0300502
664.133 .0300358
664.881 .0300203
665.630 .0300049
666.378 .0299890
667.126 .0299739
667.874 .0299591
668.621 .0299448
669.368 .0299306
670.115 .0299165
670.862 .0299019
671.608 .0298868
672.354 .0298710
673.100 .0298550
673.846 .0298398
674.591 .0298265
675.337 .0298151
676.082 .0298046
676.826 .0297954
677.571 .0297861
678.315 .0297762
679.059 .0297653
679.803 .0297533
680.547 .0297406
681.290 .0297272
682.033 .0297133
682.776 .0296995
683.518 .0296855
684.261 .0296718
685.003 .0296573
685.745 .0296408
686.487 .0296221
687.228 .0295998
687.969 .0295744
688.710 .0295472
689.451 .0295193
690.192 .0294909
690.932 .0294630
691.672 .0294368
692.412 .0294120
693.152 .0293883
693.891 .0293654
694.630 .0293426
695.369 .0293201
696.108 .0292971
696.846 .0292732
697.585 .0292499
698.323 .0292282
699.061 .0292076
699.798 .0291885
700.536 .0291710
701.273 .0291550
702.010 .0291396
702.746 .0291242
703.483 .0291083
704.219 .0290920
704.955 .0290752
705.691 .0290574
706.427 .0290386
707.162 .0290198
707.897 .0290002
708.632 .0289806
709.367 .0289608
710.101 .0289399
710.835 .0289183
711.569 .0288957
712.303 .0288715
713.037 .0288465
713.770 .0288200
714.503 .0287929
715.236 .0287651
715.969 .0287376
716.702 .0287101
717.434 .0286833
718.166 .0286578
718.898 .0286332
719.629 .0286096
720.361 .0285869
721.092 .0285642
721.823 .0285424
722.554 .0285214
723.284 .0285010
724.014 .0284814
724.744 .0284632
725.474 .0284459
726.204 .0284292
726.933 .0284123
727.662 .0283953
728.391 .0283776
729.120 .0283589
729.849 .0283380
730.577 .0283155
731.305 .0282919
732.033 .0282675
732.760 .0282425
733.488 .0282183
734.215 .0281945
734.942 .0281713
735.669 .0281488
736.395 .0281269
737.122 .0281057
737.848 .0280851
738.573 .0280649
739.299 .0280455
740.024 .0280272
740.750 .0280105
741.474 .0279955
742.199 .0279829
742.924 .0279719
743.648 .0279622
744.372 .0279531
745.096 .0279446
745.819 .0279352
746.543 .0279247
747.266 .0279138
747.989 .0279020
748.711 .0278898
749.434 .0278775
750.156 .0278659
750.878 .0278555
751.599 .0278469
752.321 .0278400
753.042 .0278344
753.763 .0278306
754.484 .0278275
755.205 .0278250
755.925 .0278235
756.645 .0278224
757.365 .0278212
758.085 .0278203
758.804 .0278196
759.523 .0278180
760.242 .0278155
760.961 .0278118
761.679 .0278065
762.397 .0277991
763.115 .0277891
763.833 .0277771
764.551 .0277626
765.268 .0277465
765.985 .0277285
766.702 .0277092
767.418 .0276893
768.134 .0276687
768.850 .0276480
769.566 .0276277
770.282 .0276086
770.997 .0275909
771.712 .0275746
772.427 .0275597
773.142 .0275458
773.856 .0275325
774.570 .0275194
775.284 .0275064
775.998 .0274932
776.711 .0274802
777.424 .0274669
778.137 .0274538
778.849 .0274414
779.562 .0274292
780.274 .0274179
780.986 .0274068
781.697 .0273961
782.409 .0273856
783.120 .0273751
783.831 .0273656
784.541 .0273568
785.252 .0273495
785.962 .0273438
786.671 .0273396
787.381 .0273375
788.090 .0273369
788.799 .0273368
789.508 .0273368
790.217 .0273363
790.925 .0273346
791.633 .0273313
792.341 .0273266
793.048 .0273205
793.755 .0273131
794.462 .0273043
795.169 .0272943
795.875 .0272831
796.581 .0272709
797.287 .0272581
797.993 .0272446
798.698 .0272308
799.403 .0272160
800.108 .0272002
800.812 .0271848
801.517 .0271692
802.221 .0271542
802.924 .0271391
803.628 .0271246
804.331 .0271109
805.034 .0270979
805.736 .0270855
806.439 .0270736
807.141 .0270620
807.843 .0270511
808.544 .0270403
809.245 .0270298
809.946 .0270193
810.647 .0270090
811.347 .0269992
812.047 .0269898
812.747 .0269802
813.447 .0269707
814.146 .0269609
814.845 .0269516
815.543 .0269430
816.242 .0269343
816.940 .0269260
817.638 .0269174
818.335 .0269088
819.032 .0268997
819.729 .0268894
820.426 .0268786
821.122 .0268663
821.818 .0268526
822.514 .0268370
823.209 .0268194
823.905 .0268004
824.599 .0267804
825.294 .0267600
825.988 .0267385
826.682 .0267164
827.376 .0266933
828.069 .0266695
828.762 .0266447
829.455 .0266190
830.147 .0265927
830.840 .0265664
831.531 .0265406
832.223 .0265160
832.914 .0264928
833.605 .0264714
834.296 .0264518
834.986 .0264340
835.676 .0264173
836.366 .0264011
837.055 .0263846
837.744 .0263678
838.433 .0263500
839.121 .0263312
839.809 .0263113
840.497 .0262909
841.185 .0262707
841.872 .0262506
842.559 .0262317
843.245 .0262138
843.932 .0261969
844.617 .0261810
845.303 .0261659
845.988 .0261518
846.673 .0261382
847.358 .0261249
848.042 .0261119
848.726 .0260998
849.410 .0260889
850.093 .0260784
850.776 .0260690
851.459 .0260601
852.141 .0260511
852.823 .0260412
853.505 .0260305
854.186 .0260185
854.867 .0260051
855.548 .0259903
856.228 .0259744
856.908 .0259576
857.588 .0259406
858.267 .0259237
858.946 .0259072
859.625 .0258910
860.303 .0258744
860.981 .0258574
861.659 .0258399
862.336 .0258224
863.013 .0258051
863.690 .0257883
864.366 .0257726
865.042 .0257585
865.718 .0257456
866.393 .0257336
867.068 .0257223
867.743 .0257117
868.417 .0257005
869.091 .0256883
869.765 .0256751
870.438 .0256613
871.111 .0256474
871.783 .0256339
872.456 .0256204
873.127 .0256081
873.799 .0255961
874.470 .0255840
875.141 .0255720
875.811 .0255600
876.481 .0255471
877.151 .0255340
877.820 .0255211
878.489 .0255084
879.158 .0254959
879.826 .0254838
880.494 .0254720
881.162 .0254608
881.829 .0254499
882.496 .0254384
883.163 .0254274
883.829 .0254180
884.495 .0254096
885.160 .0254031
885.825 .0253994
886.490 .0253980
887.154 .0253987
887.818 .0254009
888.482 .0254036
889.145 .0254059
889.808 .0254075
890.471 .0254080
891.133 .0254076
891.795 .0254066
892.456 .0254051
893.117 .0254036
893.778 .0254026
894.439 .0254016
895.099 .0253996
895.758 .0253970
896.417 .0253930
897.076 .0253869
897.735 .0253789
898.393 .0253695
899.051 .0253595
899.708 .0253493
900.365 .0253397
901.022 .0253310
901.678 .0253229
902.334 .0253162
902.990 .0253099
903.645 .0253037
904.300 .0252978
904.954 .0252916
905.608 .0252847
906.262 .0252780
906.915 .0252720
907.568 .0252661
908.221 .0252613
908.873 .0252570
909.525 .0252525
910.176 .0252476
910.828 .0252425
911.478 .0252365
912.129 .0252297
912.778 .0252226
913.428 .0252154
914.077 .0252082
914.726 .0252021
915.375 .0251961
916.023 .0251916
916.670 .0251882
917.318 .0251854
917.964 .0251826
918.611 .0251806
919.257 .0251789
919.903 .0251778
920.548 .0251770
921.193 .0251768
921.838 .0251772
922.482 .0251781
923.126 .0251796
923.770 .0251817
924.413 .0251843
925.056 .0251873
925.698 .0251907
926.340 .0251950
926.982 .0251993
927.623 .0252032
928.264 .0252066
928.904 .0252082
929.544 .0252082
930.184 .0252059
930.823 .0252015
931.462 .0251956
932.101 .0251883
932.739 .0251797
933.377 .0251702
934.014 .0251597
934.651 .0251487
935.288 .0251371
935.924 .0251255
936.560 .0251133
937.196 .0251009
937.831 .0250888
938.466 .0250776
939.100 .0250671
939.734 .0250579
940.368 .0250490
941.001 .0250415
941.634 .0250348
942.266 .0250288
942.899 .0250234
943.530 .0250181
944.162 .0250131
944.793 .0250077
945.423 .0250010
946.053 .0249931
946.683 .0249840
947.313 .0249741
947.942 .0249626
948.571 .0249503
949.199 .0249372
949.827 .0249240
950.455 .0249103
951.082 .0248961
951.709 .0248809
952.335 .0248652
952.961 .0248489
953.587 .0248322
954.212 .0248154
954.837 .0247991
955.462 .0247838
956.086 .0247703
956.710 .0247586
957.334 .0247483
957.957 .0247383
958.579 .0247285
959.202 .0247177
959.824 .0247053
960.445 .0246918
961.067 .0246780
961.688 .0246648
962.308 .0246530
962.928 .0246431
963.548 .0246349
964.168 .0246281
964.787 .0246222
965.406 .0246160
966.024 .0246094
966.642 .0246015
967.260 .0245921
967.877 .0245820
968.494 .0245714
969.110 .0245609
969.727 .0245503
970.342 .0245404
970.958 .0245309
971.573 .0245213
972.188 .0245120
972.802 .0245023
973.416 .0244927
974.030 .0244830
974.643 .0244731
975.256 .0244631
975.869 .0244534
976.481 .0244443
977.093 .0244359
977.705 .0244284
978.316 .0244221
978.927 .0244167
979.538 .0244120
980.148 .0244077
980.758 .0244033
981.367 .0243980
981.977 .0243924
982.586 .0243863
983.194 .0243806
983.802 .0243751
984.410 .0243690
985.018 .0243637
985.625 .0243587
986.232 .0243534
986.838 .0243469
987.445 .0243390
988.050 .0243294
988.656 .0243177
989.261 .0243043
989.866 .0242892
990.471 .0242739
991.075 .0242594
991.679 .0242448
992.282 .0242303
992.886 .0242161
993.489 .0242011
994.091 .0241856
994.694 .0241698
995.296 .0241532
995.897 .0241364
996.499 .0241210
997.100 .0241068
997.701 .0240951
998.301 .0240853
998.901 .0240780
999.501 .0240728
1000.101 .0240696
1000.700 .0240670
1001.299 .0240645
1001.898 .0240624
1002.496 .0240605
1003.094 .0240575
1003.692 .0240545
1004.289 .0240501
1004.887 .0240463
1005.484 .0240423
1006.080 .0240377
1006.677 .0240317
1007.273 .0240252
1007.868 .0240167
1008.464 .0240074
1009.059 .0239955
1009.654 .0239819
1010.249 .0239666
1010.843 .0239516
1011.437 .0239362
1012.031 .0239206
1012.625 .0239062
1013.218 .0238929
1013.811 .0238806
1014.404 .0238703
1014.997 .0238598
1015.589 .0238501
1016.181 .0238411
1016.773 .0238326
1017.365 .0238248
1017.956 .0238188
1018.547 .0238141
1019.138 .0238112
1019.728 .0238101
1020.319 .0238097
1020.909 .0238090
1021.499 .0238077
1022.088 .0238061
1022.678 .0238027
1023.267 .0237978
1023.856 .0237918
1024.445 .0237850
1025.033 .0237786
1025.621 .0237721
1026.209 .0237657
1026.797 .0237581
1027.385 .0237484
1027.972 .0237367
1028.560 .0237224
1029.147 .0237065
1029.734 .0236889
1030.320 .0236715
1030.907 .0236547
1031.493 .0236396
1032.079 .0236270
1032.665 .0236169
1033.250 .0236097
1033.836 .0236048
1034.421 .0236006
1035.006 .0235968
1035.591 .0235925
1036.176 .0235881
1036.761 .0235838
1037.345 .0235806
1037.929 .0235777
1038.514 .0235752
1039.097 .0235737
1039.681 .0235736
1040.265 .0235737
1040.848 .0235747
1041.432 .0235753
1042.015 .0235757
1042.598 .0235754
1043.181 .0235751
1043.764 .0235733
1044.346 .0235705
1044.929 .0235664
1045.511 .0235609
1046.094 .0235528
1046.676 .0235433
1047.258 .0235317
1047.840 .0235203
1048.422 .0235090
1049.003 .0234979
1049.585 .0234862
1050.166 .0234756
1050.748 .0234629
1051.329 .0234485
1051.910 .0234311
1052.491 .0234119
1053.072 .0233896
1053.653 .0233669
1054.234 .0233457
1054.815 .0233274
1055.396 .0233144
1055.976 .0233069
1056.557 .0233047
1057.138 .0233076
1057.718 .0233111
1058.298 .0233138
1058.879 .0233138
1059.459 .0233119
1060.039 .0233067
1060.620 .0232999
1061.200 .0232937
1061.780 .0232896
1062.360 .0232881
1062.940 .0232892
1063.520 .0232905
1064.101 .0232911
1064.681 .0232892
1065.261 .0232825
1065.841 .0232732
1066.421 .0232611
1067.001 .0232475
1067.581 .0232361
1068.161 .0232282
1068.741 .0232256
1069.321 .0232264
1069.901 .0232314
1070.482 .0232382
1071.062 .0232455
1071.642 .0232522
1072.222 .0232553
1072.803 .0232568
1073.383 .0232579
1073.963 .0232574
1074.544 .0232549
1075.124 .0232531
1075.705 .0232509
1076.286 .0232485
1076.866 .0232452
1077.447 .0232393
1078.028 .0232312
1078.609 .0232212
1079.190 .0232089
1079.771 .0231940
1080.352 .0231785
1080.934 .0231639
1081.515 .0231497
1082.097 .0231400
1082.679 .0231330
1083.260 .0231287
1083.842 .0231273
1084.424 .0231289
1085.007 .0231309
1085.589 .0231327
1086.172 .0231334
1086.754 .0231321
1087.337 .0231280
1087.920 .0231227
1088.503 .0231149
1089.087 .0231062
1089.670 .0230967
1090.254 .0230860
1090.838 .0230746
1091.422 .0230645
1092.006 .0230549
1092.590 .0230484
1093.175 .0230462
1093.760 .0230464
1094.345 .0230480
1094.930 .0230501
1095.516 .0230495
1096.102 .0230465
1096.688 .0230414
1097.274 .0230357
1097.860 .0230293
1098.447 .0230261
1099.034 .0230263
1099.622 .0230301
1100.209 .0230385
1100.797 .0230467
1101.385 .0230528
1101.973 .0230554
1102.562 .0230498
1103.151 .0230390
1103.740 .0230240
1104.330 .0230098
1104.920 .0229990
1105.510 .0229946
1106.101 .0229975
1106.691 .0230069
1107.283 .0230237
1107.874 .0230436
1108.466 .0230646
1109.058 .0230856
1109.651 .0231044
1110.244 .0231209
1110.837 .0231342
1111.431 .0231434
1112.025 .0231507
1112.620 .0231571
1113.215 .0231592
1113.810 .0231603
1114.406 .0231622
1115.002 .0231652
1115.599 .0231707
1116.196 .0231763
1116.793 .0231845
1117.391 .0231940
1117.989 .0232044
1118.588 .0232140
1119.187 .0232244
1119.787 .0232385
1120.387 .0232566
1120.988 .0232818
1121.589 .0233151
1122.190 .0233527
1122.793 .0233976
1123.395 .0234451
1123.998 .0234929
1124.602 .0235396
1125.206 .0235835
1125.811 .0236227
1126.416 .0236594
1127.022 .0236889
1127.628 .0237125
1128.235 .0237328
1128.843 .0237506
1129.451 .0237669
1130.059 .0237830
1130.669 .0238000
1131.278 .0238203
1131.889 .0238466
1132.500 .0238795
1133.112 .0239175
1133.724 .0239601
1134.337 .0240086
1134.950 .0240611
1135.564 .0241200
1136.179 .0241823
1136.795 .0242535
1137.411 .0243372
1138.028 .0244290
1138.645 .0245304
1139.263 .0246413
1139.882 .0247605
1140.502 .0248869
1141.122 .0250227
1141.743 .0251479
1142.365 .0252765
1142.987 .0254175
1143.611 .0255248
1144.235 .0258711
1144.859 .0255378
1145.485 .0258905
