Measurement Sequence started on: 10-20-44-796
Integration time: 35
Scans to Average: 2 
>>>>>Begin Spectral Data<<<<<
432.953 .0506864
433.882 .0435566
434.810 .0448791
435.737 .0425683
436.662 .0418248
437.586 .0422943
438.509 .0416906
439.431 .0413726
440.351 .0410716
441.269 .0408705
442.187 .0407126
443.103 .0405684
444.018 .0404319
444.932 .0403049
445.844 .0401840
446.756 .0400545
447.666 .0399101
448.575 .0397570
449.482 .0396016
450.388 .0394538
451.294 .0393148
452.198 .0391835
453.100 .0390748
454.002 .0389892
454.902 .0389162
455.801 .0388611
456.699 .0388254
457.596 .0387984
458.492 .0387781
459.387 .0387707
460.280 .0387605
461.172 .0387516
462.064 .0387487
462.954 .0387451
463.843 .0387402
464.730 .0387368
465.617 .0387236
466.503 .0387004
467.387 .0386688
468.271 .0386209
469.153 .0385583
470.035 .0384853
470.915 .0384015
471.794 .0383074
472.673 .0382144
473.550 .0381244
474.426 .0380387
475.301 .0379612
476.175 .0378911
477.048 .0378223
477.920 .0377547
478.791 .0376910
479.661 .0376286
480.530 .0375736
481.398 .0375267
482.266 .0374917
483.132 .0374719
483.997 .0374649
484.861 .0374693
485.724 .0374819
486.587 .0374999
487.448 .0375140
488.308 .0375189
489.168 .0375130
490.026 .0374966
490.884 .0374680
491.741 .0374309
492.597 .0373887
493.452 .0373425
494.306 .0372975
495.159 .0372519
496.011 .0372062
496.862 .0371582
497.713 .0371038
498.562 .0370408
499.411 .0369657
500.259 .0368822
501.106 .0367883
501.952 .0366889
502.798 .0365875
503.642 .0364858
504.486 .0363828
505.329 .0362859
506.171 .0361927
507.012 .0361037
507.852 .0360142
508.692 .0359205
509.531 .0358177
510.369 .0357091
511.206 .0355929
512.043 .0354685
512.878 .0353364
513.713 .0352035
514.547 .0350634
515.381 .0349225
516.213 .0347786
517.045 .0346362
517.876 .0344949
518.706 .0343593
519.536 .0342166
520.365 .0340692
521.193 .0339180
522.020 .0337637
522.847 .0336028
523.673 .0334379
524.498 .0332637
525.323 .0330823
526.146 .0328968
526.969 .0327124
527.792 .0325225
528.614 .0323333
529.435 .0321424
530.255 .0319525
531.075 .0317591
531.894 .0315713
532.712 .0313887
533.530 .0312226
534.347 .0310732
535.163 .0309361
535.979 .0308166
536.794 .0307194
537.608 .0306444
538.422 .0305885
539.235 .0305483
540.048 .0305245
540.860 .0305111
541.671 .0305146
542.481 .0305297
543.292 .0305578
544.101 .0306013
544.910 .0306577
545.718 .0307250
546.526 .0307975
547.333 .0308779
548.139 .0309600
548.945 .0310437
549.750 .0311213
550.555 .0311895
551.359 .0312522
552.162 .0313061
552.965 .0313564
553.768 .0314034
554.569 .0314501
555.371 .0314996
556.171 .0315453
556.972 .0315942
557.771 .0316389
558.570 .0316808
559.369 .0317155
560.167 .0317438
560.964 .0317698
561.761 .0317906
562.558 .0318120
563.354 .0318369
564.149 .0318642
564.944 .0318943
565.738 .0319252
566.532 .0319564
567.325 .0319837
568.118 .0320074
568.910 .0320276
569.702 .0320464
570.494 .0320683
571.285 .0320907
572.075 .0321188
572.865 .0321481
573.654 .0321823
574.443 .0322171
575.232 .0322555
576.020 .0322980
576.807 .0323447
577.594 .0323940
578.381 .0324484
579.167 .0325053
579.952 .0325666
580.738 .0326289
581.522 .0326954
582.307 .0327581
583.091 .0328208
583.874 .0328786
584.657 .0329314
585.440 .0329783
586.222 .0330214
587.004 .0330580
587.785 .0330892
588.566 .0331149
589.346 .0331340
590.126 .0331473
590.906 .0331580
591.685 .0331645
592.464 .0331690
593.242 .0331708
594.020 .0331714
594.797 .0331688
595.575 .0331653
596.351 .0331598
597.128 .0331527
597.904 .0331450
598.679 .0331365
599.454 .0331269
600.229 .0331176
601.004 .0331082
601.778 .0330987
602.551 .0330884
603.325 .0330770
604.097 .0330631
604.870 .0330464
605.642 .0330267
606.414 .0330049
607.185 .0329808
607.956 .0329560
608.727 .0329310
609.497 .0329073
610.267 .0328847
611.037 .0328630
611.806 .0328424
612.575 .0328225
613.344 .0328031
614.112 .0327837
614.880 .0327641
615.647 .0327445
616.414 .0327256
617.181 .0327077
617.948 .0326904
618.714 .0326744
619.480 .0326593
620.245 .0326440
621.011 .0326277
621.775 .0326096
622.540 .0325888
623.304 .0325657
624.068 .0325399
624.832 .0325113
625.595 .0324810
626.358 .0324493
627.120 .0324166
627.883 .0323829
628.645 .0323490
629.406 .0323145
630.168 .0322791
630.929 .0322439
631.689 .0322086
632.450 .0321735
633.210 .0321395
633.970 .0321069
634.729 .0320760
635.489 .0320460
636.248 .0320171
637.006 .0319893
637.765 .0319618
638.523 .0319346
639.280 .0319071
640.038 .0318802
640.795 .0318544
641.552 .0318292
642.309 .0318048
643.065 .0317811
643.821 .0317577
644.577 .0317334
645.332 .0317075
646.088 .0316805
646.843 .0316516
647.597 .0316218
648.352 .0315917
649.106 .0315624
649.860 .0315343
650.613 .0315086
651.367 .0314846
652.120 .0314630
652.872 .0314426
653.625 .0314226
654.377 .0314027
655.129 .0313833
655.881 .0313639
656.632 .0313448
657.384 .0313263
658.135 .0313088
658.885 .0312919
659.636 .0312763
660.386 .0312602
661.136 .0312444
661.885 .0312278
662.635 .0312108
663.384 .0311927
664.133 .0311742
664.881 .0311553
665.630 .0311367
666.378 .0311188
667.126 .0311021
667.874 .0310857
668.621 .0310706
669.368 .0310562
670.115 .0310429
670.862 .0310304
671.608 .0310195
672.354 .0310101
673.100 .0310026
673.846 .0309964
674.591 .0309915
675.337 .0309872
676.082 .0309833
676.826 .0309786
677.571 .0309733
678.315 .0309667
679.059 .0309591
679.803 .0309497
680.547 .0309396
681.290 .0309284
682.033 .0309165
682.776 .0309038
683.518 .0308906
684.261 .0308765
685.003 .0308616
685.745 .0308453
686.487 .0308290
687.228 .0308115
687.969 .0307935
688.710 .0307745
689.451 .0307558
690.192 .0307368
690.932 .0307175
691.672 .0306983
692.412 .0306794
693.152 .0306604
693.891 .0306410
694.630 .0306205
695.369 .0305996
696.108 .0305774
696.846 .0305544
697.585 .0305302
698.323 .0305059
699.061 .0304814
699.798 .0304573
700.536 .0304333
701.273 .0304096
702.010 .0303859
702.746 .0303619
703.483 .0303375
704.219 .0303123
704.955 .0302861
705.691 .0302591
706.427 .0302315
707.162 .0302042
707.897 .0301767
708.632 .0301496
709.367 .0301224
710.101 .0300949
710.835 .0300671
711.569 .0300384
712.303 .0300087
713.037 .0299784
713.770 .0299481
714.503 .0299174
715.236 .0298868
715.969 .0298571
716.702 .0298281
717.434 .0298005
718.166 .0297736
718.898 .0297474
719.629 .0297216
720.361 .0296964
721.092 .0296709
721.823 .0296452
722.554 .0296196
723.284 .0295936
724.014 .0295667
724.744 .0295399
725.474 .0295127
726.204 .0294856
726.933 .0294589
727.662 .0294328
728.391 .0294070
729.120 .0293815
729.849 .0293558
730.577 .0293301
731.305 .0293035
732.033 .0292767
732.760 .0292493
733.488 .0292225
734.215 .0291966
734.942 .0291717
735.669 .0291477
736.395 .0291249
737.122 .0291029
737.848 .0290809
738.573 .0290591
739.299 .0290375
740.024 .0290158
740.750 .0289947
741.474 .0289747
742.199 .0289562
742.924 .0289393
743.648 .0289251
744.372 .0289122
745.096 .0289007
745.819 .0288901
746.543 .0288798
747.266 .0288701
747.989 .0288613
748.711 .0288539
749.434 .0288478
750.156 .0288433
750.878 .0288408
751.599 .0288397
752.321 .0288402
753.042 .0288419
753.763 .0288442
754.484 .0288465
755.205 .0288488
755.925 .0288510
756.645 .0288527
757.365 .0288540
758.085 .0288548
758.804 .0288547
759.523 .0288533
760.242 .0288506
760.961 .0288462
761.679 .0288408
762.397 .0288340
763.115 .0288258
763.833 .0288159
764.551 .0288047
765.268 .0287917
765.985 .0287772
766.702 .0287616
767.418 .0287451
768.134 .0287282
768.850 .0287119
769.566 .0286964
770.282 .0286822
770.997 .0286691
771.712 .0286574
772.427 .0286468
773.142 .0286372
773.856 .0286276
774.570 .0286182
775.284 .0286087
775.998 .0285990
776.711 .0285889
777.424 .0285787
778.137 .0285686
778.849 .0285586
779.562 .0285483
780.274 .0285378
780.986 .0285268
781.697 .0285156
782.409 .0285043
783.120 .0284934
783.831 .0284829
784.541 .0284731
785.252 .0284640
785.962 .0284556
786.671 .0284476
787.381 .0284400
788.090 .0284325
788.799 .0284247
789.508 .0284161
790.217 .0284064
790.925 .0283962
791.633 .0283852
792.341 .0283734
793.048 .0283607
793.755 .0283469
794.462 .0283321
795.169 .0283162
795.875 .0282995
796.581 .0282821
797.287 .0282641
797.993 .0282456
798.698 .0282271
799.403 .0282085
800.108 .0281899
800.812 .0281717
801.517 .0281539
802.221 .0281365
802.924 .0281191
803.628 .0281021
804.331 .0280857
805.034 .0280699
805.736 .0280543
806.439 .0280389
807.141 .0280240
807.843 .0280088
808.544 .0279930
809.245 .0279763
809.946 .0279587
810.647 .0279401
811.347 .0279204
812.047 .0279001
812.747 .0278795
813.447 .0278591
814.146 .0278388
814.845 .0278189
815.543 .0277989
816.242 .0277790
816.940 .0277592
817.638 .0277392
818.335 .0277186
819.032 .0276978
819.729 .0276770
820.426 .0276564
821.122 .0276362
821.818 .0276161
822.514 .0275960
823.209 .0275764
823.905 .0275566
824.599 .0275362
825.294 .0275154
825.988 .0274942
826.682 .0274723
827.376 .0274500
828.069 .0274271
828.762 .0274034
829.455 .0273792
830.147 .0273546
830.840 .0273287
831.531 .0273021
832.223 .0272756
832.914 .0272489
833.605 .0272227
834.296 .0271975
834.986 .0271729
835.676 .0271494
836.366 .0271271
837.055 .0271050
837.744 .0270836
838.433 .0270624
839.121 .0270416
839.809 .0270210
840.497 .0270018
841.185 .0269835
841.872 .0269666
842.559 .0269513
843.245 .0269374
843.932 .0269237
844.617 .0269107
845.303 .0268977
845.988 .0268849
846.673 .0268718
847.358 .0268590
848.042 .0268463
848.726 .0268342
849.410 .0268219
850.093 .0268099
850.776 .0267976
851.459 .0267851
852.141 .0267717
852.823 .0267575
853.505 .0267431
854.186 .0267285
854.867 .0267139
855.548 .0266998
856.228 .0266865
856.908 .0266740
857.588 .0266624
858.267 .0266518
858.946 .0266421
859.625 .0266330
860.303 .0266248
860.981 .0266174
861.659 .0266106
862.336 .0266041
863.013 .0265979
863.690 .0265915
864.366 .0265850
865.042 .0265781
865.718 .0265711
866.393 .0265636
867.068 .0265562
867.743 .0265486
868.417 .0265409
869.091 .0265325
869.765 .0265233
870.438 .0265131
871.111 .0265022
871.783 .0264909
872.456 .0264793
873.127 .0264681
873.799 .0264581
874.470 .0264491
875.141 .0264418
875.811 .0264362
876.481 .0264315
877.151 .0264276
877.820 .0264244
878.489 .0264216
879.158 .0264188
879.826 .0264166
880.494 .0264148
881.162 .0264135
881.829 .0264128
882.496 .0264118
883.163 .0264110
883.829 .0264107
884.495 .0264102
885.160 .0264097
885.825 .0264092
886.490 .0264089
887.154 .0264090
887.818 .0264099
888.482 .0264113
889.145 .0264131
889.808 .0264157
890.471 .0264186
891.133 .0264214
891.795 .0264244
892.456 .0264277
893.117 .0264311
893.778 .0264351
894.439 .0264390
895.099 .0264430
895.758 .0264467
896.417 .0264504
897.076 .0264534
897.735 .0264561
898.393 .0264581
899.051 .0264591
899.708 .0264592
900.365 .0264590
901.022 .0264579
901.678 .0264564
902.334 .0264544
902.990 .0264521
903.645 .0264492
904.300 .0264461
904.954 .0264427
905.608 .0264389
906.262 .0264351
906.915 .0264313
907.568 .0264272
908.221 .0264234
908.873 .0264195
909.525 .0264158
910.176 .0264122
910.828 .0264084
911.478 .0264039
912.129 .0263987
912.778 .0263926
913.428 .0263857
914.077 .0263778
914.726 .0263693
915.375 .0263602
916.023 .0263515
916.670 .0263429
917.318 .0263348
917.964 .0263271
918.611 .0263197
919.257 .0263126
919.903 .0263055
920.548 .0262976
921.193 .0262897
921.838 .0262815
922.482 .0262735
923.126 .0262655
923.770 .0262579
924.413 .0262506
925.056 .0262438
925.698 .0262373
926.340 .0262309
926.982 .0262241
927.623 .0262170
928.264 .0262092
928.904 .0262009
929.544 .0261917
930.184 .0261819
930.823 .0261714
931.462 .0261604
932.101 .0261486
932.739 .0261362
933.377 .0261226
934.014 .0261080
934.651 .0260923
935.288 .0260757
935.924 .0260584
936.560 .0260409
937.196 .0260234
937.831 .0260058
938.466 .0259883
939.100 .0259712
939.734 .0259536
940.368 .0259362
941.001 .0259185
941.634 .0259002
942.266 .0258818
942.899 .0258626
943.530 .0258431
944.162 .0258232
944.793 .0258034
945.423 .0257833
946.053 .0257624
946.683 .0257410
947.313 .0257191
947.942 .0256960
948.571 .0256720
949.199 .0256465
949.827 .0256193
950.455 .0255912
951.082 .0255622
951.709 .0255330
952.335 .0255047
952.961 .0254776
953.587 .0254523
954.212 .0254278
954.837 .0254054
955.462 .0253836
956.086 .0253629
956.710 .0253435
957.334 .0253252
957.957 .0253075
958.579 .0252905
959.202 .0252744
959.824 .0252588
960.445 .0252432
961.067 .0252274
961.688 .0252111
962.308 .0251940
962.928 .0251763
963.548 .0251574
964.168 .0251370
964.787 .0251162
965.406 .0250940
966.024 .0250712
966.642 .0250475
967.260 .0250230
967.877 .0249982
968.494 .0249727
969.110 .0249471
969.727 .0249208
970.342 .0248946
970.958 .0248687
971.573 .0248430
972.188 .0248180
972.802 .0247934
973.416 .0247701
974.030 .0247478
974.643 .0247269
975.256 .0247078
975.869 .0246904
976.481 .0246743
977.093 .0246597
977.705 .0246467
978.316 .0246341
978.927 .0246221
979.538 .0246105
980.148 .0245989
980.758 .0245874
981.367 .0245763
981.977 .0245660
982.586 .0245568
983.194 .0245488
983.802 .0245409
984.410 .0245323
985.018 .0245231
985.625 .0245120
986.232 .0244987
986.838 .0244836
987.445 .0244669
988.050 .0244491
988.656 .0244313
989.261 .0244143
989.866 .0243978
990.471 .0243825
991.075 .0243684
991.679 .0243548
992.282 .0243412
992.886 .0243271
993.489 .0243125
994.091 .0242975
994.694 .0242829
995.296 .0242688
995.897 .0242558
996.499 .0242450
997.100 .0242361
997.701 .0242291
998.301 .0242239
998.901 .0242200
999.501 .0242165
1000.101 .0242133
1000.700 .0242102
1001.299 .0242064
1001.898 .0242021
1002.496 .0241979
1003.094 .0241926
1003.692 .0241874
1004.289 .0241816
1004.887 .0241754
1005.484 .0241690
1006.080 .0241628
1006.677 .0241560
1007.273 .0241498
1007.868 .0241436
1008.464 .0241378
1009.059 .0241316
1009.654 .0241259
1010.249 .0241199
1010.843 .0241141
1011.437 .0241082
1012.031 .0241028
1012.625 .0240978
1013.218 .0240945
1013.811 .0240919
1014.404 .0240916
1014.997 .0240933
1015.589 .0240970
1016.181 .0241013
1016.773 .0241066
1017.365 .0241122
1017.956 .0241178
1018.547 .0241220
1019.138 .0241257
1019.728 .0241288
1020.319 .0241323
1020.909 .0241359
1021.499 .0241397
1022.088 .0241440
1022.678 .0241483
1023.267 .0241520
1023.856 .0241548
1024.445 .0241565
1025.033 .0241572
1025.621 .0241563
1026.209 .0241548
1026.797 .0241522
1027.385 .0241484
1027.972 .0241437
1028.560 .0241391
1029.147 .0241342
1029.734 .0241288
1030.320 .0241239
1030.907 .0241194
1031.493 .0241169
1032.079 .0241151
1032.665 .0241149
1033.250 .0241164
1033.836 .0241200
1034.421 .0241247
1035.006 .0241306
1035.591 .0241384
1036.176 .0241472
1036.761 .0241564
1037.345 .0241659
1037.929 .0241751
1038.514 .0241841
1039.097 .0241938
1039.681 .0242041
1040.265 .0242146
1040.848 .0242260
1041.432 .0242372
1042.015 .0242476
1042.598 .0242562
1043.181 .0242628
1043.764 .0242665
1044.346 .0242680
1044.929 .0242678
1045.511 .0242658
1046.094 .0242647
1046.676 .0242657
1047.258 .0242678
1047.840 .0242721
1048.422 .0242775
1049.003 .0242827
1049.585 .0242863
1050.166 .0242879
1050.748 .0242871
1051.329 .0242844
1051.910 .0242814
1052.491 .0242785
1053.072 .0242765
1053.653 .0242766
1054.234 .0242778
1054.815 .0242799
1055.396 .0242827
1055.976 .0242839
1056.557 .0242830
1057.138 .0242809
1057.718 .0242773
1058.298 .0242726
1058.879 .0242685
1059.459 .0242664
1060.039 .0242667
1060.620 .0242688
1061.200 .0242728
1061.780 .0242774
1062.360 .0242823
1062.940 .0242869
1063.520 .0242904
1064.101 .0242933
1064.681 .0242963
1065.261 .0242985
1065.841 .0243006
1066.421 .0243027
1067.001 .0243049
1067.581 .0243061
1068.161 .0243075
1068.741 .0243090
1069.321 .0243099
1069.901 .0243102
1070.482 .0243112
1071.062 .0243116
1071.642 .0243132
1072.222 .0243150
1072.803 .0243167
1073.383 .0243183
1073.963 .0243207
1074.544 .0243231
1075.124 .0243256
1075.705 .0243282
1076.286 .0243322
1076.866 .0243367
1077.447 .0243420
1078.028 .0243467
1078.609 .0243519
1079.190 .0243579
1079.771 .0243643
1080.352 .0243703
1080.934 .0243765
1081.515 .0243822
1082.097 .0243890
1082.679 .0243960
1083.260 .0244034
1083.842 .0244124
1084.424 .0244211
1085.007 .0244296
1085.589 .0244365
1086.172 .0244410
1086.754 .0244429
1087.337 .0244435
1087.920 .0244449
1088.503 .0244450
1089.087 .0244450
1089.670 .0244472
1090.254 .0244513
1090.838 .0244591
1091.422 .0244700
1092.006 .0244834
1092.590 .0244996
1093.175 .0245169
1093.760 .0245327
1094.345 .0245477
1094.930 .0245625
1095.516 .0245775
1096.102 .0245928
1096.688 .0246102
1097.274 .0246305
1097.860 .0246514
1098.447 .0246726
1099.034 .0246924
1099.622 .0247073
1100.209 .0247157
1100.797 .0247165
1101.385 .0247096
1101.973 .0246981
1102.562 .0246828
1103.151 .0246668
1103.740 .0246505
1104.330 .0246363
1104.920 .0246241
1105.510 .0246122
1106.101 .0246014
1106.691 .0245904
1107.283 .0245794
1107.874 .0245682
1108.466 .0245573
1109.058 .0245471
1109.651 .0245375
1110.244 .0245297
1110.837 .0245223
1111.431 .0245167
1112.025 .0245124
1112.620 .0245097
1113.215 .0245083
1113.810 .0245095
1114.406 .0245143
1115.002 .0245189
1115.599 .0245245
1116.196 .0245295
1116.793 .0245314
1117.391 .0245290
1117.989 .0245228
1118.588 .0245161
1119.187 .0245121
1119.787 .0245127
1120.387 .0245198
1120.988 .0245360
1121.589 .0245600
1122.190 .0245898
1122.793 .0246213
1123.395 .0246546
1123.998 .0246851
1124.602 .0247106
1125.206 .0247353
1125.811 .0247594
1126.416 .0247840
1127.022 .0248098
1127.628 .0248384
1128.235 .0248710
1128.843 .0249029
1129.451 .0249351
1130.059 .0249658
1130.669 .0249965
1131.278 .0250248
1131.889 .0250491
1132.500 .0250687
1133.112 .0250895
1133.724 .0251078
1134.337 .0251251
1134.950 .0251415
1135.564 .0251579
1136.179 .0251748
1136.795 .0251978
1137.411 .0252303
1138.028 .0252710
1138.645 .0253228
1139.263 .0253864
1139.882 .0254507
1140.502 .0255300
1141.122 .0256128
1141.743 .0257079
1142.365 .0258331
1142.987 .0256876
1143.611 .0260869
1144.235 .0261157
1144.859 .0264084
1145.485 .0270627
