Measurement Sequence started on: 10-20-44-796
Integration time: 35
Scans to Average: 2 
>>>>>Begin Spectral Data<<<<<
432.953 .0294144
433.882 .0318451
434.810 .0359002
435.737 .0368953
436.662 .0381173
437.586 .0366980
438.509 .0371108
439.431 .0372752
440.351 .0372607
441.269 .0372137
442.187 .0371455
443.103 .0371088
444.018 .0370779
444.932 .0370662
445.844 .0370642
446.756 .0370293
447.666 .0369894
448.575 .0369534
449.482 .0369325
450.388 .0369225
451.294 .0369340
452.198 .0369739
453.100 .0370397
454.002 .0371345
454.902 .0372376
455.801 .0373452
456.699 .0374459
457.596 .0375364
458.492 .0376055
459.387 .0376476
460.280 .0376659
461.172 .0376728
462.064 .0376716
462.954 .0376568
463.843 .0376274
464.730 .0375962
465.617 .0375590
466.503 .0375125
467.387 .0374533
468.271 .0373799
469.153 .0372941
470.035 .0371956
470.915 .0370863
471.794 .0369743
472.673 .0368627
473.550 .0367636
474.426 .0366769
475.301 .0366029
476.175 .0365427
477.048 .0364946
477.920 .0364594
478.791 .0364314
479.661 .0364061
480.530 .0363852
481.398 .0363703
482.266 .0363638
483.132 .0363619
483.997 .0363604
484.861 .0363614
485.724 .0363590
486.587 .0363554
487.448 .0363440
488.308 .0363246
489.168 .0362992
490.026 .0362721
490.884 .0362398
491.741 .0362051
492.597 .0361685
493.452 .0361358
494.306 .0361052
495.159 .0360767
496.011 .0360450
496.862 .0360095
497.713 .0359683
498.562 .0359194
499.411 .0358634
500.259 .0358065
501.106 .0357416
501.952 .0356755
502.798 .0356077
503.642 .0355375
504.486 .0354617
505.329 .0353809
506.171 .0352911
507.012 .0351929
507.852 .0350787
508.692 .0349481
509.531 .0348021
510.369 .0346491
511.206 .0344882
512.043 .0343255
512.878 .0341707
513.713 .0340217
514.547 .0338801
515.381 .0337509
516.213 .0336267
517.045 .0335049
517.876 .0333807
518.706 .0332500
519.536 .0331163
520.365 .0329843
521.193 .0328559
522.020 .0327415
522.847 .0326500
523.673 .0325708
524.498 .0324991
525.323 .0324318
526.146 .0323643
526.969 .0322777
527.792 .0321748
528.614 .0320411
529.435 .0318867
530.255 .0317207
531.075 .0315374
531.894 .0313558
532.712 .0311857
533.530 .0310231
534.347 .0308640
535.163 .0307058
535.979 .0305561
536.794 .0304024
537.608 .0302636
538.422 .0301334
539.235 .0300231
540.048 .0299489
540.860 .0299052
541.671 .0298904
542.481 .0299091
543.292 .0299417
544.101 .0299737
544.910 .0300088
545.718 .0300400
546.526 .0300617
547.333 .0300826
548.139 .0301082
548.945 .0301378
549.750 .0301731
550.555 .0302202
551.359 .0302626
552.162 .0303096
552.965 .0303537
553.768 .0303795
554.569 .0303978
555.371 .0304082
556.171 .0304073
556.972 .0303968
557.771 .0303871
558.570 .0303772
559.369 .0303710
560.167 .0303754
560.964 .0303907
561.761 .0304200
562.558 .0304660
563.354 .0305240
564.149 .0305876
564.944 .0306607
565.738 .0307366
566.532 .0308105
567.325 .0308831
568.118 .0309543
568.910 .0310282
569.702 .0311088
570.494 .0311990
571.285 .0313006
572.075 .0314159
572.865 .0315385
573.654 .0316604
574.443 .0317769
575.232 .0318834
576.020 .0319773
576.807 .0320575
577.594 .0321277
578.381 .0321896
579.167 .0322481
579.952 .0323033
580.738 .0323590
581.522 .0324151
582.307 .0324684
583.091 .0325150
583.874 .0325567
584.657 .0325915
585.440 .0326169
586.222 .0326346
587.004 .0326482
587.785 .0326592
588.566 .0326683
589.346 .0326738
590.126 .0326774
590.906 .0326788
591.685 .0326777
592.464 .0326717
593.242 .0326642
594.020 .0326540
594.797 .0326432
595.575 .0326329
596.351 .0326256
597.128 .0326214
597.904 .0326204
598.679 .0326211
599.454 .0326228
600.229 .0326249
601.004 .0326255
601.778 .0326238
602.551 .0326208
603.325 .0326158
604.097 .0326087
604.870 .0325997
605.642 .0325904
606.414 .0325798
607.185 .0325691
607.956 .0325567
608.727 .0325439
609.497 .0325308
610.267 .0325170
611.037 .0325024
611.806 .0324871
612.575 .0324715
613.344 .0324548
614.112 .0324377
614.880 .0324201
615.647 .0324013
616.414 .0323820
617.181 .0323628
617.948 .0323440
618.714 .0323251
619.480 .0323074
620.245 .0322903
621.011 .0322748
621.775 .0322594
622.540 .0322428
623.304 .0322240
624.068 .0322032
624.832 .0321799
625.595 .0321529
626.358 .0321254
627.120 .0320975
627.883 .0320698
628.645 .0320438
629.406 .0320194
630.168 .0319958
630.929 .0319725
631.689 .0319485
632.450 .0319222
633.210 .0318935
633.970 .0318616
634.729 .0318271
635.489 .0317913
636.248 .0317558
637.006 .0317212
637.765 .0316881
638.523 .0316579
639.280 .0316297
640.038 .0316029
640.795 .0315778
641.552 .0315538
642.309 .0315314
643.065 .0315099
643.821 .0314902
644.577 .0314723
645.332 .0314562
646.088 .0314419
646.843 .0314291
647.597 .0314170
648.352 .0314044
649.106 .0313909
649.860 .0313761
650.613 .0313607
651.367 .0313448
652.120 .0313282
652.872 .0313116
653.625 .0312947
654.377 .0312772
655.129 .0312582
655.881 .0312378
656.632 .0312155
657.384 .0311906
658.135 .0311646
658.885 .0311359
659.636 .0311057
660.386 .0310752
661.136 .0310454
661.885 .0310172
662.635 .0309906
663.384 .0309661
664.133 .0309436
664.881 .0309225
665.630 .0309012
666.378 .0308795
667.126 .0308579
667.874 .0308350
668.621 .0308112
669.368 .0307875
670.115 .0307649
670.862 .0307436
671.608 .0307253
672.354 .0307101
673.100 .0306980
673.846 .0306887
674.591 .0306806
675.337 .0306727
676.082 .0306643
676.826 .0306538
677.571 .0306412
678.315 .0306271
679.059 .0306127
679.803 .0305978
680.547 .0305841
681.290 .0305718
682.033 .0305607
682.776 .0305497
683.518 .0305382
684.261 .0305251
685.003 .0305097
685.745 .0304909
686.487 .0304699
687.228 .0304469
687.969 .0304238
688.710 .0304010
689.451 .0303796
690.192 .0303604
690.932 .0303436
691.672 .0303280
692.412 .0303134
693.152 .0302994
693.891 .0302855
694.630 .0302707
695.369 .0302558
696.108 .0302399
696.846 .0302239
697.585 .0302082
698.323 .0301922
699.061 .0301751
699.798 .0301579
700.536 .0301399
701.273 .0301207
702.010 .0301012
702.746 .0300811
703.483 .0300602
704.219 .0300391
704.955 .0300174
705.691 .0299947
706.427 .0299719
707.162 .0299494
707.897 .0299266
708.632 .0299049
709.367 .0298842
710.101 .0298645
710.835 .0298468
711.569 .0298308
712.303 .0298157
713.037 .0298010
713.770 .0297865
714.503 .0297708
715.236 .0297539
715.969 .0297351
716.702 .0297145
717.434 .0296933
718.166 .0296709
718.898 .0296474
719.629 .0296241
720.361 .0296014
721.092 .0295790
721.823 .0295573
722.554 .0295360
723.284 .0295147
724.014 .0294936
724.744 .0294717
725.474 .0294490
726.204 .0294265
726.933 .0294043
727.662 .0293814
728.391 .0293595
729.120 .0293386
729.849 .0293184
730.577 .0293000
731.305 .0292828
732.033 .0292661
732.760 .0292496
733.488 .0292332
734.215 .0292157
734.942 .0291975
735.669 .0291794
736.395 .0291607
737.122 .0291427
737.848 .0291249
738.573 .0291074
739.299 .0290900
740.024 .0290736
740.750 .0290574
741.474 .0290413
742.199 .0290256
742.924 .0290096
743.648 .0289933
744.372 .0289771
745.096 .0289610
745.819 .0289447
746.543 .0289288
747.266 .0289133
747.989 .0288977
748.711 .0288821
749.434 .0288671
750.156 .0288530
750.878 .0288398
751.599 .0288280
752.321 .0288176
753.042 .0288091
753.763 .0288027
754.484 .0287974
755.205 .0287936
755.925 .0287910
756.645 .0287883
757.365 .0287849
758.085 .0287804
758.804 .0287748
759.523 .0287676
760.242 .0287590
760.961 .0287493
761.679 .0287387
762.397 .0287271
763.115 .0287143
763.833 .0287002
764.551 .0286852
765.268 .0286682
765.985 .0286497
766.702 .0286300
767.418 .0286089
768.134 .0285873
768.850 .0285658
769.566 .0285454
770.282 .0285266
770.997 .0285086
771.712 .0284921
772.427 .0284768
773.142 .0284629
773.856 .0284489
774.570 .0284348
775.284 .0284208
775.998 .0284062
776.711 .0283909
777.424 .0283747
778.137 .0283578
778.849 .0283401
779.562 .0283218
780.274 .0283024
780.986 .0282819
781.697 .0282606
782.409 .0282388
783.120 .0282172
783.831 .0281957
784.541 .0281744
785.252 .0281538
785.962 .0281343
786.671 .0281162
787.381 .0280993
788.090 .0280840
788.799 .0280701
789.508 .0280580
790.217 .0280467
790.925 .0280360
791.633 .0280262
792.341 .0280165
793.048 .0280072
793.755 .0279980
794.462 .0279884
795.169 .0279781
795.875 .0279675
796.581 .0279566
797.287 .0279445
797.993 .0279316
798.698 .0279175
799.403 .0279021
800.108 .0278862
800.812 .0278694
801.517 .0278516
802.221 .0278340
802.924 .0278169
803.628 .0278003
804.331 .0277854
805.034 .0277722
805.736 .0277607
806.439 .0277511
807.141 .0277433
807.843 .0277359
808.544 .0277286
809.245 .0277216
809.946 .0277135
810.647 .0277056
811.347 .0276976
812.047 .0276895
812.747 .0276819
813.447 .0276747
814.146 .0276671
814.845 .0276587
815.543 .0276496
816.242 .0276389
816.940 .0276263
817.638 .0276119
818.335 .0275958
819.032 .0275785
819.729 .0275605
820.426 .0275424
821.122 .0275243
821.818 .0275071
822.514 .0274903
823.209 .0274744
823.905 .0274589
824.599 .0274438
825.294 .0274293
825.988 .0274145
826.682 .0273996
827.376 .0273843
828.069 .0273686
828.762 .0273521
829.455 .0273346
830.147 .0273166
830.840 .0272979
831.531 .0272795
832.223 .0272620
832.914 .0272452
833.605 .0272299
834.296 .0272158
834.986 .0272024
835.676 .0271900
836.366 .0271785
837.055 .0271677
837.744 .0271575
838.433 .0271479
839.121 .0271389
839.809 .0271301
840.497 .0271218
841.185 .0271141
841.872 .0271062
842.559 .0270987
843.245 .0270908
843.932 .0270820
844.617 .0270724
845.303 .0270619
845.988 .0270499
846.673 .0270364
847.358 .0270215
848.042 .0270050
848.726 .0269880
849.410 .0269711
850.093 .0269548
850.776 .0269398
851.459 .0269263
852.141 .0269143
852.823 .0269032
853.505 .0268932
854.186 .0268832
854.867 .0268728
855.548 .0268620
856.228 .0268502
856.908 .0268382
857.588 .0268256
858.267 .0268138
858.946 .0268026
859.625 .0267925
860.303 .0267827
860.981 .0267737
861.659 .0267653
862.336 .0267564
863.013 .0267475
863.690 .0267379
864.366 .0267282
865.042 .0267189
865.718 .0267098
866.393 .0267018
867.068 .0266944
867.743 .0266881
868.417 .0266812
869.091 .0266744
869.765 .0266667
870.438 .0266577
871.111 .0266470
871.783 .0266346
872.456 .0266198
873.127 .0266029
873.799 .0265846
874.470 .0265652
875.141 .0265457
875.811 .0265263
876.481 .0265067
877.151 .0264884
877.820 .0264714
878.489 .0264565
879.158 .0264432
879.826 .0264321
880.494 .0264224
881.162 .0264135
881.829 .0264061
882.496 .0263997
883.163 .0263945
883.829 .0263909
884.495 .0263882
885.160 .0263867
885.825 .0263865
886.490 .0263868
887.154 .0263875
887.818 .0263878
888.482 .0263869
889.145 .0263842
889.808 .0263796
890.471 .0263735
891.133 .0263662
891.795 .0263580
892.456 .0263497
893.117 .0263418
893.778 .0263345
894.439 .0263279
895.099 .0263222
895.758 .0263173
896.417 .0263123
897.076 .0263065
897.735 .0263006
898.393 .0262936
899.051 .0262863
899.708 .0262789
900.365 .0262715
901.022 .0262650
901.678 .0262591
902.334 .0262542
902.990 .0262502
903.645 .0262468
904.300 .0262429
904.954 .0262375
905.608 .0262308
906.262 .0262220
906.915 .0262111
907.568 .0261989
908.221 .0261858
908.873 .0261716
909.525 .0261576
910.176 .0261440
910.828 .0261310
911.478 .0261188
912.129 .0261066
912.778 .0260944
913.428 .0260815
914.077 .0260684
914.726 .0260551
915.375 .0260418
916.023 .0260300
916.670 .0260192
917.318 .0260097
917.964 .0260019
918.611 .0259954
919.257 .0259898
919.903 .0259844
920.548 .0259792
921.193 .0259734
921.838 .0259673
922.482 .0259613
923.126 .0259549
923.770 .0259488
924.413 .0259433
925.056 .0259374
925.698 .0259310
926.340 .0259237
926.982 .0259149
927.623 .0259049
928.264 .0258939
928.904 .0258821
929.544 .0258691
930.184 .0258559
930.823 .0258423
931.462 .0258279
932.101 .0258128
932.739 .0257965
933.377 .0257788
934.014 .0257601
934.651 .0257405
935.288 .0257203
935.924 .0257004
936.560 .0256813
937.196 .0256627
937.831 .0256442
938.466 .0256261
939.100 .0256075
939.734 .0255887
940.368 .0255698
941.001 .0255510
941.634 .0255325
942.266 .0255149
942.899 .0254984
943.530 .0254824
944.162 .0254668
944.793 .0254514
945.423 .0254351
946.053 .0254177
946.683 .0253992
947.313 .0253797
947.942 .0253592
948.571 .0253385
949.199 .0253173
949.827 .0252965
950.455 .0252763
951.082 .0252567
951.709 .0252382
952.335 .0252210
952.961 .0252049
953.587 .0251895
954.212 .0251753
954.837 .0251614
955.462 .0251475
956.086 .0251337
956.710 .0251197
957.334 .0251056
957.957 .0250920
958.579 .0250797
959.202 .0250692
959.824 .0250609
960.445 .0250546
961.067 .0250500
961.688 .0250469
962.308 .0250438
962.928 .0250395
963.548 .0250334
964.168 .0250261
964.787 .0250164
965.406 .0250052
966.024 .0249932
966.642 .0249814
967.260 .0249699
967.877 .0249590
968.494 .0249480
969.110 .0249363
969.727 .0249234
970.342 .0249082
970.958 .0248906
971.573 .0248719
972.188 .0248523
972.802 .0248334
973.416 .0248166
974.030 .0248029
974.643 .0247917
975.256 .0247840
975.869 .0247789
976.481 .0247752
977.093 .0247720
977.705 .0247692
978.316 .0247661
978.927 .0247634
979.538 .0247607
980.148 .0247574
980.758 .0247546
981.367 .0247527
981.977 .0247498
982.586 .0247473
983.194 .0247443
983.802 .0247410
984.410 .0247366
985.018 .0247315
985.625 .0247258
986.232 .0247201
986.838 .0247145
987.445 .0247092
988.050 .0247040
988.656 .0246993
989.261 .0246942
989.866 .0246891
990.471 .0246836
991.075 .0246767
991.679 .0246680
992.282 .0246583
992.886 .0246473
993.489 .0246367
994.091 .0246262
994.694 .0246172
995.296 .0246102
995.897 .0246039
996.499 .0245982
997.100 .0245931
997.701 .0245885
998.301 .0245839
998.901 .0245788
999.501 .0245740
1000.101 .0245692
1000.700 .0245663
1001.299 .0245658
1001.898 .0245678
1002.496 .0245722
1003.094 .0245769
1003.692 .0245803
1004.289 .0245823
1004.887 .0245820
1005.484 .0245789
1006.080 .0245738
1006.677 .0245676
1007.273 .0245601
1007.868 .0245532
1008.464 .0245477
1009.059 .0245437
1009.654 .0245412
1010.249 .0245398
1010.843 .0245381
1011.437 .0245356
1012.031 .0245318
1012.625 .0245269
1013.218 .0245208
1013.811 .0245146
1014.404 .0245084
1014.997 .0245028
1015.589 .0244983
1016.181 .0244953
1016.773 .0244933
1017.365 .0244924
1017.956 .0244916
1018.547 .0244903
1019.138 .0244883
1019.728 .0244853
1020.319 .0244821
1020.909 .0244786
1021.499 .0244749
1022.088 .0244723
1022.678 .0244696
1023.267 .0244679
1023.856 .0244669
1024.445 .0244667
1025.033 .0244668
1025.621 .0244672
1026.209 .0244681
1026.797 .0244692
1027.385 .0244702
1027.972 .0244709
1028.560 .0244705
1029.147 .0244703
1029.734 .0244697
1030.320 .0244682
1030.907 .0244662
1031.493 .0244641
1032.079 .0244613
1032.665 .0244588
1033.250 .0244565
1033.836 .0244556
1034.421 .0244554
1035.006 .0244557
1035.591 .0244552
1036.176 .0244535
1036.761 .0244503
1037.345 .0244454
1037.929 .0244390
1038.514 .0244322
1039.097 .0244255
1039.681 .0244201
1040.265 .0244169
1040.848 .0244161
1041.432 .0244173
1042.015 .0244206
1042.598 .0244243
1043.181 .0244288
1043.764 .0244320
1044.346 .0244346
1044.929 .0244361
1045.511 .0244378
1046.094 .0244399
1046.676 .0244419
1047.258 .0244440
1047.840 .0244453
1048.422 .0244459
1049.003 .0244459
1049.585 .0244440
1050.166 .0244415
1050.748 .0244387
1051.329 .0244366
1051.910 .0244342
1052.491 .0244315
1053.072 .0244276
1053.653 .0244226
1054.234 .0244153
1054.815 .0244059
1055.396 .0243946
1055.976 .0243836
1056.557 .0243753
1057.138 .0243703
1057.718 .0243705
1058.298 .0243752
1058.879 .0243831
1059.459 .0243921
1060.039 .0243991
1060.620 .0244019
1061.200 .0243991
1061.780 .0243925
1062.360 .0243825
1062.940 .0243706
1063.520 .0243593
1064.101 .0243491
1064.681 .0243408
1065.261 .0243356
1065.841 .0243302
1066.421 .0243231
1067.001 .0243128
1067.581 .0242987
1068.161 .0242796
1068.741 .0242554
1069.321 .0242298
1069.901 .0242046
1070.482 .0241816
1071.062 .0241620
1071.642 .0241436
1072.222 .0241279
1072.803 .0241138
1073.383 .0241006
1073.963 .0240866
1074.544 .0240728
1075.124 .0240589
1075.705 .0240438
1076.286 .0240305
1076.866 .0240200
1077.447 .0240111
1078.028 .0240073
1078.609 .0240101
1079.190 .0240170
1079.771 .0240291
1080.352 .0240481
1080.934 .0240718
1081.515 .0241016
1082.097 .0241328
1082.679 .0241625
1083.260 .0241859
1083.842 .0242045
1084.424 .0242143
1085.007 .0242160
1085.589 .0242130
1086.172 .0242042
1086.754 .0241939
1087.337 .0241853
1087.920 .0241765
1088.503 .0241686
1089.087 .0241599
1089.670 .0241503
1090.254 .0241341
1090.838 .0241130
1091.422 .0240871
1092.006 .0240597
1092.590 .0240346
1093.175 .0240153
1093.760 .0240028
1094.345 .0239992
1094.930 .0240023
1095.516 .0240111
1096.102 .0240234
1096.688 .0240371
1097.274 .0240472
1097.860 .0240547
1098.447 .0240593
1099.034 .0240621
1099.622 .0240598
1100.209 .0240564
1100.797 .0240516
1101.385 .0240436
1101.973 .0240329
1102.562 .0240192
1103.151 .0240020
1103.740 .0239865
1104.330 .0239705
1104.920 .0239563
1105.510 .0239432
1106.101 .0239328
1106.691 .0239238
1107.283 .0239163
1107.874 .0239069
1108.466 .0238953
1109.058 .0238833
1109.651 .0238729
1110.244 .0238632
1110.837 .0238582
1111.431 .0238591
1112.025 .0238670
1112.620 .0238826
1113.215 .0239058
1113.810 .0239302
1114.406 .0239598
1115.002 .0239843
1115.599 .0240041
1116.196 .0240161
1116.793 .0240179
1117.391 .0240121
1117.989 .0240004
1118.588 .0239859
1119.187 .0239688
1119.787 .0239530
1120.387 .0239430
1120.988 .0239345
1121.589 .0239322
1122.190 .0239302
1122.793 .0239269
1123.395 .0239239
1123.998 .0239204
1124.602 .0239171
1125.206 .0239173
1125.811 .0239219
1126.416 .0239353
1127.022 .0239588
1127.628 .0239919
1128.235 .0240363
1128.843 .0240876
1129.451 .0241472
1130.059 .0242074
1130.669 .0242686
1131.278 .0243290
1131.889 .0243886
1132.500 .0244501
1133.112 .0245089
1133.724 .0245739
1134.337 .0246398
1134.950 .0247065
1135.564 .0247830
1136.179 .0248630
1136.795 .0249503
1137.411 .0250410
1138.028 .0251393
1138.645 .0252457
1139.263 .0253596
1139.882 .0254801
1140.502 .0255995
1141.122 .0257129
1141.743 .0258362
1142.365 .0259435
1142.987 .0261330
1143.611 .0261600
1144.235 .0259647
1144.859 .0266070
1145.485 .0263513
