Measurement Sequence started on: 10-20-44-796
Integration time: 35
Scans to Average: 2 
>>>>>Begin Spectral Data<<<<<
432.953 .0453772
433.882 .0449194
434.810 .0473146
435.737 .0467498
436.662 .0423767
437.586 .0420963
438.509 .0412493
439.431 .0405025
440.351 .0398326
441.269 .0393139
442.187 .0389887
443.103 .0387461
444.018 .0385413
444.932 .0383486
445.844 .0382201
446.756 .0381307
447.666 .0381002
448.575 .0380763
449.482 .0380836
450.388 .0381063
451.294 .0381263
452.198 .0381197
453.100 .0380908
454.002 .0380426
454.902 .0379701
455.801 .0378765
456.699 .0377768
457.596 .0376805
458.492 .0375919
459.387 .0375046
460.280 .0374279
461.172 .0373679
462.064 .0373223
462.954 .0372812
463.843 .0372407
464.730 .0372047
465.617 .0371676
466.503 .0371279
467.387 .0370904
468.271 .0370578
469.153 .0370326
470.035 .0370110
470.915 .0369975
471.794 .0369880
472.673 .0369698
473.550 .0369552
474.426 .0369408
475.301 .0369246
476.175 .0369031
477.048 .0368775
477.920 .0368497
478.791 .0368233
479.661 .0367969
480.530 .0367757
481.398 .0367574
482.266 .0367477
483.132 .0367423
483.997 .0367398
484.861 .0367466
485.724 .0367562
486.587 .0367652
487.448 .0367735
488.308 .0367727
489.168 .0367643
490.026 .0367491
490.884 .0367293
491.741 .0367036
492.597 .0366753
493.452 .0366437
494.306 .0366018
495.159 .0365499
496.011 .0364913
496.862 .0364225
497.713 .0363452
498.562 .0362616
499.411 .0361704
500.259 .0360832
501.106 .0360008
501.952 .0359224
502.798 .0358510
503.642 .0357871
504.486 .0357209
505.329 .0356518
506.171 .0355806
507.012 .0355039
507.852 .0354211
508.692 .0353401
509.531 .0352607
510.369 .0351807
511.206 .0351050
512.043 .0350254
512.878 .0349347
513.713 .0348331
514.547 .0347080
515.381 .0345636
516.213 .0344042
517.045 .0342323
517.876 .0340476
518.706 .0338609
519.536 .0336865
520.365 .0335239
521.193 .0333743
522.020 .0332425
522.847 .0331189
523.673 .0330018
524.498 .0328871
525.323 .0327645
526.146 .0326483
526.969 .0325425
527.792 .0324532
528.614 .0323828
529.435 .0323403
530.255 .0323308
531.075 .0323374
531.894 .0323553
532.712 .0323727
533.530 .0323624
534.347 .0323284
535.163 .0322546
535.979 .0321516
536.794 .0320287
537.608 .0318955
538.422 .0317639
539.235 .0316458
540.048 .0315467
540.860 .0314600
541.671 .0313787
542.481 .0313075
543.292 .0312212
544.101 .0311187
544.910 .0310022
545.718 .0308776
546.526 .0307566
547.333 .0306445
548.139 .0305464
548.945 .0304709
549.750 .0304194
550.555 .0303880
551.359 .0303675
552.162 .0303534
552.965 .0303456
553.768 .0303431
554.569 .0303494
555.371 .0303639
556.171 .0303957
556.972 .0304409
557.771 .0304966
558.570 .0305587
559.369 .0306259
560.167 .0306966
560.964 .0307752
561.761 .0308553
562.558 .0309417
563.354 .0310315
564.149 .0311209
564.944 .0312053
565.738 .0312862
566.532 .0313547
567.325 .0314124
568.118 .0314570
568.910 .0314951
569.702 .0315225
570.494 .0315540
571.285 .0315867
572.075 .0316268
572.865 .0316730
573.654 .0317214
574.443 .0317729
575.232 .0318284
576.020 .0318854
576.807 .0319481
577.594 .0320163
578.381 .0320907
579.167 .0321649
579.952 .0322424
580.738 .0323191
581.522 .0323961
582.307 .0324679
583.091 .0325375
583.874 .0326033
584.657 .0326673
585.440 .0327279
586.222 .0327863
587.004 .0328421
587.785 .0328909
588.566 .0329325
589.346 .0329636
590.126 .0329817
590.906 .0329883
591.685 .0329858
592.464 .0329771
593.242 .0329631
594.020 .0329482
594.797 .0329340
595.575 .0329226
596.351 .0329146
597.128 .0329094
597.904 .0329060
598.679 .0329041
599.454 .0329016
600.229 .0328974
601.004 .0328920
601.778 .0328846
602.551 .0328757
603.325 .0328660
604.097 .0328569
604.870 .0328470
605.642 .0328369
606.414 .0328263
607.185 .0328132
607.956 .0327962
608.727 .0327753
609.497 .0327498
610.267 .0327197
611.037 .0326860
611.806 .0326484
612.575 .0326089
613.344 .0325695
614.112 .0325307
614.880 .0324941
615.647 .0324604
616.414 .0324301
617.181 .0324022
617.948 .0323772
618.714 .0323549
619.480 .0323341
620.245 .0323150
621.011 .0322977
621.775 .0322812
622.540 .0322651
623.304 .0322500
624.068 .0322360
624.832 .0322225
625.595 .0322089
626.358 .0321945
627.120 .0321795
627.883 .0321625
628.645 .0321441
629.406 .0321236
630.168 .0321020
630.929 .0320796
631.689 .0320555
632.450 .0320317
633.210 .0320086
633.970 .0319860
634.729 .0319637
635.489 .0319410
636.248 .0319171
637.006 .0318909
637.765 .0318621
638.523 .0318320
639.280 .0318007
640.038 .0317684
640.795 .0317364
641.552 .0317051
642.309 .0316758
643.065 .0316477
643.821 .0316212
644.577 .0315967
645.332 .0315719
646.088 .0315465
646.843 .0315189
647.597 .0314898
648.352 .0314604
649.106 .0314305
649.860 .0314021
650.613 .0313761
651.367 .0313539
652.120 .0313361
652.872 .0313223
653.625 .0313117
654.377 .0313029
655.129 .0312937
655.881 .0312835
656.632 .0312704
657.384 .0312552
658.135 .0312393
658.885 .0312229
659.636 .0312078
660.386 .0311947
661.136 .0311825
661.885 .0311726
662.635 .0311636
663.384 .0311554
664.133 .0311463
664.881 .0311360
665.630 .0311242
666.378 .0311112
667.126 .0310966
667.874 .0310806
668.621 .0310635
669.368 .0310464
670.115 .0310284
670.862 .0310101
671.608 .0309923
672.354 .0309743
673.100 .0309561
673.846 .0309390
674.591 .0309214
675.337 .0309049
676.082 .0308887
676.826 .0308724
677.571 .0308566
678.315 .0308411
679.059 .0308256
679.803 .0308110
680.547 .0307972
681.290 .0307838
682.033 .0307702
682.776 .0307572
683.518 .0307432
684.261 .0307282
685.003 .0307129
685.745 .0306968
686.487 .0306798
687.228 .0306628
687.969 .0306450
688.710 .0306273
689.451 .0306090
690.192 .0305896
690.932 .0305686
691.672 .0305462
692.412 .0305225
693.152 .0304980
693.891 .0304723
694.630 .0304468
695.369 .0304213
696.108 .0303964
696.846 .0303714
697.585 .0303463
698.323 .0303207
699.061 .0302951
699.798 .0302696
700.536 .0302439
701.273 .0302187
702.010 .0301955
702.746 .0301737
703.483 .0301541
704.219 .0301364
704.955 .0301204
705.691 .0301053
706.427 .0300911
707.162 .0300770
707.897 .0300625
708.632 .0300477
709.367 .0300323
710.101 .0300168
710.835 .0300015
711.569 .0299860
712.303 .0299698
713.037 .0299534
713.770 .0299360
714.503 .0299167
715.236 .0298955
715.969 .0298725
716.702 .0298484
717.434 .0298233
718.166 .0297978
718.898 .0297723
719.629 .0297471
720.361 .0297232
721.092 .0296999
721.823 .0296772
722.554 .0296553
723.284 .0296337
724.014 .0296119
724.744 .0295899
725.474 .0295673
726.204 .0295446
726.933 .0295217
727.662 .0294989
728.391 .0294762
729.120 .0294540
729.849 .0294329
730.577 .0294125
731.305 .0293931
732.033 .0293744
732.760 .0293554
733.488 .0293370
734.215 .0293185
734.942 .0292999
735.669 .0292812
736.395 .0292629
737.122 .0292447
737.848 .0292272
738.573 .0292093
739.299 .0291916
740.024 .0291737
740.750 .0291556
741.474 .0291360
742.199 .0291156
742.924 .0290947
743.648 .0290739
744.372 .0290533
745.096 .0290341
745.819 .0290155
746.543 .0289986
747.266 .0289826
747.989 .0289680
748.711 .0289537
749.434 .0289400
750.156 .0289272
750.878 .0289158
751.599 .0289063
752.321 .0288987
753.042 .0288935
753.763 .0288908
754.484 .0288900
755.205 .0288898
755.925 .0288893
756.645 .0288882
757.365 .0288851
758.085 .0288794
758.804 .0288708
759.523 .0288589
760.242 .0288438
760.961 .0288258
761.679 .0288057
762.397 .0287832
763.115 .0287591
763.833 .0287332
764.551 .0287068
765.268 .0286799
765.985 .0286528
766.702 .0286256
767.418 .0285995
768.134 .0285749
768.850 .0285520
769.566 .0285306
770.282 .0285119
770.997 .0284959
771.712 .0284832
772.427 .0284722
773.142 .0284641
773.856 .0284579
774.570 .0284537
775.284 .0284500
775.998 .0284468
776.711 .0284432
777.424 .0284386
778.137 .0284326
778.849 .0284250
779.562 .0284156
780.274 .0284052
780.986 .0283937
781.697 .0283822
782.409 .0283712
783.120 .0283616
783.831 .0283532
784.541 .0283472
785.252 .0283432
785.962 .0283403
786.671 .0283379
787.381 .0283354
788.090 .0283324
788.799 .0283283
789.508 .0283229
790.217 .0283163
790.925 .0283090
791.633 .0283010
792.341 .0282917
793.048 .0282817
793.755 .0282709
794.462 .0282582
795.169 .0282435
795.875 .0282272
796.581 .0282094
797.287 .0281906
797.993 .0281716
798.698 .0281530
799.403 .0281354
800.108 .0281191
800.812 .0281043
801.517 .0280910
802.221 .0280797
802.924 .0280698
803.628 .0280613
804.331 .0280547
805.034 .0280496
805.736 .0280449
806.439 .0280415
807.141 .0280387
807.843 .0280359
808.544 .0280323
809.245 .0280276
809.946 .0280214
810.647 .0280143
811.347 .0280063
812.047 .0279976
812.747 .0279890
813.447 .0279805
814.146 .0279713
814.845 .0279620
815.543 .0279521
816.242 .0279412
816.940 .0279299
817.638 .0279183
818.335 .0279065
819.032 .0278946
819.729 .0278830
820.426 .0278719
821.122 .0278614
821.818 .0278505
822.514 .0278389
823.209 .0278265
823.905 .0278135
824.599 .0277992
825.294 .0277844
825.988 .0277691
826.682 .0277535
827.376 .0277379
828.069 .0277223
828.762 .0277065
829.455 .0276905
830.147 .0276742
830.840 .0276577
831.531 .0276413
832.223 .0276251
832.914 .0276093
833.605 .0275944
834.296 .0275809
834.986 .0275685
835.676 .0275570
836.366 .0275469
837.055 .0275382
837.744 .0275294
838.433 .0275212
839.121 .0275129
839.809 .0275043
840.497 .0274955
841.185 .0274869
841.872 .0274778
842.559 .0274692
843.245 .0274606
843.932 .0274521
844.617 .0274433
845.303 .0274349
845.988 .0274252
846.673 .0274153
847.358 .0274045
848.042 .0273931
848.726 .0273804
849.410 .0273686
850.093 .0273563
850.776 .0273447
851.459 .0273333
852.141 .0273220
852.823 .0273098
853.505 .0272976
854.186 .0272840
854.867 .0272707
855.548 .0272570
856.228 .0272440
856.908 .0272308
857.588 .0272185
858.267 .0272062
858.946 .0271943
859.625 .0271816
860.303 .0271692
860.981 .0271558
861.659 .0271426
862.336 .0271292
863.013 .0271166
863.690 .0271044
864.366 .0270934
865.042 .0270830
865.718 .0270735
866.393 .0270631
867.068 .0270524
867.743 .0270409
868.417 .0270290
869.091 .0270166
869.765 .0270035
870.438 .0269901
871.111 .0269770
871.783 .0269635
872.456 .0269500
873.127 .0269359
873.799 .0269220
874.470 .0269077
875.141 .0268926
875.811 .0268772
876.481 .0268618
877.151 .0268469
877.820 .0268328
878.489 .0268198
879.158 .0268071
879.826 .0267952
880.494 .0267842
881.162 .0267742
881.829 .0267649
882.496 .0267559
883.163 .0267467
883.829 .0267375
884.495 .0267284
885.160 .0267194
885.825 .0267105
886.490 .0267032
887.154 .0266971
887.818 .0266923
888.482 .0266878
889.145 .0266840
889.808 .0266806
890.471 .0266773
891.133 .0266739
891.795 .0266700
892.456 .0266658
893.117 .0266624
893.778 .0266597
894.439 .0266578
895.099 .0266566
895.758 .0266566
896.417 .0266566
897.076 .0266566
897.735 .0266565
898.393 .0266555
899.051 .0266545
899.708 .0266537
900.365 .0266526
901.022 .0266512
901.678 .0266492
902.334 .0266465
902.990 .0266427
903.645 .0266374
904.300 .0266306
904.954 .0266224
905.608 .0266134
906.262 .0266041
906.915 .0265934
907.568 .0265822
908.221 .0265709
908.873 .0265587
909.525 .0265451
910.176 .0265297
910.828 .0265124
911.478 .0264936
912.129 .0264739
912.778 .0264547
913.428 .0264363
914.077 .0264203
914.726 .0264072
915.375 .0263957
916.023 .0263864
916.670 .0263790
917.318 .0263722
917.964 .0263659
918.611 .0263591
919.257 .0263518
919.903 .0263437
920.548 .0263358
921.193 .0263285
921.838 .0263215
922.482 .0263155
923.126 .0263097
923.770 .0263029
924.413 .0262957
925.056 .0262863
925.698 .0262743
926.340 .0262606
926.982 .0262448
927.623 .0262264
928.264 .0262074
928.904 .0261880
929.544 .0261690
930.184 .0261507
930.823 .0261337
931.462 .0261168
932.101 .0261006
932.739 .0260844
933.377 .0260669
934.014 .0260494
934.651 .0260320
935.288 .0260141
935.924 .0259972
936.560 .0259822
937.196 .0259684
937.831 .0259560
938.466 .0259458
939.100 .0259361
939.734 .0259271
940.368 .0259187
941.001 .0259096
941.634 .0259000
942.266 .0258906
942.899 .0258802
943.530 .0258688
944.162 .0258573
944.793 .0258449
945.423 .0258309
946.053 .0258158
946.683 .0257988
947.313 .0257801
947.942 .0257600
948.571 .0257385
949.199 .0257156
949.827 .0256923
950.455 .0256692
951.082 .0256456
951.709 .0256230
952.335 .0256013
952.961 .0255807
953.587 .0255607
954.212 .0255420
954.837 .0255241
955.462 .0255069
956.086 .0254911
956.710 .0254768
957.334 .0254640
957.957 .0254530
958.579 .0254433
959.202 .0254349
959.824 .0254269
960.445 .0254190
961.067 .0254095
961.688 .0253991
962.308 .0253873
962.928 .0253744
963.548 .0253608
964.168 .0253482
964.787 .0253371
965.406 .0253284
966.024 .0253219
966.642 .0253176
967.260 .0253150
967.877 .0253129
968.494 .0253099
969.110 .0253056
969.727 .0252993
970.342 .0252912
970.958 .0252812
971.573 .0252706
972.188 .0252596
972.802 .0252487
973.416 .0252387
974.030 .0252285
974.643 .0252181
975.256 .0252072
975.869 .0251947
976.481 .0251810
977.093 .0251664
977.705 .0251511
978.316 .0251365
978.927 .0251229
979.538 .0251109
980.148 .0251005
980.758 .0250923
981.367 .0250859
981.977 .0250817
982.586 .0250795
983.194 .0250794
983.802 .0250806
984.410 .0250826
985.018 .0250853
985.625 .0250878
986.232 .0250901
986.838 .0250907
987.445 .0250896
988.050 .0250875
988.656 .0250841
989.261 .0250800
989.866 .0250754
990.471 .0250712
991.075 .0250672
991.679 .0250626
992.282 .0250574
992.886 .0250507
993.489 .0250426
994.091 .0250328
994.694 .0250214
995.296 .0250090
995.897 .0249958
996.499 .0249822
997.100 .0249693
997.701 .0249574
998.301 .0249467
998.901 .0249373
999.501 .0249297
1000.101 .0249233
1000.700 .0249177
1001.299 .0249121
1001.898 .0249071
1002.496 .0249021
1003.094 .0248963
1003.692 .0248898
1004.289 .0248832
1004.887 .0248765
1005.484 .0248698
1006.080 .0248638
1006.677 .0248594
1007.273 .0248566
1007.868 .0248550
1008.464 .0248540
1009.059 .0248538
1009.654 .0248539
1010.249 .0248540
1010.843 .0248532
1011.437 .0248522
1012.031 .0248508
1012.625 .0248491
1013.218 .0248481
1013.811 .0248480
1014.404 .0248491
1014.997 .0248518
1015.589 .0248558
1016.181 .0248611
1016.773 .0248666
1017.365 .0248726
1017.956 .0248783
1018.547 .0248831
1019.138 .0248857
1019.728 .0248865
1020.319 .0248862
1020.909 .0248857
1021.499 .0248848
1022.088 .0248839
1022.678 .0248830
1023.267 .0248821
1023.856 .0248801
1024.445 .0248759
1025.033 .0248705
1025.621 .0248633
1026.209 .0248545
1026.797 .0248440
1027.385 .0248326
1027.972 .0248213
1028.560 .0248113
1029.147 .0248028
1029.734 .0247971
1030.320 .0247931
1030.907 .0247922
1031.493 .0247939
1032.079 .0247991
1032.665 .0248073
1033.250 .0248181
1033.836 .0248294
1034.421 .0248414
1035.006 .0248523
1035.591 .0248620
1036.176 .0248688
1036.761 .0248751
1037.345 .0248797
1037.929 .0248841
1038.514 .0248877
1039.097 .0248911
1039.681 .0248940
1040.265 .0248965
1040.848 .0248960
1041.432 .0248918
1042.015 .0248842
1042.598 .0248743
1043.181 .0248618
1043.764 .0248501
1044.346 .0248400
1044.929 .0248335
1045.511 .0248317
1046.094 .0248344
1046.676 .0248402
1047.258 .0248485
1047.840 .0248569
1048.422 .0248648
1049.003 .0248705
1049.585 .0248738
1050.166 .0248743
1050.748 .0248737
1051.329 .0248735
1051.910 .0248728
1052.491 .0248715
1053.072 .0248709
1053.653 .0248704
1054.234 .0248695
1054.815 .0248669
1055.396 .0248618
1055.976 .0248547
1056.557 .0248459
1057.138 .0248349
1057.718 .0248224
1058.298 .0248095
1058.879 .0247990
1059.459 .0247889
1060.039 .0247810
1060.620 .0247763
1061.200 .0247729
1061.780 .0247720
1062.360 .0247712
1062.940 .0247701
1063.520 .0247679
1064.101 .0247641
1064.681 .0247585
1065.261 .0247514
1065.841 .0247438
1066.421 .0247345
1067.001 .0247238
1067.581 .0247137
1068.161 .0247017
1068.741 .0246872
1069.321 .0246708
1069.901 .0246536
1070.482 .0246337
1071.062 .0246145
1071.642 .0245926
1072.222 .0245714
1072.803 .0245506
1073.383 .0245286
1073.963 .0245071
1074.544 .0244892
1075.124 .0244745
1075.705 .0244636
1076.286 .0244582
1076.866 .0244597
1077.447 .0244648
1078.028 .0244747
1078.609 .0244871
1079.190 .0245003
1079.771 .0245121
1080.352 .0245205
1080.934 .0245254
1081.515 .0245304
1082.097 .0245351
1082.679 .0245406
1083.260 .0245527
1083.842 .0245700
1084.424 .0245915
1085.007 .0246150
1085.589 .0246373
1086.172 .0246576
1086.754 .0246724
1087.337 .0246804
1087.920 .0246827
1088.503 .0246811
1089.087 .0246791
1089.670 .0246771
1090.254 .0246792
1090.838 .0246844
1091.422 .0246914
1092.006 .0246990
1092.590 .0247039
1093.175 .0247056
1093.760 .0247018
1094.345 .0246921
1094.930 .0246803
1095.516 .0246681
1096.102 .0246557
1096.688 .0246443
1097.274 .0246358
1097.860 .0246272
1098.447 .0246186
1099.034 .0246070
1099.622 .0245942
1100.209 .0245812
1100.797 .0245671
1101.385 .0245517
1101.973 .0245389
1102.562 .0245297
1103.151 .0245221
1103.740 .0245156
1104.330 .0245072
1104.920 .0244918
1105.510 .0244687
1106.101 .0244369
1106.691 .0243997
1107.283 .0243564
1107.874 .0243137
1108.466 .0242691
1109.058 .0242321
1109.651 .0241996
1110.244 .0241703
1110.837 .0241474
1111.431 .0241315
1112.025 .0241168
1112.620 .0241011
1113.215 .0240853
1113.810 .0240763
1114.406 .0240741
1115.002 .0240822
1115.599 .0240999
1116.196 .0241271
1116.793 .0241599
1117.391 .0241958
1117.989 .0242267
1118.588 .0242585
1119.187 .0242809
1119.787 .0242975
1120.387 .0243096
1120.988 .0243222
1121.589 .0243384
1122.190 .0243609
1122.793 .0243963
1123.395 .0244419
1123.998 .0244921
1124.602 .0245457
1125.206 .0245970
1125.811 .0246486
1126.416 .0246941
1127.022 .0247352
1127.628 .0247735
1128.235 .0248157
1128.843 .0248585
1129.451 .0249079
1130.059 .0249615
1130.669 .0250181
1131.278 .0250750
1131.889 .0251274
1132.500 .0251776
1133.112 .0252201
1133.724 .0252588
1134.337 .0252976
1134.950 .0253363
1135.564 .0253803
1136.179 .0254230
1136.795 .0254744
1137.411 .0255360
1138.028 .0256061
1138.645 .0256852
1139.263 .0257729
1139.882 .0258707
1140.502 .0259721
1141.122 .0260745
1141.743 .0261712
1142.365 .0263042
1142.987 .0263811
1143.611 .0264463
1144.235 .0265339
1144.859 .0264810
1145.485 .0278020
