Measurement Sequence started on: 10-20-44-796
Integration time: 35
Scans to Average: 2 
>>>>>Begin Spectral Data<<<<<
432.953 .0310464
433.882 .0354903
434.810 .0397061
435.737 .0373050
436.662 .0369853
437.586 .0367648
438.509 .0368460
439.431 .0367415
440.351 .0365535
441.269 .0364696
442.187 .0364145
443.103 .0363763
444.018 .0363594
444.932 .0363790
445.844 .0363838
446.756 .0364048
447.666 .0364413
448.575 .0364920
449.482 .0365607
450.388 .0366333
451.294 .0367112
452.198 .0367959
453.100 .0368824
454.002 .0369782
454.902 .0370668
455.801 .0371438
456.699 .0372051
457.596 .0372498
458.492 .0372736
459.387 .0372763
460.280 .0372717
461.172 .0372479
462.064 .0372123
462.954 .0371729
463.843 .0371268
464.730 .0370854
465.617 .0370526
466.503 .0370214
467.387 .0369909
468.271 .0369555
469.153 .0369135
470.035 .0368650
470.915 .0368149
471.794 .0367598
472.673 .0367035
473.550 .0366539
474.426 .0366130
475.301 .0365785
476.175 .0365560
477.048 .0365356
477.920 .0365153
478.791 .0364920
479.661 .0364616
480.530 .0364228
481.398 .0363770
482.266 .0363302
483.132 .0362866
483.997 .0362476
484.861 .0362178
485.724 .0361976
486.587 .0361855
487.448 .0361793
488.308 .0361693
489.168 .0361537
490.026 .0361298
490.884 .0360969
491.741 .0360543
492.597 .0360043
493.452 .0359491
494.306 .0358924
495.159 .0358346
496.011 .0357804
496.862 .0357244
497.713 .0356673
498.562 .0356047
499.411 .0355352
500.259 .0354559
501.106 .0353722
501.952 .0352833
502.798 .0351950
503.642 .0351054
504.486 .0350177
505.329 .0349320
506.171 .0348497
507.012 .0347684
507.852 .0346866
508.692 .0345973
509.531 .0345033
510.369 .0344013
511.206 .0342946
512.043 .0341819
512.878 .0340659
513.713 .0339421
514.547 .0338118
515.381 .0336701
516.213 .0335165
517.045 .0333500
517.876 .0331747
518.706 .0329889
519.536 .0327947
520.365 .0325993
521.193 .0324078
522.020 .0322232
522.847 .0320515
523.673 .0318830
524.498 .0317164
525.323 .0315452
526.146 .0313708
526.969 .0311890
527.792 .0310004
528.614 .0308030
529.435 .0306033
530.255 .0304018
531.075 .0301990
531.894 .0299957
532.712 .0298014
533.530 .0296172
534.347 .0294417
535.163 .0292653
535.979 .0291025
536.794 .0289459
537.608 .0288044
538.422 .0286783
539.235 .0285724
540.048 .0284875
540.860 .0284303
541.671 .0284003
542.481 .0283970
543.292 .0284120
544.101 .0284494
544.910 .0284978
545.718 .0285591
546.526 .0286266
547.333 .0286973
548.139 .0287768
548.945 .0288681
549.750 .0289610
550.555 .0290585
551.359 .0291600
552.162 .0292643
552.965 .0293652
553.768 .0294602
554.569 .0295509
555.371 .0296358
556.171 .0297175
556.972 .0297983
557.771 .0298759
558.570 .0299566
559.369 .0300405
560.167 .0301285
560.964 .0302215
561.761 .0303165
562.558 .0304146
563.354 .0305143
564.149 .0306135
564.944 .0307095
565.738 .0308020
566.532 .0308918
567.325 .0309762
568.118 .0310541
568.910 .0311265
569.702 .0311953
570.494 .0312599
571.285 .0313200
572.075 .0313815
572.865 .0314428
573.654 .0315052
574.443 .0315669
575.232 .0316283
576.020 .0316896
576.807 .0317484
577.594 .0318075
578.381 .0318655
579.167 .0319220
579.952 .0319793
580.738 .0320328
581.522 .0320848
582.307 .0321330
583.091 .0321777
583.874 .0322183
584.657 .0322542
585.440 .0322857
586.222 .0323115
587.004 .0323344
587.785 .0323549
588.566 .0323717
589.346 .0323867
590.126 .0323983
590.906 .0324068
591.685 .0324116
592.464 .0324129
593.242 .0324105
594.020 .0324061
594.797 .0324014
595.575 .0323958
596.351 .0323901
597.128 .0323851
597.904 .0323802
598.679 .0323744
599.454 .0323668
600.229 .0323567
601.004 .0323433
601.778 .0323264
602.551 .0323054
603.325 .0322817
604.097 .0322554
604.870 .0322280
605.642 .0321994
606.414 .0321705
607.185 .0321421
607.956 .0321132
608.727 .0320844
609.497 .0320561
610.267 .0320276
611.037 .0319995
611.806 .0319715
612.575 .0319446
613.344 .0319183
614.112 .0318937
614.880 .0318708
615.647 .0318504
616.414 .0318328
617.181 .0318178
617.948 .0318049
618.714 .0317939
619.480 .0317842
620.245 .0317749
621.011 .0317656
621.775 .0317560
622.540 .0317451
623.304 .0317336
624.068 .0317215
624.832 .0317093
625.595 .0316973
626.358 .0316860
627.120 .0316748
627.883 .0316636
628.645 .0316518
629.406 .0316385
630.168 .0316236
630.929 .0316071
631.689 .0315896
632.450 .0315708
633.210 .0315524
633.970 .0315343
634.729 .0315179
635.489 .0315027
636.248 .0314880
637.006 .0314731
637.765 .0314575
638.523 .0314404
639.280 .0314213
640.038 .0314006
640.795 .0313790
641.552 .0313565
642.309 .0313344
643.065 .0313130
643.821 .0312928
644.577 .0312739
645.332 .0312563
646.088 .0312392
646.843 .0312220
647.597 .0312045
648.352 .0311859
649.106 .0311673
649.860 .0311491
650.613 .0311312
651.367 .0311144
652.120 .0310991
652.872 .0310851
653.625 .0310722
654.377 .0310600
655.129 .0310475
655.881 .0310345
656.632 .0310202
657.384 .0310038
658.135 .0309856
658.885 .0309656
659.636 .0309439
660.386 .0309205
661.136 .0308964
661.885 .0308716
662.635 .0308456
663.384 .0308200
664.133 .0307936
664.881 .0307673
665.630 .0307407
666.378 .0307131
667.126 .0306853
667.874 .0306565
668.621 .0306269
669.368 .0305962
670.115 .0305650
670.862 .0305334
671.608 .0305012
672.354 .0304695
673.100 .0304382
673.846 .0304082
674.591 .0303799
675.337 .0303537
676.082 .0303296
676.826 .0303073
677.571 .0302866
678.315 .0302669
679.059 .0302489
679.803 .0302316
680.547 .0302149
681.290 .0301986
682.033 .0301823
682.776 .0301658
683.518 .0301486
684.261 .0301312
685.003 .0301135
685.745 .0300955
686.487 .0300772
687.228 .0300581
687.969 .0300387
688.710 .0300185
689.451 .0299974
690.192 .0299750
690.932 .0299512
691.672 .0299261
692.412 .0299005
693.152 .0298751
693.891 .0298506
694.630 .0298279
695.369 .0298075
696.108 .0297897
696.846 .0297743
697.585 .0297603
698.323 .0297478
699.061 .0297361
699.798 .0297244
700.536 .0297124
701.273 .0297001
702.010 .0296878
702.746 .0296759
703.483 .0296647
704.219 .0296538
704.955 .0296431
705.691 .0296327
706.427 .0296215
707.162 .0296096
707.897 .0295968
708.632 .0295831
709.367 .0295686
710.101 .0295537
710.835 .0295386
711.569 .0295232
712.303 .0295080
713.037 .0294933
713.770 .0294786
714.503 .0294641
715.236 .0294493
715.969 .0294346
716.702 .0294202
717.434 .0294060
718.166 .0293918
718.898 .0293778
719.629 .0293642
720.361 .0293506
721.092 .0293367
721.823 .0293225
722.554 .0293078
723.284 .0292926
724.014 .0292765
724.744 .0292595
725.474 .0292417
726.204 .0292230
726.933 .0292033
727.662 .0291829
728.391 .0291618
729.120 .0291404
729.849 .0291188
730.577 .0290978
731.305 .0290773
732.033 .0290571
732.760 .0290373
733.488 .0290179
734.215 .0289990
734.942 .0289804
735.669 .0289619
736.395 .0289442
737.122 .0289272
737.848 .0289106
738.573 .0288942
739.299 .0288786
740.024 .0288631
740.750 .0288470
741.474 .0288301
742.199 .0288124
742.924 .0287935
743.648 .0287739
744.372 .0287537
745.096 .0287338
745.819 .0287143
746.543 .0286948
747.266 .0286759
747.989 .0286579
748.711 .0286407
749.434 .0286239
750.156 .0286074
750.878 .0285916
751.599 .0285767
752.321 .0285622
753.042 .0285490
753.763 .0285372
754.484 .0285271
755.205 .0285176
755.925 .0285090
756.645 .0285011
757.365 .0284931
758.085 .0284849
758.804 .0284756
759.523 .0284644
760.242 .0284507
760.961 .0284341
761.679 .0284142
762.397 .0283911
763.115 .0283654
763.833 .0283371
764.551 .0283074
765.268 .0282771
765.985 .0282463
766.702 .0282153
767.418 .0281845
768.134 .0281535
768.850 .0281216
769.566 .0280892
770.282 .0280558
770.997 .0280224
771.712 .0279894
772.427 .0279575
773.142 .0279270
773.856 .0278992
774.570 .0278738
775.284 .0278508
775.998 .0278295
776.711 .0278096
777.424 .0277900
778.137 .0277708
778.849 .0277511
779.562 .0277312
780.274 .0277114
780.986 .0276922
781.697 .0276732
782.409 .0276555
783.120 .0276387
783.831 .0276234
784.541 .0276089
785.252 .0275954
785.962 .0275824
786.671 .0275699
787.381 .0275574
788.090 .0275446
788.799 .0275320
789.508 .0275193
790.217 .0275060
790.925 .0274928
791.633 .0274795
792.341 .0274664
793.048 .0274534
793.755 .0274404
794.462 .0274276
795.169 .0274148
795.875 .0274019
796.581 .0273890
797.287 .0273765
797.993 .0273647
798.698 .0273533
799.403 .0273431
800.108 .0273342
800.812 .0273262
801.517 .0273190
802.221 .0273126
802.924 .0273065
803.628 .0273005
804.331 .0272945
805.034 .0272887
805.736 .0272830
806.439 .0272773
807.141 .0272717
807.843 .0272666
808.544 .0272619
809.245 .0272567
809.946 .0272507
810.647 .0272443
811.347 .0272368
812.047 .0272283
812.747 .0272190
813.447 .0272091
814.146 .0271988
814.845 .0271882
815.543 .0271776
816.242 .0271672
816.940 .0271569
817.638 .0271472
818.335 .0271378
819.032 .0271291
819.729 .0271207
820.426 .0271128
821.122 .0271054
821.818 .0270980
822.514 .0270902
823.209 .0270819
823.905 .0270732
824.599 .0270638
825.294 .0270539
825.988 .0270437
826.682 .0270339
827.376 .0270244
828.069 .0270151
828.762 .0270058
829.455 .0269960
830.147 .0269859
830.840 .0269749
831.531 .0269632
832.223 .0269511
832.914 .0269390
833.605 .0269273
834.296 .0269166
834.986 .0269078
835.676 .0269008
836.366 .0268956
837.055 .0268920
837.744 .0268895
838.433 .0268869
839.121 .0268843
839.809 .0268809
840.497 .0268771
841.185 .0268728
841.872 .0268682
842.559 .0268637
843.245 .0268597
843.932 .0268562
844.617 .0268530
845.303 .0268500
845.988 .0268469
846.673 .0268423
847.358 .0268365
848.042 .0268293
848.726 .0268211
849.410 .0268119
850.093 .0268026
850.776 .0267934
851.459 .0267850
852.141 .0267767
852.823 .0267688
853.505 .0267613
854.186 .0267535
854.867 .0267449
855.548 .0267353
856.228 .0267248
856.908 .0267137
857.588 .0267020
858.267 .0266904
858.946 .0266789
859.625 .0266681
860.303 .0266568
860.981 .0266459
861.659 .0266353
862.336 .0266247
863.013 .0266141
863.690 .0266041
864.366 .0265940
865.042 .0265840
865.718 .0265741
866.393 .0265644
867.068 .0265548
867.743 .0265452
868.417 .0265348
869.091 .0265238
869.765 .0265125
870.438 .0265003
871.111 .0264872
871.783 .0264743
872.456 .0264604
873.127 .0264459
873.799 .0264309
874.470 .0264151
875.141 .0263984
875.811 .0263813
876.481 .0263635
877.151 .0263451
877.820 .0263266
878.489 .0263076
879.158 .0262884
879.826 .0262698
880.494 .0262517
881.162 .0262341
881.829 .0262176
882.496 .0262021
883.163 .0261870
883.829 .0261731
884.495 .0261594
885.160 .0261458
885.825 .0261327
886.490 .0261197
887.154 .0261071
887.818 .0260951
888.482 .0260840
889.145 .0260737
889.808 .0260645
890.471 .0260562
891.133 .0260478
891.795 .0260394
892.456 .0260298
893.117 .0260185
893.778 .0260054
894.439 .0259906
895.099 .0259741
895.758 .0259567
896.417 .0259387
897.076 .0259203
897.735 .0259019
898.393 .0258836
899.051 .0258656
899.708 .0258472
900.365 .0258284
901.022 .0258088
901.678 .0257886
902.334 .0257682
902.990 .0257480
903.645 .0257287
904.300 .0257104
904.954 .0256930
905.608 .0256766
906.262 .0256609
906.915 .0256457
907.568 .0256304
908.221 .0256149
908.873 .0255991
909.525 .0255829
910.176 .0255663
910.828 .0255493
911.478 .0255318
912.129 .0255138
912.778 .0254951
913.428 .0254760
914.077 .0254567
914.726 .0254372
915.375 .0254179
916.023 .0253993
916.670 .0253815
917.318 .0253644
917.964 .0253485
918.611 .0253335
919.257 .0253192
919.903 .0253054
920.548 .0252920
921.193 .0252789
921.838 .0252664
922.482 .0252544
923.126 .0252431
923.770 .0252322
924.413 .0252208
925.056 .0252087
925.698 .0251963
926.340 .0251830
926.982 .0251690
927.623 .0251545
928.264 .0251398
928.904 .0251244
929.544 .0251089
930.184 .0250930
930.823 .0250771
931.462 .0250608
932.101 .0250436
932.739 .0250253
933.377 .0250063
934.014 .0249862
934.651 .0249659
935.288 .0249461
935.924 .0249270
936.560 .0249088
937.196 .0248921
937.831 .0248764
938.466 .0248617
939.100 .0248477
939.734 .0248339
940.368 .0248199
941.001 .0248059
941.634 .0247912
942.266 .0247760
942.899 .0247610
943.530 .0247461
944.162 .0247313
944.793 .0247170
945.423 .0247022
946.053 .0246867
946.683 .0246704
947.313 .0246530
947.942 .0246341
948.571 .0246141
949.199 .0245931
949.827 .0245709
950.455 .0245478
951.082 .0245247
951.709 .0245017
952.335 .0244793
952.961 .0244572
953.587 .0244354
954.212 .0244144
954.837 .0243945
955.462 .0243755
956.086 .0243582
956.710 .0243428
957.334 .0243294
957.957 .0243177
958.579 .0243073
959.202 .0242979
959.824 .0242893
960.445 .0242810
961.067 .0242737
961.688 .0242665
962.308 .0242598
962.928 .0242539
963.548 .0242489
964.168 .0242444
964.787 .0242396
965.406 .0242349
966.024 .0242295
966.642 .0242238
967.260 .0242175
967.877 .0242105
968.494 .0242036
969.110 .0241974
969.727 .0241918
970.342 .0241869
970.958 .0241831
971.573 .0241802
972.188 .0241777
972.802 .0241763
973.416 .0241750
974.030 .0241742
974.643 .0241735
975.256 .0241737
975.869 .0241741
976.481 .0241755
977.093 .0241780
977.705 .0241821
978.316 .0241880
978.927 .0241952
979.538 .0242025
980.148 .0242101
980.758 .0242169
981.367 .0242230
981.977 .0242273
982.586 .0242304
983.194 .0242325
983.802 .0242347
984.410 .0242369
985.018 .0242401
985.625 .0242438
986.232 .0242483
986.838 .0242530
987.445 .0242572
988.050 .0242604
988.656 .0242625
989.261 .0242636
989.866 .0242643
990.471 .0242649
991.075 .0242659
991.679 .0242674
992.282 .0242704
992.886 .0242746
993.489 .0242796
994.091 .0242852
994.694 .0242911
995.296 .0242973
995.897 .0243035
996.499 .0243094
997.100 .0243145
997.701 .0243202
998.301 .0243257
998.901 .0243314
999.501 .0243370
1000.101 .0243432
1000.700 .0243491
1001.299 .0243549
1001.898 .0243604
1002.496 .0243650
1003.094 .0243690
1003.692 .0243723
1004.289 .0243744
1004.887 .0243765
1005.484 .0243781
1006.080 .0243798
1006.677 .0243819
1007.273 .0243853
1007.868 .0243887
1008.464 .0243930
1009.059 .0243980
1009.654 .0244036
1010.249 .0244088
1010.843 .0244142
1011.437 .0244189
1012.031 .0244236
1012.625 .0244290
1013.218 .0244348
1013.811 .0244413
1014.404 .0244492
1014.997 .0244576
1015.589 .0244668
1016.181 .0244765
1016.773 .0244859
1017.365 .0244944
1017.956 .0245023
1018.547 .0245083
1019.138 .0245130
1019.728 .0245168
1020.319 .0245210
1020.909 .0245254
1021.499 .0245306
1022.088 .0245360
1022.678 .0245407
1023.267 .0245454
1023.856 .0245486
1024.445 .0245504
1025.033 .0245510
1025.621 .0245500
1026.209 .0245487
1026.797 .0245476
1027.385 .0245471
1027.972 .0245476
1028.560 .0245504
1029.147 .0245542
1029.734 .0245581
1030.320 .0245618
1030.907 .0245652
1031.493 .0245692
1032.079 .0245735
1032.665 .0245782
1033.250 .0245829
1033.836 .0245887
1034.421 .0245937
1035.006 .0245971
1035.591 .0245998
1036.176 .0246005
1036.761 .0245995
1037.345 .0245975
1037.929 .0245939
1038.514 .0245891
1039.097 .0245851
1039.681 .0245823
1040.265 .0245795
1040.848 .0245778
1041.432 .0245753
1042.015 .0245723
1042.598 .0245694
1043.181 .0245670
1043.764 .0245645
1044.346 .0245646
1044.929 .0245675
1045.511 .0245719
1046.094 .0245777
1046.676 .0245849
1047.258 .0245916
1047.840 .0245981
1048.422 .0246026
1049.003 .0246045
1049.585 .0246035
1050.166 .0246010
1050.748 .0245966
1051.329 .0245912
1051.910 .0245853
1052.491 .0245780
1053.072 .0245685
1053.653 .0245579
1054.234 .0245450
1054.815 .0245308
1055.396 .0245159
1055.976 .0245007
1056.557 .0244847
1057.138 .0244681
1057.718 .0244516
1058.298 .0244356
1058.879 .0244204
1059.459 .0244062
1060.039 .0243931
1060.620 .0243807
1061.200 .0243695
1061.780 .0243591
1062.360 .0243505
1062.940 .0243438
1063.520 .0243378
1064.101 .0243319
1064.681 .0243258
1065.261 .0243201
1065.841 .0243142
1066.421 .0243073
1067.001 .0243003
1067.581 .0242922
1068.161 .0242829
1068.741 .0242725
1069.321 .0242620
1069.901 .0242507
1070.482 .0242392
1071.062 .0242276
1071.642 .0242163
1072.222 .0242048
1072.803 .0241929
1073.383 .0241814
1073.963 .0241702
1074.544 .0241602
1075.124 .0241494
1075.705 .0241383
1076.286 .0241290
1076.866 .0241213
1077.447 .0241139
1078.028 .0241066
1078.609 .0240993
1079.190 .0240917
1079.771 .0240851
1080.352 .0240789
1080.934 .0240717
1081.515 .0240655
1082.097 .0240611
1082.679 .0240579
1083.260 .0240546
1083.842 .0240516
1084.424 .0240471
1085.007 .0240406
1085.589 .0240311
1086.172 .0240165
1086.754 .0239988
1087.337 .0239799
1087.920 .0239605
1088.503 .0239422
1089.087 .0239248
1089.670 .0239077
1090.254 .0238914
1090.838 .0238770
1091.422 .0238614
1092.006 .0238420
1092.590 .0238206
1093.175 .0237984
1093.760 .0237752
1094.345 .0237525
1094.930 .0237300
1095.516 .0237112
1096.102 .0236962
1096.688 .0236839
1097.274 .0236724
1097.860 .0236621
1098.447 .0236529
1099.034 .0236439
1099.622 .0236352
1100.209 .0236261
1100.797 .0236177
1101.385 .0236119
1101.973 .0236105
1102.562 .0236122
1103.151 .0236155
1103.740 .0236206
1104.330 .0236272
1104.920 .0236353
1105.510 .0236423
1106.101 .0236499
1106.691 .0236595
1107.283 .0236693
1107.874 .0236793
1108.466 .0236846
1109.058 .0236872
1109.651 .0236853
1110.244 .0236792
1110.837 .0236683
1111.431 .0236514
1112.025 .0236338
1112.620 .0236165
1113.215 .0236032
1113.810 .0235953
1114.406 .0235909
1115.002 .0235921
1115.599 .0235968
1116.196 .0236002
1116.793 .0236003
1117.391 .0235999
1117.989 .0236010
1118.588 .0236039
1119.187 .0236093
1119.787 .0236172
1120.387 .0236292
1120.988 .0236456
1121.589 .0236653
1122.190 .0236822
1122.793 .0237009
1123.395 .0237162
1123.998 .0237287
1124.602 .0237407
1125.206 .0237524
1125.811 .0237673
1126.416 .0237887
1127.022 .0238135
1127.628 .0238401
1128.235 .0238679
1128.843 .0238987
1129.451 .0239274
1130.059 .0239569
1130.669 .0239848
1131.278 .0240102
1131.889 .0240356
1132.500 .0240620
1133.112 .0240861
1133.724 .0241137
1134.337 .0241427
1134.950 .0241712
1135.564 .0241993
1136.179 .0242287
1136.795 .0242610
1137.411 .0242990
1138.028 .0243430
1138.645 .0243929
1139.263 .0244535
1139.882 .0245230
1140.502 .0246031
1141.122 .0246942
1141.743 .0248048
1142.365 .0249383
1142.987 .0249634
1143.611 .0251925
1144.235 .0253083
1144.859 .0256616
1145.485 .0260008
