Measurement Sequence started on: 10-20-44-796
Integration time: 35
Scans to Average: 2 
>>>>>Begin Spectral Data<<<<<
432.953 .0523490
433.882 .0360997
434.810 .0359632
435.737 .0380428
436.662 .0355341
437.586 .0360590
438.509 .0352000
439.431 .0349456
440.351 .0347358
441.269 .0345270
442.187 .0344416
443.103 .0343972
444.018 .0343666
444.932 .0343509
445.844 .0343274
446.756 .0342845
447.666 .0342393
448.575 .0341726
449.482 .0341086
450.388 .0340588
451.294 .0340415
452.198 .0340455
453.100 .0340718
454.002 .0341166
454.902 .0341626
455.801 .0342020
456.699 .0342269
457.596 .0342210
458.492 .0341899
459.387 .0341393
460.280 .0340858
461.172 .0340309
462.064 .0339847
462.954 .0339425
463.843 .0339046
464.730 .0338762
465.617 .0338422
466.503 .0337930
467.387 .0337269
468.271 .0336511
469.153 .0335701
470.035 .0334898
470.915 .0334209
471.794 .0333648
472.673 .0333251
473.550 .0333013
474.426 .0332895
475.301 .0332922
476.175 .0333032
477.048 .0333168
477.920 .0333281
478.791 .0333379
479.661 .0333432
480.530 .0333484
481.398 .0333572
482.266 .0333773
483.132 .0334024
483.997 .0334315
484.861 .0334621
485.724 .0334949
486.587 .0335242
487.448 .0335458
488.308 .0335535
489.168 .0335510
490.026 .0335325
490.884 .0335064
491.741 .0334737
492.597 .0334413
493.452 .0334097
494.306 .0333780
495.159 .0333436
496.011 .0333065
496.862 .0332608
497.713 .0332072
498.562 .0331395
499.411 .0330610
500.259 .0329649
501.106 .0328561
501.952 .0327416
502.798 .0326251
503.642 .0325104
504.486 .0324008
505.329 .0322956
506.171 .0322008
507.012 .0321083
507.852 .0320197
508.692 .0319328
509.531 .0318496
510.369 .0317638
511.206 .0316759
512.043 .0315896
512.878 .0315049
513.713 .0314235
514.547 .0313469
515.381 .0312711
516.213 .0311941
517.045 .0311156
517.876 .0310216
518.706 .0309083
519.536 .0307780
520.365 .0306228
521.193 .0304506
522.020 .0302641
522.847 .0300609
523.673 .0298458
524.498 .0296279
525.323 .0294063
526.146 .0291764
526.969 .0289551
527.792 .0287402
528.614 .0285348
529.435 .0283477
530.255 .0281796
531.075 .0280229
531.894 .0278925
532.712 .0277818
533.530 .0276739
534.347 .0275779
535.163 .0274987
535.979 .0274349
536.794 .0273950
537.608 .0273835
538.422 .0273949
539.235 .0274188
540.048 .0274552
540.860 .0274826
541.671 .0274972
542.481 .0275089
543.292 .0275138
544.101 .0275083
544.910 .0275104
545.718 .0275226
546.526 .0275415
547.333 .0275772
548.139 .0276206
548.945 .0276598
549.750 .0276914
550.555 .0277188
551.359 .0277334
552.162 .0277435
552.965 .0277590
553.768 .0277769
554.569 .0278030
555.371 .0278411
556.171 .0278866
556.972 .0279402
557.771 .0280036
558.570 .0280668
559.369 .0281308
560.167 .0282031
560.964 .0282757
561.761 .0283516
562.558 .0284368
563.354 .0285314
564.149 .0286239
564.944 .0287135
565.738 .0288002
566.532 .0288783
567.325 .0289528
568.118 .0290193
568.910 .0290818
569.702 .0291500
570.494 .0292238
571.285 .0293006
572.075 .0293844
572.865 .0294735
573.654 .0295601
574.443 .0296430
575.232 .0297193
576.020 .0297846
576.807 .0298450
577.594 .0299006
578.381 .0299507
579.167 .0300016
579.952 .0300534
580.738 .0301047
581.522 .0301585
582.307 .0302108
583.091 .0302569
583.874 .0302986
584.657 .0303354
585.440 .0303647
586.222 .0303887
587.004 .0304104
587.785 .0304288
588.566 .0304473
589.346 .0304657
590.126 .0304814
590.906 .0304969
591.685 .0305129
592.464 .0305241
593.242 .0305350
594.020 .0305455
594.797 .0305546
595.575 .0305626
596.351 .0305699
597.128 .0305749
597.904 .0305779
598.679 .0305790
599.454 .0305765
600.229 .0305715
601.004 .0305665
601.778 .0305592
602.551 .0305510
603.325 .0305437
604.097 .0305369
604.870 .0305299
605.642 .0305237
606.414 .0305160
607.185 .0305071
607.956 .0304973
608.727 .0304863
609.497 .0304742
610.267 .0304621
611.037 .0304503
611.806 .0304389
612.575 .0304281
613.344 .0304165
614.112 .0304034
614.880 .0303898
615.647 .0303749
616.414 .0303587
617.181 .0303413
617.948 .0303233
618.714 .0303058
619.480 .0302888
620.245 .0302717
621.011 .0302547
621.775 .0302380
622.540 .0302205
623.304 .0302020
624.068 .0301831
624.832 .0301640
625.595 .0301448
626.358 .0301274
627.120 .0301109
627.883 .0300954
628.645 .0300817
629.406 .0300677
630.168 .0300531
630.929 .0300377
631.689 .0300206
632.450 .0300013
633.210 .0299810
633.970 .0299595
634.729 .0299367
635.489 .0299140
636.248 .0298922
637.006 .0298708
637.765 .0298507
638.523 .0298319
639.280 .0298126
640.038 .0297935
640.795 .0297743
641.552 .0297538
642.309 .0297330
643.065 .0297117
643.821 .0296900
644.577 .0296675
645.332 .0296446
646.088 .0296205
646.843 .0295957
647.597 .0295708
648.352 .0295451
649.106 .0295187
649.860 .0294922
650.613 .0294662
651.367 .0294411
652.120 .0294177
652.872 .0293955
653.625 .0293743
654.377 .0293541
655.129 .0293341
655.881 .0293137
656.632 .0292930
657.384 .0292721
658.135 .0292513
658.885 .0292302
659.636 .0292093
660.386 .0291885
661.136 .0291694
661.885 .0291510
662.635 .0291335
663.384 .0291167
664.133 .0291005
664.881 .0290837
665.630 .0290675
666.378 .0290516
667.126 .0290359
667.874 .0290204
668.621 .0290053
669.368 .0289901
670.115 .0289757
670.862 .0289616
671.608 .0289487
672.354 .0289374
673.100 .0289278
673.846 .0289180
674.591 .0289084
675.337 .0288994
676.082 .0288893
676.826 .0288780
677.571 .0288662
678.315 .0288524
679.059 .0288381
679.803 .0288236
680.547 .0288092
681.290 .0287953
682.033 .0287817
682.776 .0287671
683.518 .0287511
684.261 .0287339
685.003 .0287152
685.745 .0286948
686.487 .0286747
687.228 .0286544
687.969 .0286345
688.710 .0286154
689.451 .0285969
690.192 .0285794
690.932 .0285628
691.672 .0285458
692.412 .0285278
693.152 .0285088
693.891 .0284889
694.630 .0284684
695.369 .0284483
696.108 .0284291
696.846 .0284106
697.585 .0283922
698.323 .0283746
699.061 .0283567
699.798 .0283390
700.536 .0283205
701.273 .0283013
702.010 .0282814
702.746 .0282606
703.483 .0282393
704.219 .0282181
704.955 .0281987
705.691 .0281814
706.427 .0281658
707.162 .0281529
707.897 .0281420
708.632 .0281334
709.367 .0281262
710.101 .0281197
710.835 .0281130
711.569 .0281055
712.303 .0280968
713.037 .0280865
713.770 .0280748
714.503 .0280617
715.236 .0280473
715.969 .0280319
716.702 .0280146
717.434 .0279957
718.166 .0279748
718.898 .0279531
719.629 .0279299
720.361 .0279055
721.092 .0278799
721.823 .0278541
722.554 .0278284
723.284 .0278031
724.014 .0277784
724.744 .0277545
725.474 .0277321
726.204 .0277110
726.933 .0276908
727.662 .0276716
728.391 .0276535
729.120 .0276365
729.849 .0276203
730.577 .0276054
731.305 .0275912
732.033 .0275777
732.760 .0275648
733.488 .0275517
734.215 .0275386
734.942 .0275255
735.669 .0275121
736.395 .0274989
737.122 .0274859
737.848 .0274724
738.573 .0274590
739.299 .0274453
740.024 .0274314
740.750 .0274171
741.474 .0274022
742.199 .0273866
742.924 .0273704
743.648 .0273540
744.372 .0273373
745.096 .0273209
745.819 .0273059
746.543 .0272914
747.266 .0272781
747.989 .0272657
748.711 .0272546
749.434 .0272446
750.156 .0272362
750.878 .0272295
751.599 .0272255
752.321 .0272236
753.042 .0272241
753.763 .0272272
754.484 .0272321
755.205 .0272375
755.925 .0272421
756.645 .0272448
757.365 .0272445
758.085 .0272409
758.804 .0272339
759.523 .0272234
760.242 .0272109
760.961 .0271963
761.679 .0271793
762.397 .0271611
763.115 .0271413
763.833 .0271196
764.551 .0270965
765.268 .0270725
765.985 .0270473
766.702 .0270217
767.418 .0269968
768.134 .0269731
768.850 .0269518
769.566 .0269334
770.282 .0269180
770.997 .0269051
771.712 .0268947
772.427 .0268856
773.142 .0268771
773.856 .0268688
774.570 .0268594
775.284 .0268489
775.998 .0268367
776.711 .0268232
777.424 .0268085
778.137 .0267932
778.849 .0267783
779.562 .0267636
780.274 .0267495
780.986 .0267363
781.697 .0267240
782.409 .0267130
783.120 .0267033
783.831 .0266950
784.541 .0266882
785.252 .0266830
785.962 .0266794
786.671 .0266767
787.381 .0266741
788.090 .0266712
788.799 .0266674
789.508 .0266622
790.217 .0266550
790.925 .0266460
791.633 .0266359
792.341 .0266241
793.048 .0266114
793.755 .0265973
794.462 .0265819
795.169 .0265655
795.875 .0265473
796.581 .0265270
797.287 .0265053
797.993 .0264827
798.698 .0264605
799.403 .0264392
800.108 .0264197
800.812 .0264023
801.517 .0263872
802.221 .0263742
802.924 .0263624
803.628 .0263511
804.331 .0263407
805.034 .0263303
805.736 .0263198
806.439 .0263084
807.141 .0262966
807.843 .0262845
808.544 .0262720
809.245 .0262586
809.946 .0262442
810.647 .0262288
811.347 .0262134
812.047 .0261980
812.747 .0261827
813.447 .0261676
814.146 .0261528
814.845 .0261379
815.543 .0261225
816.242 .0261060
816.940 .0260888
817.638 .0260711
818.335 .0260540
819.032 .0260373
819.729 .0260216
820.426 .0260081
821.122 .0259961
821.818 .0259855
822.514 .0259759
823.209 .0259663
823.905 .0259562
824.599 .0259452
825.294 .0259337
825.988 .0259210
826.682 .0259083
827.376 .0258957
828.069 .0258835
828.762 .0258723
829.455 .0258614
830.147 .0258503
830.840 .0258389
831.531 .0258272
832.223 .0258142
832.914 .0257997
833.605 .0257839
834.296 .0257668
834.986 .0257489
835.676 .0257305
836.366 .0257123
837.055 .0256944
837.744 .0256778
838.433 .0256620
839.121 .0256473
839.809 .0256336
840.497 .0256202
841.185 .0256072
841.872 .0255938
842.559 .0255809
843.245 .0255680
843.932 .0255554
844.617 .0255438
845.303 .0255329
845.988 .0255230
846.673 .0255139
847.358 .0255051
848.042 .0254969
848.726 .0254886
849.410 .0254798
850.093 .0254699
850.776 .0254592
851.459 .0254472
852.141 .0254340
852.823 .0254200
853.505 .0254054
854.186 .0253902
854.867 .0253747
855.548 .0253590
856.228 .0253441
856.908 .0253300
857.588 .0253165
858.267 .0253039
858.946 .0252927
859.625 .0252820
860.303 .0252727
860.981 .0252651
861.659 .0252595
862.336 .0252555
863.013 .0252531
863.690 .0252515
864.366 .0252504
865.042 .0252493
865.718 .0252477
866.393 .0252451
867.068 .0252416
867.743 .0252362
868.417 .0252299
869.091 .0252229
869.765 .0252158
870.438 .0252079
871.111 .0252000
871.783 .0251907
872.456 .0251795
873.127 .0251665
873.799 .0251514
874.470 .0251349
875.141 .0251177
875.811 .0251000
876.481 .0250832
877.151 .0250681
877.820 .0250552
878.489 .0250445
879.158 .0250365
879.826 .0250304
880.494 .0250256
881.162 .0250218
881.829 .0250190
882.496 .0250161
883.163 .0250137
883.829 .0250114
884.495 .0250090
885.160 .0250072
885.825 .0250053
886.490 .0250038
887.154 .0250029
887.818 .0250023
888.482 .0250017
889.145 .0250003
889.808 .0249988
890.471 .0249959
891.133 .0249915
891.795 .0249855
892.456 .0249775
893.117 .0249682
893.778 .0249582
894.439 .0249480
895.099 .0249381
895.758 .0249291
896.417 .0249212
897.076 .0249147
897.735 .0249099
898.393 .0249065
899.051 .0249044
899.708 .0249027
900.365 .0249012
901.022 .0248987
901.678 .0248954
902.334 .0248918
902.990 .0248878
903.645 .0248844
904.300 .0248816
904.954 .0248796
905.608 .0248790
906.262 .0248798
906.915 .0248815
907.568 .0248827
908.221 .0248834
908.873 .0248825
909.525 .0248800
910.176 .0248755
910.828 .0248702
911.478 .0248649
912.129 .0248603
912.778 .0248560
913.428 .0248523
914.077 .0248490
914.726 .0248454
915.375 .0248410
916.023 .0248361
916.670 .0248300
917.318 .0248235
917.964 .0248165
918.611 .0248093
919.257 .0248017
919.903 .0247942
920.548 .0247858
921.193 .0247770
921.838 .0247676
922.482 .0247577
923.126 .0247480
923.770 .0247400
924.413 .0247329
925.056 .0247270
925.698 .0247223
926.340 .0247182
926.982 .0247140
927.623 .0247090
928.264 .0247024
928.904 .0246948
929.544 .0246862
930.184 .0246763
930.823 .0246655
931.462 .0246544
932.101 .0246427
932.739 .0246312
933.377 .0246192
934.014 .0246066
934.651 .0245940
935.288 .0245817
935.924 .0245697
936.560 .0245581
937.196 .0245475
937.831 .0245371
938.466 .0245271
939.100 .0245175
939.734 .0245075
940.368 .0244980
941.001 .0244889
941.634 .0244805
942.266 .0244729
942.899 .0244659
943.530 .0244586
944.162 .0244504
944.793 .0244415
945.423 .0244301
946.053 .0244161
946.683 .0243996
947.313 .0243810
947.942 .0243599
948.571 .0243375
949.199 .0243140
949.827 .0242899
950.455 .0242660
951.082 .0242422
951.709 .0242190
952.335 .0241969
952.961 .0241759
953.587 .0241561
954.212 .0241372
954.837 .0241197
955.462 .0241023
956.086 .0240860
956.710 .0240714
957.334 .0240585
957.957 .0240478
958.579 .0240398
959.202 .0240340
959.824 .0240302
960.445 .0240276
961.067 .0240253
961.688 .0240230
962.308 .0240201
962.928 .0240165
963.548 .0240118
964.168 .0240068
964.787 .0240019
965.406 .0239966
966.024 .0239916
966.642 .0239862
967.260 .0239799
967.877 .0239724
968.494 .0239634
969.110 .0239525
969.727 .0239401
970.342 .0239267
970.958 .0239125
971.573 .0238979
972.188 .0238837
972.802 .0238701
973.416 .0238570
974.030 .0238445
974.643 .0238323
975.256 .0238206
975.869 .0238098
976.481 .0237989
977.093 .0237887
977.705 .0237785
978.316 .0237691
978.927 .0237595
979.538 .0237500
980.148 .0237404
980.758 .0237307
981.367 .0237212
981.977 .0237126
982.586 .0237047
983.194 .0236982
983.802 .0236928
984.410 .0236882
985.018 .0236841
985.625 .0236795
986.232 .0236740
986.838 .0236682
987.445 .0236620
988.050 .0236564
988.656 .0236508
989.261 .0236469
989.866 .0236434
990.471 .0236415
991.075 .0236401
991.679 .0236378
992.282 .0236348
992.886 .0236308
993.489 .0236263
994.091 .0236213
994.694 .0236167
995.296 .0236128
995.897 .0236103
996.499 .0236101
997.100 .0236105
997.701 .0236122
998.301 .0236151
998.901 .0236189
999.501 .0236219
1000.101 .0236250
1000.700 .0236278
1001.299 .0236302
1001.898 .0236331
1002.496 .0236356
1003.094 .0236371
1003.692 .0236375
1004.289 .0236366
1004.887 .0236342
1005.484 .0236299
1006.080 .0236245
1006.677 .0236173
1007.273 .0236098
1007.868 .0236023
1008.464 .0235946
1009.059 .0235878
1009.654 .0235825
1010.249 .0235786
1010.843 .0235747
1011.437 .0235716
1012.031 .0235685
1012.625 .0235662
1013.218 .0235647
1013.811 .0235637
1014.404 .0235633
1014.997 .0235639
1015.589 .0235657
1016.181 .0235683
1016.773 .0235716
1017.365 .0235764
1017.956 .0235808
1018.547 .0235854
1019.138 .0235887
1019.728 .0235923
1020.319 .0235957
1020.909 .0235990
1021.499 .0236014
1022.088 .0236033
1022.678 .0236037
1023.267 .0236025
1023.856 .0235990
1024.445 .0235943
1025.033 .0235882
1025.621 .0235810
1026.209 .0235730
1026.797 .0235642
1027.385 .0235539
1027.972 .0235431
1028.560 .0235304
1029.147 .0235168
1029.734 .0235022
1030.320 .0234872
1030.907 .0234728
1031.493 .0234602
1032.079 .0234503
1032.665 .0234440
1033.250 .0234424
1033.836 .0234456
1034.421 .0234519
1035.006 .0234620
1035.591 .0234746
1036.176 .0234883
1036.761 .0235024
1037.345 .0235157
1037.929 .0235276
1038.514 .0235377
1039.097 .0235449
1039.681 .0235489
1040.265 .0235505
1040.848 .0235504
1041.432 .0235481
1042.015 .0235450
1042.598 .0235410
1043.181 .0235351
1043.764 .0235277
1044.346 .0235192
1044.929 .0235079
1045.511 .0234937
1046.094 .0234772
1046.676 .0234590
1047.258 .0234407
1047.840 .0234235
1048.422 .0234086
1049.003 .0233977
1049.585 .0233902
1050.166 .0233854
1050.748 .0233808
1051.329 .0233777
1051.910 .0233727
1052.491 .0233648
1053.072 .0233547
1053.653 .0233422
1054.234 .0233283
1054.815 .0233149
1055.396 .0233033
1055.976 .0232958
1056.557 .0232910
1057.138 .0232900
1057.718 .0232919
1058.298 .0232961
1058.879 .0233010
1059.459 .0233054
1060.039 .0233094
1060.620 .0233130
1061.200 .0233148
1061.780 .0233167
1062.360 .0233184
1062.940 .0233198
1063.520 .0233221
1064.101 .0233226
1064.681 .0233225
1065.261 .0233202
1065.841 .0233142
1066.421 .0233059
1067.001 .0232955
1067.581 .0232822
1068.161 .0232661
1068.741 .0232480
1069.321 .0232303
1069.901 .0232111
1070.482 .0231929
1071.062 .0231753
1071.642 .0231590
1072.222 .0231455
1072.803 .0231333
1073.383 .0231207
1073.963 .0231097
1074.544 .0230978
1075.124 .0230856
1075.705 .0230710
1076.286 .0230551
1076.866 .0230375
1077.447 .0230185
1078.028 .0229996
1078.609 .0229821
1079.190 .0229660
1079.771 .0229537
1080.352 .0229438
1080.934 .0229364
1081.515 .0229306
1082.097 .0229268
1082.679 .0229252
1083.260 .0229265
1083.842 .0229300
1084.424 .0229365
1085.007 .0229445
1085.589 .0229571
1086.172 .0229725
1086.754 .0229891
1087.337 .0230073
1087.920 .0230262
1088.503 .0230453
1089.087 .0230618
1089.670 .0230745
1090.254 .0230836
1090.838 .0230868
1091.422 .0230837
1092.006 .0230717
1092.590 .0230515
1093.175 .0230261
1093.760 .0229951
1094.345 .0229619
1094.930 .0229271
1095.516 .0228934
1096.102 .0228625
1096.688 .0228351
1097.274 .0228105
1097.860 .0227893
1098.447 .0227697
1099.034 .0227517
1099.622 .0227349
1100.209 .0227205
1100.797 .0227106
1101.385 .0227072
1101.973 .0227130
1102.562 .0227303
1103.151 .0227578
1103.740 .0227967
1104.330 .0228407
1104.920 .0228903
1105.510 .0229415
1106.101 .0229879
1106.691 .0230262
1107.283 .0230570
1107.874 .0230789
1108.466 .0230906
1109.058 .0230950
1109.651 .0230980
1110.244 .0230975
1110.837 .0230942
1111.431 .0230866
1112.025 .0230721
1112.620 .0230499
1113.215 .0230178
1113.810 .0229713
1114.406 .0229161
1115.002 .0228559
1115.599 .0227908
1116.196 .0227280
1116.793 .0226749
1117.391 .0226324
1117.989 .0226012
1118.588 .0225809
1119.187 .0225694
1119.787 .0225608
1120.387 .0225609
1120.988 .0225652
1121.589 .0225761
1122.190 .0225957
1122.793 .0226228
1123.395 .0226594
1123.998 .0227075
1124.602 .0227612
1125.206 .0228186
1125.811 .0228822
1126.416 .0229437
1127.022 .0229989
1127.628 .0230519
1128.235 .0231001
1128.843 .0231480
1129.451 .0231956
1130.059 .0232415
1130.669 .0232819
1131.278 .0233235
1131.889 .0233616
1132.500 .0233945
1133.112 .0234295
1133.724 .0234619
1134.337 .0234939
1134.950 .0235292
1135.564 .0235640
1136.179 .0235951
1136.795 .0236309
1137.411 .0236706
1138.028 .0237093
1138.645 .0237559
1139.263 .0238106
1139.882 .0238767
1140.502 .0239517
1141.122 .0240283
1141.743 .0241109
1142.365 .0242270
1142.987 .0243477
1143.611 .0243724
1144.235 .0242762
1144.859 .0245319
1145.485 .0255323
