Measurement Sequence started on: 10-20-44-796
Integration time: 35
Scans to Average: 2 
>>>>>Begin Spectral Data<<<<<
432.953 .0587657
433.882 .0464409
434.810 .0416989
435.737 .0425732
436.662 .0395197
437.586 .0421192
438.509 .0413077
439.431 .0410384
440.351 .0409360
441.269 .0407938
442.187 .0406926
443.103 .0405333
444.018 .0404207
444.932 .0403007
445.844 .0402106
446.756 .0401479
447.666 .0401163
448.575 .0400832
449.482 .0400524
450.388 .0400151
451.294 .0399846
452.198 .0399708
453.100 .0399549
454.002 .0399532
454.902 .0399754
455.801 .0400082
456.699 .0400465
457.596 .0400734
458.492 .0400847
459.387 .0400770
460.280 .0400507
461.172 .0400070
462.064 .0399439
462.954 .0398709
463.843 .0397914
464.730 .0397108
465.617 .0396371
466.503 .0395593
467.387 .0394736
468.271 .0393825
469.153 .0392847
470.035 .0391817
470.915 .0390787
471.794 .0389790
472.673 .0388854
473.550 .0388063
474.426 .0387423
475.301 .0386858
476.175 .0386448
477.048 .0386148
477.920 .0385895
478.791 .0385666
479.661 .0385375
480.530 .0385054
481.398 .0384678
482.266 .0384262
483.132 .0383770
483.997 .0383205
484.861 .0382590
485.724 .0381964
486.587 .0381353
487.448 .0380780
488.308 .0380208
489.168 .0379659
490.026 .0379111
490.884 .0378490
491.741 .0377802
492.597 .0377095
493.452 .0376330
494.306 .0375604
495.159 .0374854
496.011 .0374145
496.862 .0373474
497.713 .0372851
498.562 .0372216
499.411 .0371528
500.259 .0370745
501.106 .0369835
501.952 .0368793
502.798 .0367703
503.642 .0366502
504.486 .0365246
505.329 .0363948
506.171 .0362572
507.012 .0361071
507.852 .0359501
508.692 .0357772
509.531 .0355944
510.369 .0354019
511.206 .0352024
512.043 .0349972
512.878 .0347965
513.713 .0346029
514.547 .0344174
515.381 .0342414
516.213 .0340731
517.045 .0339071
517.876 .0337482
518.706 .0335958
519.536 .0334527
520.365 .0333206
521.193 .0332030
522.020 .0330966
522.847 .0330027
523.673 .0329207
524.498 .0328512
525.323 .0327924
526.146 .0327498
526.969 .0327248
527.792 .0327072
528.614 .0326989
529.435 .0326965
530.255 .0326961
531.075 .0326830
531.894 .0326592
532.712 .0326146
533.530 .0325441
534.347 .0324551
535.163 .0323315
535.979 .0321807
536.794 .0320223
537.608 .0318436
538.422 .0316526
539.235 .0314586
540.048 .0312781
540.860 .0311033
541.671 .0309511
542.481 .0308247
543.292 .0307183
544.101 .0306372
544.910 .0305781
545.718 .0305280
546.526 .0305075
547.333 .0305086
548.139 .0305274
548.945 .0305623
549.750 .0306161
550.555 .0306745
551.359 .0307425
552.162 .0308195
552.965 .0308982
553.768 .0309742
554.569 .0310503
555.371 .0311245
556.171 .0311983
556.972 .0312690
557.771 .0313385
558.570 .0314044
559.369 .0314711
560.167 .0315301
560.964 .0315857
561.761 .0316456
562.558 .0317060
563.354 .0317707
564.149 .0318314
564.944 .0318955
565.738 .0319580
566.532 .0320198
567.325 .0320771
568.118 .0321273
568.910 .0321665
569.702 .0321967
570.494 .0322195
571.285 .0322345
572.075 .0322434
572.865 .0322530
573.654 .0322644
574.443 .0322785
575.232 .0322959
576.020 .0323218
576.807 .0323514
577.594 .0323905
578.381 .0324324
579.167 .0324746
579.952 .0325193
580.738 .0325669
581.522 .0326171
582.307 .0326672
583.091 .0327204
583.874 .0327732
584.657 .0328266
585.440 .0328802
586.222 .0329281
587.004 .0329701
587.785 .0330081
588.566 .0330383
589.346 .0330592
590.126 .0330708
590.906 .0330756
591.685 .0330739
592.464 .0330690
593.242 .0330603
594.020 .0330489
594.797 .0330379
595.575 .0330268
596.351 .0330134
597.128 .0329987
597.904 .0329830
598.679 .0329677
599.454 .0329511
600.229 .0329347
601.004 .0329171
601.778 .0329010
602.551 .0328863
603.325 .0328721
604.097 .0328586
604.870 .0328456
605.642 .0328321
606.414 .0328190
607.185 .0328059
607.956 .0327933
608.727 .0327817
609.497 .0327713
610.267 .0327612
611.037 .0327510
611.806 .0327389
612.575 .0327246
613.344 .0327071
614.112 .0326858
614.880 .0326597
615.647 .0326306
616.414 .0326008
617.181 .0325698
617.948 .0325395
618.714 .0325102
619.480 .0324820
620.245 .0324548
621.011 .0324271
621.775 .0323991
622.540 .0323700
623.304 .0323405
624.068 .0323095
624.832 .0322773
625.595 .0322456
626.358 .0322135
627.120 .0321820
627.883 .0321510
628.645 .0321201
629.406 .0320888
630.168 .0320572
630.929 .0320258
631.689 .0319940
632.450 .0319607
633.210 .0319262
633.970 .0318903
634.729 .0318528
635.489 .0318139
636.248 .0317735
637.006 .0317329
637.765 .0316930
638.523 .0316534
639.280 .0316153
640.038 .0315790
640.795 .0315459
641.552 .0315142
642.309 .0314836
643.065 .0314540
643.821 .0314237
644.577 .0313929
645.332 .0313622
646.088 .0313307
646.843 .0312984
647.597 .0312665
648.352 .0312354
649.106 .0312057
649.860 .0311777
650.613 .0311508
651.367 .0311260
652.120 .0311042
652.872 .0310832
653.625 .0310626
654.377 .0310429
655.129 .0310245
655.881 .0310058
656.632 .0309881
657.384 .0309710
658.135 .0309545
658.885 .0309402
659.636 .0309274
660.386 .0309144
661.136 .0309025
661.885 .0308889
662.635 .0308741
663.384 .0308577
664.133 .0308397
664.881 .0308199
665.630 .0308005
666.378 .0307823
667.126 .0307650
667.874 .0307497
668.621 .0307378
669.368 .0307272
670.115 .0307186
670.862 .0307111
671.608 .0307042
672.354 .0306985
673.100 .0306939
673.846 .0306895
674.591 .0306863
675.337 .0306837
676.082 .0306811
676.826 .0306780
677.571 .0306741
678.315 .0306683
679.059 .0306601
679.803 .0306502
680.547 .0306384
681.290 .0306251
682.033 .0306116
682.776 .0305984
683.518 .0305855
684.261 .0305724
685.003 .0305587
685.745 .0305441
686.487 .0305288
687.228 .0305124
687.969 .0304950
688.710 .0304773
689.451 .0304595
690.192 .0304415
690.932 .0304239
691.672 .0304071
692.412 .0303910
693.152 .0303743
693.891 .0303565
694.630 .0303372
695.369 .0303160
696.108 .0302924
696.846 .0302668
697.585 .0302400
698.323 .0302125
699.061 .0301844
699.798 .0301568
700.536 .0301304
701.273 .0301050
702.010 .0300806
702.746 .0300561
703.483 .0300316
704.219 .0300067
704.955 .0299807
705.691 .0299540
706.427 .0299269
707.162 .0298997
707.897 .0298721
708.632 .0298449
709.367 .0298187
710.101 .0297933
710.835 .0297687
711.569 .0297449
712.303 .0297209
713.037 .0296967
713.770 .0296723
714.503 .0296474
715.236 .0296220
715.969 .0295952
716.702 .0295670
717.434 .0295369
718.166 .0295051
718.898 .0294718
719.629 .0294370
720.361 .0294015
721.092 .0293655
721.823 .0293289
722.554 .0292921
723.284 .0292564
724.014 .0292206
724.744 .0291850
725.474 .0291488
726.204 .0291121
726.933 .0290751
727.662 .0290387
728.391 .0290037
729.120 .0289704
729.849 .0289407
730.577 .0289144
731.305 .0288911
732.033 .0288712
732.760 .0288529
733.488 .0288364
734.215 .0288201
734.942 .0288033
735.669 .0287842
736.395 .0287644
737.122 .0287439
737.848 .0287231
738.573 .0287034
739.299 .0286849
740.024 .0286680
740.750 .0286532
741.474 .0286393
742.199 .0286260
742.924 .0286135
743.648 .0286023
744.372 .0285909
745.096 .0285807
745.819 .0285708
746.543 .0285616
747.266 .0285545
747.989 .0285493
748.711 .0285458
749.434 .0285442
750.156 .0285451
750.878 .0285471
751.599 .0285506
752.321 .0285552
753.042 .0285602
753.763 .0285663
754.484 .0285724
755.205 .0285775
755.925 .0285816
756.645 .0285853
757.365 .0285886
758.085 .0285917
758.804 .0285956
759.523 .0285986
760.242 .0286016
760.961 .0286032
761.679 .0286038
762.397 .0286028
763.115 .0286005
763.833 .0285967
764.551 .0285920
765.268 .0285868
765.985 .0285815
766.702 .0285770
767.418 .0285736
768.134 .0285705
768.850 .0285677
769.566 .0285641
770.282 .0285597
770.997 .0285536
771.712 .0285477
772.427 .0285413
773.142 .0285357
773.856 .0285311
774.570 .0285268
775.284 .0285229
775.998 .0285191
776.711 .0285150
777.424 .0285096
778.137 .0285032
778.849 .0284955
779.562 .0284859
780.274 .0284758
780.986 .0284647
781.697 .0284534
782.409 .0284423
783.120 .0284315
783.831 .0284204
784.541 .0284096
785.252 .0283995
785.962 .0283892
786.671 .0283799
787.381 .0283713
788.090 .0283628
788.799 .0283546
789.508 .0283466
790.217 .0283387
790.925 .0283307
791.633 .0283230
792.341 .0283146
793.048 .0283055
793.755 .0282955
794.462 .0282846
795.169 .0282722
795.875 .0282591
796.581 .0282451
797.287 .0282305
797.993 .0282153
798.698 .0281999
799.403 .0281841
800.108 .0281684
800.812 .0281522
801.517 .0281357
802.221 .0281185
802.924 .0281009
803.628 .0280829
804.331 .0280654
805.034 .0280485
805.736 .0280323
806.439 .0280166
807.141 .0280016
807.843 .0279872
808.544 .0279726
809.245 .0279573
809.946 .0279412
810.647 .0279240
811.347 .0279060
812.047 .0278873
812.747 .0278681
813.447 .0278491
814.146 .0278304
814.845 .0278122
815.543 .0277939
816.242 .0277754
816.940 .0277567
817.638 .0277376
818.335 .0277178
819.032 .0276974
819.729 .0276755
820.426 .0276534
821.122 .0276309
821.818 .0276078
822.514 .0275845
823.209 .0275606
823.905 .0275368
824.599 .0275127
825.294 .0274877
825.988 .0274621
826.682 .0274352
827.376 .0274087
828.069 .0273818
828.762 .0273547
829.455 .0273281
830.147 .0273022
830.840 .0272776
831.531 .0272533
832.223 .0272293
832.914 .0272057
833.605 .0271828
834.296 .0271601
834.986 .0271376
835.676 .0271157
836.366 .0270954
837.055 .0270768
837.744 .0270595
838.433 .0270441
839.121 .0270298
839.809 .0270164
840.497 .0270034
841.185 .0269899
841.872 .0269765
842.559 .0269622
843.245 .0269486
843.932 .0269349
844.617 .0269216
845.303 .0269090
845.988 .0268972
846.673 .0268862
847.358 .0268754
848.042 .0268643
848.726 .0268524
849.410 .0268395
850.093 .0268257
850.776 .0268109
851.459 .0267955
852.141 .0267798
852.823 .0267640
853.505 .0267482
854.186 .0267328
854.867 .0267175
855.548 .0267026
856.228 .0266880
856.908 .0266735
857.588 .0266591
858.267 .0266441
858.946 .0266292
859.625 .0266142
860.303 .0265996
860.981 .0265858
861.659 .0265730
862.336 .0265615
863.013 .0265521
863.690 .0265442
864.366 .0265377
865.042 .0265318
865.718 .0265268
866.393 .0265219
867.068 .0265168
867.743 .0265113
868.417 .0265061
869.091 .0265013
869.765 .0264982
870.438 .0264959
871.111 .0264953
871.783 .0264959
872.456 .0264966
873.127 .0264968
873.799 .0264963
874.470 .0264945
875.141 .0264920
875.811 .0264887
876.481 .0264858
877.151 .0264833
877.820 .0264819
878.489 .0264815
879.158 .0264812
879.826 .0264809
880.494 .0264798
881.162 .0264771
881.829 .0264734
882.496 .0264684
883.163 .0264624
883.829 .0264562
884.495 .0264503
885.160 .0264448
885.825 .0264394
886.490 .0264347
887.154 .0264312
887.818 .0264288
888.482 .0264276
889.145 .0264281
889.808 .0264308
890.471 .0264359
891.133 .0264423
891.795 .0264498
892.456 .0264579
893.117 .0264665
893.778 .0264742
894.439 .0264808
895.099 .0264866
895.758 .0264916
896.417 .0264956
897.076 .0264991
897.735 .0265027
898.393 .0265060
899.051 .0265088
899.708 .0265107
900.365 .0265106
901.022 .0265087
901.678 .0265047
902.334 .0264987
902.990 .0264916
903.645 .0264839
904.300 .0264761
904.954 .0264689
905.608 .0264636
906.262 .0264607
906.915 .0264596
907.568 .0264602
908.221 .0264616
908.873 .0264628
909.525 .0264645
910.176 .0264653
910.828 .0264653
911.478 .0264648
912.129 .0264634
912.778 .0264611
913.428 .0264587
914.077 .0264565
914.726 .0264545
915.375 .0264527
916.023 .0264511
916.670 .0264488
917.318 .0264457
917.964 .0264418
918.611 .0264367
919.257 .0264308
919.903 .0264239
920.548 .0264152
921.193 .0264055
921.838 .0263949
922.482 .0263837
923.126 .0263726
923.770 .0263623
924.413 .0263531
925.056 .0263447
925.698 .0263375
926.340 .0263308
926.982 .0263250
927.623 .0263196
928.264 .0263141
928.904 .0263084
929.544 .0263014
930.184 .0262938
930.823 .0262853
931.462 .0262764
932.101 .0262674
932.739 .0262581
933.377 .0262488
934.014 .0262389
934.651 .0262289
935.288 .0262182
935.924 .0262074
936.560 .0261959
937.196 .0261833
937.831 .0261692
938.466 .0261536
939.100 .0261365
939.734 .0261179
940.368 .0260990
941.001 .0260789
941.634 .0260586
942.266 .0260379
942.899 .0260166
943.530 .0259953
944.162 .0259732
944.793 .0259510
945.423 .0259279
946.053 .0259043
946.683 .0258797
947.313 .0258544
947.942 .0258290
948.571 .0258029
949.199 .0257772
949.827 .0257510
950.455 .0257250
951.082 .0256998
951.709 .0256757
952.335 .0256524
952.961 .0256302
953.587 .0256096
954.212 .0255893
954.837 .0255701
955.462 .0255505
956.086 .0255303
956.710 .0255100
957.334 .0254890
957.957 .0254677
958.579 .0254454
959.202 .0254235
959.824 .0254009
960.445 .0253778
961.067 .0253539
961.688 .0253289
962.308 .0253033
962.928 .0252770
963.548 .0252499
964.168 .0252217
964.787 .0251935
965.406 .0251655
966.024 .0251377
966.642 .0251107
967.260 .0250849
967.877 .0250601
968.494 .0250362
969.110 .0250139
969.727 .0249917
970.342 .0249702
970.958 .0249488
971.573 .0249277
972.188 .0249068
972.802 .0248860
973.416 .0248660
974.030 .0248471
974.643 .0248303
975.256 .0248152
975.869 .0248014
976.481 .0247897
977.093 .0247787
977.705 .0247671
978.316 .0247541
978.927 .0247395
979.538 .0247224
980.148 .0247035
980.758 .0246829
981.367 .0246625
981.977 .0246432
982.586 .0246257
983.194 .0246106
983.802 .0245972
984.410 .0245851
985.018 .0245726
985.625 .0245590
986.232 .0245435
986.838 .0245258
987.445 .0245065
988.050 .0244858
988.656 .0244650
989.261 .0244451
989.866 .0244266
990.471 .0244100
991.075 .0243951
991.679 .0243813
992.282 .0243684
992.886 .0243558
993.489 .0243427
994.091 .0243293
994.694 .0243156
995.296 .0243016
995.897 .0242876
996.499 .0242743
997.100 .0242614
997.701 .0242492
998.301 .0242384
998.901 .0242290
999.501 .0242210
1000.101 .0242145
1000.700 .0242090
1001.299 .0242046
1001.898 .0242002
1002.496 .0241951
1003.094 .0241893
1003.692 .0241831
1004.289 .0241758
1004.887 .0241689
1005.484 .0241626
1006.080 .0241574
1006.677 .0241539
1007.273 .0241526
1007.868 .0241532
1008.464 .0241557
1009.059 .0241587
1009.654 .0241617
1010.249 .0241651
1010.843 .0241682
1011.437 .0241703
1012.031 .0241725
1012.625 .0241752
1013.218 .0241773
1013.811 .0241791
1014.404 .0241811
1014.997 .0241829
1015.589 .0241838
1016.181 .0241833
1016.773 .0241809
1017.365 .0241774
1017.956 .0241720
1018.547 .0241652
1019.138 .0241582
1019.728 .0241512
1020.319 .0241446
1020.909 .0241389
1021.499 .0241333
1022.088 .0241286
1022.678 .0241232
1023.267 .0241172
1023.856 .0241100
1024.445 .0241018
1025.033 .0240917
1025.621 .0240806
1026.209 .0240707
1026.797 .0240617
1027.385 .0240535
1027.972 .0240486
1028.560 .0240449
1029.147 .0240429
1029.734 .0240422
1030.320 .0240413
1030.907 .0240397
1031.493 .0240387
1032.079 .0240372
1032.665 .0240359
1033.250 .0240366
1033.836 .0240401
1034.421 .0240454
1035.006 .0240534
1035.591 .0240636
1036.176 .0240738
1036.761 .0240849
1037.345 .0240953
1037.929 .0241037
1038.514 .0241110
1039.097 .0241167
1039.681 .0241210
1040.265 .0241248
1040.848 .0241290
1041.432 .0241332
1042.015 .0241374
1042.598 .0241424
1043.181 .0241479
1043.764 .0241529
1044.346 .0241591
1044.929 .0241658
1045.511 .0241724
1046.094 .0241802
1046.676 .0241871
1047.258 .0241935
1047.840 .0241977
1048.422 .0242010
1049.003 .0242025
1049.585 .0242015
1050.166 .0241996
1050.748 .0241968
1051.329 .0241938
1051.910 .0241916
1052.491 .0241895
1053.072 .0241878
1053.653 .0241856
1054.234 .0241820
1054.815 .0241756
1055.396 .0241678
1055.976 .0241574
1056.557 .0241462
1057.138 .0241350
1057.718 .0241261
1058.298 .0241191
1058.879 .0241151
1059.459 .0241143
1060.039 .0241169
1060.620 .0241207
1061.200 .0241260
1061.780 .0241317
1062.360 .0241383
1062.940 .0241444
1063.520 .0241503
1064.101 .0241569
1064.681 .0241632
1065.261 .0241699
1065.841 .0241778
1066.421 .0241861
1067.001 .0241952
1067.581 .0242038
1068.161 .0242128
1068.741 .0242227
1069.321 .0242325
1069.901 .0242409
1070.482 .0242499
1071.062 .0242587
1071.642 .0242669
1072.222 .0242740
1072.803 .0242794
1073.383 .0242859
1073.963 .0242916
1074.544 .0242985
1075.124 .0243058
1075.705 .0243161
1076.286 .0243292
1076.866 .0243437
1077.447 .0243621
1078.028 .0243812
1078.609 .0244013
1079.190 .0244230
1079.771 .0244452
1080.352 .0244644
1080.934 .0244815
1081.515 .0244964
1082.097 .0245072
1082.679 .0245179
1083.260 .0245256
1083.842 .0245327
1084.424 .0245383
1085.007 .0245451
1085.589 .0245490
1086.172 .0245494
1086.754 .0245497
1087.337 .0245434
1087.920 .0245343
1088.503 .0245227
1089.087 .0245074
1089.670 .0244905
1090.254 .0244750
1090.838 .0244622
1091.422 .0244501
1092.006 .0244424
1092.590 .0244367
1093.175 .0244335
1093.760 .0244318
1094.345 .0244316
1094.930 .0244305
1095.516 .0244290
1096.102 .0244277
1096.688 .0244245
1097.274 .0244224
1097.860 .0244197
1098.447 .0244144
1099.034 .0244097
1099.622 .0244035
1100.209 .0243968
1100.797 .0243881
1101.385 .0243789
1101.973 .0243715
1102.562 .0243653
1103.151 .0243596
1103.740 .0243566
1104.330 .0243556
1104.920 .0243546
1105.510 .0243548
1106.101 .0243572
1106.691 .0243612
1107.283 .0243678
1107.874 .0243791
1108.466 .0243950
1109.058 .0244142
1109.651 .0244356
1110.244 .0244576
1110.837 .0244789
1111.431 .0245002
1112.025 .0245162
1112.620 .0245337
1113.215 .0245538
1113.810 .0245734
1114.406 .0245951
1115.002 .0246169
1115.599 .0246387
1116.196 .0246583
1116.793 .0246728
1117.391 .0246824
1117.989 .0246875
1118.588 .0246883
1119.187 .0246865
1119.787 .0246856
1120.387 .0246873
1120.988 .0246897
1121.589 .0246952
1122.190 .0247020
1122.793 .0247080
1123.395 .0247142
1123.998 .0247231
1124.602 .0247376
1125.206 .0247630
1125.811 .0247972
1126.416 .0248464
1127.022 .0249062
1127.628 .0249728
1128.235 .0250398
1128.843 .0251044
1129.451 .0251604
1130.059 .0252097
1130.669 .0252523
1131.278 .0252915
1131.889 .0253275
1132.500 .0253682
1133.112 .0254050
1133.724 .0254387
1134.337 .0254686
1134.950 .0254840
1135.564 .0254929
1136.179 .0254952
1136.795 .0254881
1137.411 .0254807
1138.028 .0254802
1138.645 .0254957
1139.263 .0255178
1139.882 .0255545
1140.502 .0256040
1141.122 .0256729
1141.743 .0257690
1142.365 .0258489
1142.987 .0258429
1143.611 .0259619
1144.235 .0263638
1144.859 .0266544
1145.485 .0258528
