Measurement Sequence started on: 10-20-44-796
Integration time: 35
Scans to Average: 2 
>>>>>Begin Spectral Data<<<<<
432.953 .0157866
433.882 .0287920
434.810 .0324235
435.737 .0343261
436.662 .0352196
437.586 .0341413
438.509 .0352463
439.431 .0357369
440.351 .0360377
441.269 .0362402
442.187 .0363872
443.103 .0365246
444.018 .0366265
444.932 .0367170
445.844 .0367961
446.756 .0368558
447.666 .0369149
448.575 .0369399
449.482 .0369374
450.388 .0368954
451.294 .0368293
452.198 .0367506
453.100 .0366570
454.002 .0365715
454.902 .0364877
455.801 .0364087
456.699 .0363399
457.596 .0362721
458.492 .0362097
459.387 .0361337
460.280 .0360495
461.172 .0359549
462.064 .0358527
462.954 .0357481
463.843 .0356481
464.730 .0355619
465.617 .0354891
466.503 .0354226
467.387 .0353616
468.271 .0353070
469.153 .0352507
470.035 .0351892
470.915 .0351258
471.794 .0350568
472.673 .0349831
473.550 .0349053
474.426 .0348335
475.301 .0347722
476.175 .0347220
477.048 .0346808
477.920 .0346462
478.791 .0346182
479.661 .0345916
480.530 .0345632
481.398 .0345367
482.266 .0345116
483.132 .0344869
483.997 .0344636
484.861 .0344429
485.724 .0344281
486.587 .0344175
487.448 .0344083
488.308 .0343980
489.168 .0343825
490.026 .0343579
490.884 .0343236
491.741 .0342799
492.597 .0342293
493.452 .0341716
494.306 .0341081
495.159 .0340400
496.011 .0339720
496.862 .0339012
497.713 .0338281
498.562 .0337538
499.411 .0336784
500.259 .0335992
501.106 .0335203
501.952 .0334435
502.798 .0333703
503.642 .0333025
504.486 .0332389
505.329 .0331761
506.171 .0331172
507.012 .0330564
507.852 .0329929
508.692 .0329292
509.531 .0328626
510.369 .0327899
511.206 .0327152
512.043 .0326395
512.878 .0325607
513.713 .0324792
514.547 .0323936
515.381 .0323002
516.213 .0321985
517.045 .0320861
517.876 .0319609
518.706 .0318289
519.536 .0316925
520.365 .0315504
521.193 .0314092
522.020 .0312730
522.847 .0311341
523.673 .0310000
524.498 .0308628
525.323 .0307223
526.146 .0305737
526.969 .0304192
527.792 .0302598
528.614 .0300929
529.435 .0299310
530.255 .0297750
531.075 .0296239
531.894 .0294884
532.712 .0293603
533.530 .0292470
534.347 .0291425
535.163 .0290453
535.979 .0289542
536.794 .0288719
537.608 .0287998
538.422 .0287365
539.235 .0286806
540.048 .0286394
540.860 .0286122
541.671 .0285978
542.481 .0285970
543.292 .0286056
544.101 .0286245
544.910 .0286545
545.718 .0286884
546.526 .0287260
547.333 .0287602
548.139 .0287968
548.945 .0288280
549.750 .0288558
550.555 .0288831
551.359 .0289112
552.162 .0289416
552.965 .0289739
553.768 .0290042
554.569 .0290356
555.371 .0290685
556.171 .0291018
556.972 .0291322
557.771 .0291619
558.570 .0291889
559.369 .0292210
560.167 .0292583
560.964 .0293011
561.761 .0293474
562.558 .0293979
563.354 .0294500
564.149 .0295012
564.944 .0295523
565.738 .0296066
566.532 .0296641
567.325 .0297268
568.118 .0297923
568.910 .0298648
569.702 .0299449
570.494 .0300290
571.285 .0301136
572.075 .0301979
572.865 .0302745
573.654 .0303421
574.443 .0304013
575.232 .0304539
576.020 .0305039
576.807 .0305558
577.594 .0306116
578.381 .0306713
579.167 .0307349
579.952 .0308029
580.738 .0308719
581.522 .0309406
582.307 .0310041
583.091 .0310597
583.874 .0311088
584.657 .0311517
585.440 .0311871
586.222 .0312176
587.004 .0312467
587.785 .0312744
588.566 .0312995
589.346 .0313231
590.126 .0313434
590.906 .0313594
591.685 .0313712
592.464 .0313772
593.242 .0313766
594.020 .0313718
594.797 .0313642
595.575 .0313544
596.351 .0313436
597.128 .0313329
597.904 .0313209
598.679 .0313094
599.454 .0312971
600.229 .0312825
601.004 .0312664
601.778 .0312504
602.551 .0312337
603.325 .0312168
604.097 .0312019
604.870 .0311875
605.642 .0311733
606.414 .0311596
607.185 .0311446
607.956 .0311284
608.727 .0311110
609.497 .0310932
610.267 .0310746
611.037 .0310578
611.806 .0310423
612.575 .0310277
613.344 .0310147
614.112 .0310018
614.880 .0309881
615.647 .0309732
616.414 .0309569
617.181 .0309396
617.948 .0309223
618.714 .0309063
619.480 .0308913
620.245 .0308785
621.011 .0308665
621.775 .0308553
622.540 .0308435
623.304 .0308306
624.068 .0308160
624.832 .0307994
625.595 .0307816
626.358 .0307633
627.120 .0307457
627.883 .0307289
628.645 .0307137
629.406 .0307008
630.168 .0306884
630.929 .0306773
631.689 .0306665
632.450 .0306559
633.210 .0306449
633.970 .0306329
634.729 .0306196
635.489 .0306051
636.248 .0305890
637.006 .0305713
637.765 .0305527
638.523 .0305338
639.280 .0305137
640.038 .0304931
640.795 .0304727
641.552 .0304523
642.309 .0304315
643.065 .0304109
643.821 .0303891
644.577 .0303671
645.332 .0303440
646.088 .0303200
646.843 .0302963
647.597 .0302731
648.352 .0302508
649.106 .0302303
649.860 .0302109
650.613 .0301930
651.367 .0301763
652.120 .0301611
652.872 .0301467
653.625 .0301323
654.377 .0301178
655.129 .0301023
655.881 .0300864
656.632 .0300699
657.384 .0300518
658.135 .0300339
658.885 .0300155
659.636 .0299965
660.386 .0299772
661.136 .0299573
661.885 .0299372
662.635 .0299169
663.384 .0298968
664.133 .0298762
664.881 .0298554
665.630 .0298350
666.378 .0298147
667.126 .0297944
667.874 .0297739
668.621 .0297528
669.368 .0297313
670.115 .0297092
670.862 .0296864
671.608 .0296635
672.354 .0296411
673.100 .0296194
673.846 .0295993
674.591 .0295805
675.337 .0295633
676.082 .0295470
676.826 .0295313
677.571 .0295156
678.315 .0294992
679.059 .0294821
679.803 .0294641
680.547 .0294456
681.290 .0294268
682.033 .0294074
682.776 .0293888
683.518 .0293709
684.261 .0293537
685.003 .0293375
685.745 .0293221
686.487 .0293068
687.228 .0292910
687.969 .0292748
688.710 .0292575
689.451 .0292392
690.192 .0292201
690.932 .0292000
691.672 .0291798
692.412 .0291604
693.152 .0291415
693.891 .0291238
694.630 .0291076
695.369 .0290924
696.108 .0290776
696.846 .0290629
697.585 .0290475
698.323 .0290317
699.061 .0290158
699.798 .0289996
700.536 .0289834
701.273 .0289684
702.010 .0289547
702.746 .0289428
703.483 .0289329
704.219 .0289247
704.955 .0289174
705.691 .0289110
706.427 .0289040
707.162 .0288960
707.897 .0288869
708.632 .0288763
709.367 .0288643
710.101 .0288514
710.835 .0288377
711.569 .0288232
712.303 .0288086
713.037 .0287940
713.770 .0287790
714.503 .0287637
715.236 .0287479
715.969 .0287309
716.702 .0287131
717.434 .0286944
718.166 .0286748
718.898 .0286553
719.629 .0286364
720.361 .0286184
721.092 .0286024
721.823 .0285881
722.554 .0285757
723.284 .0285649
724.014 .0285549
724.744 .0285448
725.474 .0285336
726.204 .0285208
726.933 .0285062
727.662 .0284899
728.391 .0284728
729.120 .0284549
729.849 .0284372
730.577 .0284200
731.305 .0284033
732.033 .0283870
732.760 .0283700
733.488 .0283518
734.215 .0283321
734.942 .0283102
735.669 .0282865
736.395 .0282614
737.122 .0282354
737.848 .0282095
738.573 .0281840
739.299 .0281593
740.024 .0281355
740.750 .0281126
741.474 .0280902
742.199 .0280674
742.924 .0280443
743.648 .0280204
744.372 .0279958
745.096 .0279715
745.819 .0279472
746.543 .0279233
747.266 .0279010
747.989 .0278802
748.711 .0278612
749.434 .0278440
750.156 .0278286
750.878 .0278145
751.599 .0278010
752.321 .0277878
753.042 .0277743
753.763 .0277612
754.484 .0277485
755.205 .0277358
755.925 .0277240
756.645 .0277128
757.365 .0277018
758.085 .0276910
758.804 .0276797
759.523 .0276670
760.242 .0276524
760.961 .0276354
761.679 .0276160
762.397 .0275941
763.115 .0275710
763.833 .0275469
764.551 .0275226
765.268 .0274983
765.985 .0274737
766.702 .0274490
767.418 .0274240
768.134 .0273981
768.850 .0273717
769.566 .0273444
770.282 .0273169
770.997 .0272896
771.712 .0272633
772.427 .0272384
773.142 .0272158
773.856 .0271949
774.570 .0271756
775.284 .0271574
775.998 .0271395
776.711 .0271214
777.424 .0271030
778.137 .0270839
778.849 .0270641
779.562 .0270441
780.274 .0270237
780.986 .0270035
781.697 .0269841
782.409 .0269651
783.120 .0269470
783.831 .0269294
784.541 .0269121
785.252 .0268955
785.962 .0268796
786.671 .0268647
787.381 .0268501
788.090 .0268365
788.799 .0268230
789.508 .0268099
790.217 .0267964
790.925 .0267827
791.633 .0267688
792.341 .0267547
793.048 .0267402
793.755 .0267251
794.462 .0267103
795.169 .0266959
795.875 .0266820
796.581 .0266686
797.287 .0266553
797.993 .0266426
798.698 .0266299
799.403 .0266176
800.108 .0266057
800.812 .0265944
801.517 .0265837
802.221 .0265738
802.924 .0265652
803.628 .0265573
804.331 .0265512
805.034 .0265465
805.736 .0265429
806.439 .0265395
807.141 .0265360
807.843 .0265326
808.544 .0265284
809.245 .0265235
809.946 .0265174
810.647 .0265102
811.347 .0265027
812.047 .0264945
812.747 .0264866
813.447 .0264789
814.146 .0264721
814.845 .0264656
815.543 .0264598
816.242 .0264544
816.940 .0264487
817.638 .0264429
818.335 .0264369
819.032 .0264308
819.729 .0264243
820.426 .0264177
821.122 .0264107
821.818 .0264033
822.514 .0263958
823.209 .0263878
823.905 .0263794
824.599 .0263705
825.294 .0263613
825.988 .0263517
826.682 .0263414
827.376 .0263306
828.069 .0263193
828.762 .0263078
829.455 .0262957
830.147 .0262831
830.840 .0262702
831.531 .0262571
832.223 .0262444
832.914 .0262318
833.605 .0262195
834.296 .0262080
834.986 .0261969
835.676 .0261864
836.366 .0261762
837.055 .0261664
837.744 .0261567
838.433 .0261473
839.121 .0261384
839.809 .0261295
840.497 .0261212
841.185 .0261135
841.872 .0261064
842.559 .0261003
843.245 .0260942
843.932 .0260881
844.617 .0260819
845.303 .0260756
845.988 .0260686
846.673 .0260610
847.358 .0260532
848.042 .0260453
848.726 .0260374
849.410 .0260293
850.093 .0260213
850.776 .0260134
851.459 .0260053
852.141 .0259965
852.823 .0259870
853.505 .0259772
854.186 .0259667
854.867 .0259562
855.548 .0259452
856.228 .0259341
856.908 .0259232
857.588 .0259121
858.267 .0259012
858.946 .0258899
859.625 .0258789
860.303 .0258679
860.981 .0258570
861.659 .0258459
862.336 .0258347
863.013 .0258236
863.690 .0258122
864.366 .0257998
865.042 .0257865
865.718 .0257722
866.393 .0257572
867.068 .0257414
867.743 .0257258
868.417 .0257104
869.091 .0256954
869.765 .0256805
870.438 .0256660
871.111 .0256512
871.783 .0256361
872.456 .0256207
873.127 .0256042
873.799 .0255869
874.470 .0255690
875.141 .0255512
875.811 .0255337
876.481 .0255167
877.151 .0255005
877.820 .0254846
878.489 .0254693
879.158 .0254534
879.826 .0254369
880.494 .0254203
881.162 .0254031
881.829 .0253851
882.496 .0253663
883.163 .0253478
883.829 .0253290
884.495 .0253103
885.160 .0252923
885.825 .0252747
886.490 .0252579
887.154 .0252423
887.818 .0252273
888.482 .0252128
889.145 .0251988
889.808 .0251851
890.471 .0251714
891.133 .0251579
891.795 .0251442
892.456 .0251304
893.117 .0251173
893.778 .0251047
894.439 .0250920
895.099 .0250793
895.758 .0250667
896.417 .0250534
897.076 .0250390
897.735 .0250230
898.393 .0250054
899.051 .0249867
899.708 .0249667
900.365 .0249461
901.022 .0249250
901.678 .0249044
902.334 .0248844
902.990 .0248648
903.645 .0248458
904.300 .0248274
904.954 .0248087
905.608 .0247898
906.262 .0247707
906.915 .0247515
907.568 .0247324
908.221 .0247138
908.873 .0246961
909.525 .0246796
910.176 .0246645
910.828 .0246512
911.478 .0246388
912.129 .0246276
912.778 .0246167
913.428 .0246054
914.077 .0245939
914.726 .0245819
915.375 .0245695
916.023 .0245569
916.670 .0245443
917.318 .0245319
917.964 .0245202
918.611 .0245091
919.257 .0244982
919.903 .0244873
920.548 .0244759
921.193 .0244635
921.838 .0244501
922.482 .0244360
923.126 .0244210
923.770 .0244058
924.413 .0243905
925.056 .0243752
925.698 .0243606
926.340 .0243463
926.982 .0243328
927.623 .0243199
928.264 .0243079
928.904 .0242961
929.544 .0242846
930.184 .0242736
930.823 .0242628
931.462 .0242522
932.101 .0242419
932.739 .0242312
933.377 .0242203
934.014 .0242086
934.651 .0241965
935.288 .0241839
935.924 .0241718
936.560 .0241596
937.196 .0241479
937.831 .0241365
938.466 .0241250
939.100 .0241126
939.734 .0240994
940.368 .0240852
941.001 .0240701
941.634 .0240544
942.266 .0240384
942.899 .0240225
943.530 .0240077
944.162 .0239938
944.793 .0239811
945.423 .0239686
946.053 .0239562
946.683 .0239426
947.313 .0239277
947.942 .0239112
948.571 .0238929
949.199 .0238735
949.827 .0238532
950.455 .0238324
951.082 .0238118
951.709 .0237916
952.335 .0237723
952.961 .0237541
953.587 .0237366
954.212 .0237194
954.837 .0237023
955.462 .0236855
956.086 .0236696
956.710 .0236544
957.334 .0236405
957.957 .0236283
958.579 .0236179
959.202 .0236090
959.824 .0236012
960.445 .0235948
961.067 .0235894
961.688 .0235849
962.308 .0235807
962.928 .0235766
963.548 .0235724
964.168 .0235686
964.787 .0235646
965.406 .0235607
966.024 .0235570
966.642 .0235529
967.260 .0235485
967.877 .0235435
968.494 .0235378
969.110 .0235313
969.727 .0235239
970.342 .0235161
970.958 .0235076
971.573 .0234990
972.188 .0234905
972.802 .0234825
973.416 .0234756
974.030 .0234695
974.643 .0234647
975.256 .0234612
975.869 .0234592
976.481 .0234584
977.093 .0234588
977.705 .0234603
978.316 .0234628
978.927 .0234659
979.538 .0234696
980.148 .0234736
980.758 .0234779
981.367 .0234827
981.977 .0234883
982.586 .0234946
983.194 .0235013
983.802 .0235080
984.410 .0235143
985.018 .0235201
985.625 .0235248
986.232 .0235288
986.838 .0235324
987.445 .0235361
988.050 .0235399
988.656 .0235440
989.261 .0235490
989.866 .0235544
990.471 .0235597
991.075 .0235656
991.679 .0235711
992.282 .0235760
992.886 .0235804
993.489 .0235847
994.091 .0235891
994.694 .0235941
995.296 .0235993
995.897 .0236044
996.499 .0236092
997.100 .0236135
997.701 .0236163
998.301 .0236184
998.901 .0236198
999.501 .0236203
1000.101 .0236209
1000.700 .0236222
1001.299 .0236237
1001.898 .0236260
1002.496 .0236294
1003.094 .0236330
1003.692 .0236369
1004.289 .0236407
1004.887 .0236442
1005.484 .0236473
1006.080 .0236503
1006.677 .0236525
1007.273 .0236542
1007.868 .0236561
1008.464 .0236586
1009.059 .0236616
1009.654 .0236659
1010.249 .0236712
1010.843 .0236779
1011.437 .0236860
1012.031 .0236951
1012.625 .0237042
1013.218 .0237132
1013.811 .0237221
1014.404 .0237304
1014.997 .0237381
1015.589 .0237455
1016.181 .0237526
1016.773 .0237601
1017.365 .0237678
1017.956 .0237750
1018.547 .0237820
1019.138 .0237881
1019.728 .0237933
1020.319 .0237976
1020.909 .0238011
1021.499 .0238036
1022.088 .0238052
1022.678 .0238066
1023.267 .0238077
1023.856 .0238084
1024.445 .0238095
1025.033 .0238104
1025.621 .0238112
1026.209 .0238120
1026.797 .0238120
1027.385 .0238116
1027.972 .0238121
1028.560 .0238128
1029.147 .0238137
1029.734 .0238149
1030.320 .0238161
1030.907 .0238169
1031.493 .0238182
1032.079 .0238196
1032.665 .0238209
1033.250 .0238219
1033.836 .0238230
1034.421 .0238228
1035.006 .0238226
1035.591 .0238216
1036.176 .0238205
1036.761 .0238194
1037.345 .0238185
1037.929 .0238173
1038.514 .0238164
1039.097 .0238161
1039.681 .0238166
1040.265 .0238172
1040.848 .0238177
1041.432 .0238169
1042.015 .0238146
1042.598 .0238107
1043.181 .0238050
1043.764 .0237971
1044.346 .0237888
1044.929 .0237801
1045.511 .0237712
1046.094 .0237623
1046.676 .0237550
1047.258 .0237488
1047.840 .0237431
1048.422 .0237378
1049.003 .0237324
1049.585 .0237264
1050.166 .0237203
1050.748 .0237134
1051.329 .0237061
1051.910 .0236996
1052.491 .0236938
1053.072 .0236891
1053.653 .0236862
1054.234 .0236842
1054.815 .0236831
1055.396 .0236825
1055.976 .0236819
1056.557 .0236794
1057.138 .0236752
1057.718 .0236689
1058.298 .0236600
1058.879 .0236487
1059.459 .0236353
1060.039 .0236208
1060.620 .0236048
1061.200 .0235874
1061.780 .0235689
1062.360 .0235500
1062.940 .0235316
1063.520 .0235135
1064.101 .0234969
1064.681 .0234813
1065.261 .0234677
1065.841 .0234549
1066.421 .0234426
1067.001 .0234306
1067.581 .0234176
1068.161 .0234047
1068.741 .0233914
1069.321 .0233779
1069.901 .0233655
1070.482 .0233539
1071.062 .0233445
1071.642 .0233349
1072.222 .0233246
1072.803 .0233128
1073.383 .0232984
1073.963 .0232811
1074.544 .0232611
1075.124 .0232392
1075.705 .0232165
1076.286 .0231944
1076.866 .0231745
1077.447 .0231566
1078.028 .0231407
1078.609 .0231281
1079.190 .0231176
1079.771 .0231072
1080.352 .0230982
1080.934 .0230905
1081.515 .0230866
1082.097 .0230866
1082.679 .0230897
1083.260 .0230954
1083.842 .0231031
1084.424 .0231111
1085.007 .0231156
1085.589 .0231172
1086.172 .0231162
1086.754 .0231111
1087.337 .0231053
1087.920 .0231003
1088.503 .0230978
1089.087 .0230991
1089.670 .0231042
1090.254 .0231115
1090.838 .0231180
1091.422 .0231215
1092.006 .0231206
1092.590 .0231150
1093.175 .0231058
1093.760 .0230919
1094.345 .0230772
1094.930 .0230645
1095.516 .0230548
1096.102 .0230481
1096.688 .0230440
1097.274 .0230424
1097.860 .0230404
1098.447 .0230348
1099.034 .0230251
1099.622 .0230109
1100.209 .0229940
1100.797 .0229762
1101.385 .0229580
1101.973 .0229413
1102.562 .0229271
1103.151 .0229153
1103.740 .0229049
1104.330 .0228919
1104.920 .0228766
1105.510 .0228588
1106.101 .0228381
1106.691 .0228150
1107.283 .0227907
1107.874 .0227661
1108.466 .0227447
1109.058 .0227266
1109.651 .0227122
1110.244 .0227010
1110.837 .0226934
1111.431 .0226883
1112.025 .0226862
1112.620 .0226854
1113.215 .0226860
1113.810 .0226890
1114.406 .0226981
1115.002 .0227089
1115.599 .0227205
1116.196 .0227333
1116.793 .0227460
1117.391 .0227559
1117.989 .0227626
1118.588 .0227620
1119.187 .0227577
1119.787 .0227503
1120.387 .0227394
1120.988 .0227272
1121.589 .0227179
1122.190 .0227095
1122.793 .0227055
1123.395 .0227070
1123.998 .0227146
1124.602 .0227258
1125.206 .0227438
1125.811 .0227663
1126.416 .0227917
1127.022 .0228206
1127.628 .0228523
1128.235 .0228853
1128.843 .0229238
1129.451 .0229643
1130.059 .0230063
1130.669 .0230521
1131.278 .0230997
1131.889 .0231435
1132.500 .0231838
1133.112 .0232172
1133.724 .0232426
1134.337 .0232576
1134.950 .0232666
1135.564 .0232707
1136.179 .0232720
1136.795 .0232780
1137.411 .0232913
1138.028 .0233112
1138.645 .0233433
1139.263 .0233815
1139.882 .0234223
1140.502 .0234719
1141.122 .0235326
1141.743 .0236082
1142.365 .0237138
1142.987 .0235527
1143.611 .0238379
1144.235 .0240685
1144.859 .0243467
1145.485 .0248735
