Measurement Sequence started on: 10-20-44-796
Integration time: 35
Scans to Average: 2 
>>>>>Begin Spectral Data<<<<<
432.953 .0530041
433.882 .0401071
434.810 .0384835
435.737 .0365724
436.662 .0354077
437.586 .0368650
438.509 .0359429
439.431 .0355520
440.351 .0352567
441.269 .0350408
442.187 .0348577
443.103 .0346784
444.018 .0345316
444.932 .0344128
445.844 .0343166
446.756 .0342341
447.666 .0341619
448.575 .0340808
449.482 .0340041
450.388 .0339297
451.294 .0338539
452.198 .0337848
453.100 .0337155
454.002 .0336605
454.902 .0336062
455.801 .0335483
456.699 .0334969
457.596 .0334527
458.492 .0334045
459.387 .0333629
460.280 .0333225
461.172 .0332770
462.064 .0332331
462.954 .0331797
463.843 .0331223
464.730 .0330649
465.617 .0330041
466.503 .0329394
467.387 .0328776
468.271 .0328227
469.153 .0327735
470.035 .0327321
470.915 .0327037
471.794 .0326748
472.673 .0326486
473.550 .0326242
474.426 .0326005
475.301 .0325793
476.175 .0325666
477.048 .0325554
477.920 .0325507
478.791 .0325477
479.661 .0325457
480.530 .0325416
481.398 .0325376
482.266 .0325317
483.132 .0325249
483.997 .0325163
484.861 .0325104
485.724 .0325061
486.587 .0325089
487.448 .0325116
488.308 .0325159
489.168 .0325162
490.026 .0325105
490.884 .0324958
491.741 .0324725
492.597 .0324416
493.452 .0324101
494.306 .0323770
495.159 .0323434
496.011 .0323101
496.862 .0322760
497.713 .0322328
498.562 .0321806
499.411 .0321159
500.259 .0320364
501.106 .0319443
501.952 .0318442
502.798 .0317355
503.642 .0316246
504.486 .0315160
505.329 .0314074
506.171 .0313013
507.012 .0311990
507.852 .0310945
508.692 .0309869
509.531 .0308792
510.369 .0307714
511.206 .0306609
512.043 .0305520
512.878 .0304391
513.713 .0303193
514.547 .0301961
515.381 .0300650
516.213 .0299283
517.045 .0297866
517.876 .0296401
518.706 .0294850
519.536 .0293259
520.365 .0291686
521.193 .0290093
522.020 .0288525
522.847 .0286971
523.673 .0285408
524.498 .0283794
525.323 .0282116
526.146 .0280419
526.969 .0278741
527.792 .0277139
528.614 .0275596
529.435 .0274175
530.255 .0272898
531.075 .0271759
531.894 .0270761
532.712 .0269819
533.530 .0268949
534.347 .0268018
535.163 .0267033
535.979 .0266005
536.794 .0265004
537.608 .0264126
538.422 .0263448
539.235 .0263037
540.048 .0262850
540.860 .0262893
541.671 .0263169
542.481 .0263583
543.292 .0264125
544.101 .0264688
544.910 .0265274
545.718 .0265837
546.526 .0266449
547.333 .0267064
548.139 .0267744
548.945 .0268489
549.750 .0269223
550.555 .0269905
551.359 .0270532
552.162 .0271056
552.965 .0271503
553.768 .0271913
554.569 .0272315
555.371 .0272679
556.171 .0273077
556.972 .0273490
557.771 .0273920
558.570 .0274356
559.369 .0274843
560.167 .0275306
560.964 .0275819
561.761 .0276376
562.558 .0276979
563.354 .0277679
564.149 .0278472
564.944 .0279329
565.738 .0280211
566.532 .0281101
567.325 .0281940
568.118 .0282704
568.910 .0283439
569.702 .0284104
570.494 .0284722
571.285 .0285324
572.075 .0285919
572.865 .0286502
573.654 .0287110
574.443 .0287729
575.232 .0288348
576.020 .0288982
576.807 .0289593
577.594 .0290172
578.381 .0290737
579.167 .0291278
579.952 .0291805
580.738 .0292355
581.522 .0292938
582.307 .0293544
583.091 .0294201
583.874 .0294899
584.657 .0295615
585.440 .0296340
586.222 .0297047
587.004 .0297701
587.785 .0298305
588.566 .0298841
589.346 .0299315
590.126 .0299732
590.906 .0300103
591.685 .0300433
592.464 .0300724
593.242 .0300974
594.020 .0301170
594.797 .0301321
595.575 .0301422
596.351 .0301468
597.128 .0301475
597.904 .0301437
598.679 .0301375
599.454 .0301289
600.229 .0301197
601.004 .0301095
601.778 .0300993
602.551 .0300885
603.325 .0300774
604.097 .0300674
604.870 .0300585
605.642 .0300517
606.414 .0300474
607.185 .0300453
607.956 .0300442
608.727 .0300436
609.497 .0300420
610.267 .0300383
611.037 .0300327
611.806 .0300237
612.575 .0300121
613.344 .0299981
614.112 .0299816
614.880 .0299633
615.647 .0299434
616.414 .0299222
617.181 .0298988
617.948 .0298743
618.714 .0298475
619.480 .0298195
620.245 .0297915
621.011 .0297643
621.775 .0297379
622.540 .0297134
623.304 .0296903
624.068 .0296687
624.832 .0296479
625.595 .0296276
626.358 .0296069
627.120 .0295865
627.883 .0295663
628.645 .0295466
629.406 .0295279
630.168 .0295112
630.929 .0294949
631.689 .0294792
632.450 .0294624
633.210 .0294434
633.970 .0294210
634.729 .0293964
635.489 .0293690
636.248 .0293397
637.006 .0293101
637.765 .0292817
638.523 .0292554
639.280 .0292319
640.038 .0292109
640.795 .0291917
641.552 .0291740
642.309 .0291569
643.065 .0291395
643.821 .0291222
644.577 .0291052
645.332 .0290889
646.088 .0290743
646.843 .0290619
647.597 .0290515
648.352 .0290434
649.106 .0290373
649.860 .0290320
650.613 .0290273
651.367 .0290221
652.120 .0290167
652.872 .0290103
653.625 .0290035
654.377 .0289958
655.129 .0289875
655.881 .0289790
656.632 .0289701
657.384 .0289606
658.135 .0289504
658.885 .0289393
659.636 .0289275
660.386 .0289147
661.136 .0289010
661.885 .0288868
662.635 .0288726
663.384 .0288582
664.133 .0288441
664.881 .0288300
665.630 .0288166
666.378 .0288036
667.126 .0287909
667.874 .0287783
668.621 .0287654
669.368 .0287523
670.115 .0287394
670.862 .0287266
671.608 .0287149
672.354 .0287036
673.100 .0286933
673.846 .0286840
674.591 .0286755
675.337 .0286673
676.082 .0286595
676.826 .0286517
677.571 .0286433
678.315 .0286345
679.059 .0286249
679.803 .0286150
680.547 .0286059
681.290 .0285970
682.033 .0285874
682.776 .0285776
683.518 .0285674
684.261 .0285560
685.003 .0285432
685.745 .0285290
686.487 .0285136
687.228 .0284974
687.969 .0284807
688.710 .0284639
689.451 .0284472
690.192 .0284316
690.932 .0284159
691.672 .0284002
692.412 .0283843
693.152 .0283674
693.891 .0283496
694.630 .0283310
695.369 .0283124
696.108 .0282936
696.846 .0282744
697.585 .0282560
698.323 .0282377
699.061 .0282191
699.798 .0282005
700.536 .0281814
701.273 .0281620
702.010 .0281430
702.746 .0281240
703.483 .0281060
704.219 .0280889
704.955 .0280730
705.691 .0280572
706.427 .0280414
707.162 .0280255
707.897 .0280084
708.632 .0279907
709.367 .0279725
710.101 .0279535
710.835 .0279349
711.569 .0279164
712.303 .0278981
713.037 .0278796
713.770 .0278610
714.503 .0278413
715.236 .0278205
715.969 .0277987
716.702 .0277761
717.434 .0277533
718.166 .0277309
718.898 .0277096
719.629 .0276898
720.361 .0276717
721.092 .0276550
721.823 .0276392
722.554 .0276240
723.284 .0276090
724.014 .0275938
724.744 .0275777
725.474 .0275611
726.204 .0275437
726.933 .0275258
727.662 .0275075
728.391 .0274885
729.120 .0274690
729.849 .0274491
730.577 .0274289
731.305 .0274084
732.033 .0273875
732.760 .0273664
733.488 .0273453
734.215 .0273244
734.942 .0273033
735.669 .0272820
736.395 .0272611
737.122 .0272409
737.848 .0272215
738.573 .0272029
739.299 .0271851
740.024 .0271684
740.750 .0271532
741.474 .0271388
742.199 .0271251
742.924 .0271127
743.648 .0271012
744.372 .0270904
745.096 .0270800
745.819 .0270695
746.543 .0270592
747.266 .0270489
747.989 .0270388
748.711 .0270283
749.434 .0270184
750.156 .0270094
750.878 .0270012
751.599 .0269945
752.321 .0269886
753.042 .0269841
753.763 .0269810
754.484 .0269789
755.205 .0269772
755.925 .0269766
756.645 .0269765
757.365 .0269769
758.085 .0269779
758.804 .0269790
759.523 .0269800
760.242 .0269807
760.961 .0269806
761.679 .0269795
762.397 .0269766
763.115 .0269724
763.833 .0269663
764.551 .0269589
765.268 .0269493
765.985 .0269376
766.702 .0269238
767.418 .0269077
768.134 .0268890
768.850 .0268683
769.566 .0268461
770.282 .0268232
770.997 .0268000
771.712 .0267772
772.427 .0267554
773.142 .0267351
773.856 .0267158
774.570 .0266977
775.284 .0266801
775.998 .0266628
776.711 .0266454
777.424 .0266283
778.137 .0266117
778.849 .0265954
779.562 .0265800
780.274 .0265654
780.986 .0265516
781.697 .0265388
782.409 .0265264
783.120 .0265147
783.831 .0265039
784.541 .0264937
785.252 .0264835
785.962 .0264734
786.671 .0264631
787.381 .0264522
788.090 .0264408
788.799 .0264289
789.508 .0264161
790.217 .0264033
790.925 .0263907
791.633 .0263781
792.341 .0263661
793.048 .0263547
793.755 .0263432
794.462 .0263315
795.169 .0263193
795.875 .0263064
796.581 .0262928
797.287 .0262794
797.993 .0262656
798.698 .0262524
799.403 .0262394
800.108 .0262267
800.812 .0262141
801.517 .0262014
802.221 .0261880
802.924 .0261738
803.628 .0261591
804.331 .0261441
805.034 .0261290
805.736 .0261143
806.439 .0261001
807.141 .0260868
807.843 .0260738
808.544 .0260608
809.245 .0260475
809.946 .0260340
810.647 .0260196
811.347 .0260050
812.047 .0259905
812.747 .0259761
813.447 .0259623
814.146 .0259490
814.845 .0259365
815.543 .0259239
816.242 .0259111
816.940 .0258975
817.638 .0258827
818.335 .0258667
819.032 .0258497
819.729 .0258322
820.426 .0258145
821.122 .0257969
821.818 .0257794
822.514 .0257623
823.209 .0257454
823.905 .0257286
824.599 .0257114
825.294 .0256939
825.988 .0256759
826.682 .0256575
827.376 .0256390
828.069 .0256204
828.762 .0256021
829.455 .0255838
830.147 .0255655
830.840 .0255475
831.531 .0255298
832.223 .0255120
832.914 .0254943
833.605 .0254770
834.296 .0254593
834.986 .0254417
835.676 .0254244
836.366 .0254072
837.055 .0253904
837.744 .0253740
838.433 .0253574
839.121 .0253413
839.809 .0253259
840.497 .0253110
841.185 .0252969
841.872 .0252840
842.559 .0252715
843.245 .0252598
843.932 .0252491
844.617 .0252387
845.303 .0252282
845.988 .0252184
846.673 .0252081
847.358 .0251974
848.042 .0251868
848.726 .0251759
849.410 .0251648
850.093 .0251541
850.776 .0251433
851.459 .0251321
852.141 .0251206
852.823 .0251091
853.505 .0250966
854.186 .0250836
854.867 .0250699
855.548 .0250549
856.228 .0250397
856.908 .0250243
857.588 .0250088
858.267 .0249941
858.946 .0249802
859.625 .0249671
860.303 .0249548
860.981 .0249435
861.659 .0249328
862.336 .0249225
863.013 .0249128
863.690 .0249036
864.366 .0248949
865.042 .0248869
865.718 .0248797
866.393 .0248733
867.068 .0248681
867.743 .0248638
868.417 .0248607
869.091 .0248584
869.765 .0248570
870.438 .0248557
871.111 .0248544
871.783 .0248528
872.456 .0248507
873.127 .0248478
873.799 .0248446
874.470 .0248406
875.141 .0248362
875.811 .0248314
876.481 .0248269
877.151 .0248223
877.820 .0248178
878.489 .0248130
879.158 .0248077
879.826 .0248016
880.494 .0247949
881.162 .0247871
881.829 .0247785
882.496 .0247693
883.163 .0247594
883.829 .0247491
884.495 .0247393
885.160 .0247301
885.825 .0247216
886.490 .0247145
887.154 .0247083
887.818 .0247025
888.482 .0246971
889.145 .0246920
889.808 .0246871
890.471 .0246822
891.133 .0246777
891.795 .0246735
892.456 .0246705
893.117 .0246689
893.778 .0246686
894.439 .0246695
895.099 .0246713
895.758 .0246734
896.417 .0246751
897.076 .0246762
897.735 .0246762
898.393 .0246754
899.051 .0246741
899.708 .0246724
900.365 .0246704
901.022 .0246683
901.678 .0246665
902.334 .0246646
902.990 .0246629
903.645 .0246610
904.300 .0246591
904.954 .0246576
905.608 .0246562
906.262 .0246548
906.915 .0246536
907.568 .0246525
908.221 .0246511
908.873 .0246493
909.525 .0246474
910.176 .0246452
910.828 .0246429
911.478 .0246409
912.129 .0246388
912.778 .0246366
913.428 .0246344
914.077 .0246316
914.726 .0246280
915.375 .0246233
916.023 .0246178
916.670 .0246112
917.318 .0246043
917.964 .0245970
918.611 .0245896
919.257 .0245828
919.903 .0245763
920.548 .0245695
921.193 .0245627
921.838 .0245558
922.482 .0245482
923.126 .0245401
923.770 .0245319
924.413 .0245232
925.056 .0245146
925.698 .0245067
926.340 .0244987
926.982 .0244911
927.623 .0244840
928.264 .0244764
928.904 .0244683
929.544 .0244595
930.184 .0244494
930.823 .0244385
931.462 .0244271
932.101 .0244152
932.739 .0244025
933.377 .0243899
934.014 .0243771
934.651 .0243640
935.288 .0243508
935.924 .0243371
936.560 .0243225
937.196 .0243076
937.831 .0242913
938.466 .0242742
939.100 .0242567
939.734 .0242387
940.368 .0242209
941.001 .0242030
941.634 .0241853
942.266 .0241674
942.899 .0241489
943.530 .0241302
944.162 .0241100
944.793 .0240892
945.423 .0240668
946.053 .0240433
946.683 .0240189
947.313 .0239934
947.942 .0239672
948.571 .0239407
949.199 .0239138
949.827 .0238864
950.455 .0238584
951.082 .0238303
951.709 .0238023
952.335 .0237747
952.961 .0237478
953.587 .0237223
954.212 .0236980
954.837 .0236752
955.462 .0236531
956.086 .0236321
956.710 .0236118
957.334 .0235920
957.957 .0235727
958.579 .0235535
959.202 .0235352
959.824 .0235176
960.445 .0235008
961.067 .0234851
961.688 .0234705
962.308 .0234567
962.928 .0234433
963.548 .0234302
964.168 .0234167
964.787 .0234028
965.406 .0233888
966.024 .0233747
966.642 .0233606
967.260 .0233465
967.877 .0233327
968.494 .0233189
969.110 .0233059
969.727 .0232927
970.342 .0232798
970.958 .0232672
971.573 .0232548
972.188 .0232426
972.802 .0232303
973.416 .0232182
974.030 .0232061
974.643 .0231936
975.256 .0231809
975.869 .0231673
976.481 .0231535
977.093 .0231390
977.705 .0231251
978.316 .0231118
978.927 .0230994
979.538 .0230881
980.148 .0230777
980.758 .0230679
981.367 .0230588
981.977 .0230498
982.586 .0230411
983.194 .0230328
983.802 .0230250
984.410 .0230171
985.018 .0230099
985.625 .0230032
986.232 .0229974
986.838 .0229923
987.445 .0229883
988.050 .0229843
988.656 .0229809
989.261 .0229776
989.866 .0229737
990.471 .0229689
991.075 .0229636
991.679 .0229567
992.282 .0229492
992.886 .0229410
993.489 .0229330
994.091 .0229248
994.694 .0229175
995.296 .0229106
995.897 .0229039
996.499 .0228971
997.100 .0228901
997.701 .0228825
998.301 .0228747
998.901 .0228668
999.501 .0228592
1000.101 .0228523
1000.700 .0228466
1001.299 .0228412
1001.898 .0228361
1002.496 .0228307
1003.094 .0228246
1003.692 .0228176
1004.289 .0228100
1004.887 .0228021
1005.484 .0227936
1006.080 .0227857
1006.677 .0227788
1007.273 .0227724
1007.868 .0227666
1008.464 .0227610
1009.059 .0227551
1009.654 .0227487
1010.249 .0227420
1010.843 .0227355
1011.437 .0227303
1012.031 .0227270
1012.625 .0227256
1013.218 .0227260
1013.811 .0227279
1014.404 .0227307
1014.997 .0227337
1015.589 .0227372
1016.181 .0227404
1016.773 .0227434
1017.365 .0227470
1017.956 .0227514
1018.547 .0227573
1019.138 .0227641
1019.728 .0227722
1020.319 .0227808
1020.909 .0227891
1021.499 .0227962
1022.088 .0228024
1022.678 .0228074
1023.267 .0228115
1023.856 .0228149
1024.445 .0228173
1025.033 .0228196
1025.621 .0228218
1026.209 .0228236
1026.797 .0228254
1027.385 .0228264
1027.972 .0228274
1028.560 .0228271
1029.147 .0228264
1029.734 .0228251
1030.320 .0228234
1030.907 .0228215
1031.493 .0228200
1032.079 .0228196
1032.665 .0228204
1033.250 .0228227
1033.836 .0228265
1034.421 .0228313
1035.006 .0228369
1035.591 .0228425
1036.176 .0228471
1036.761 .0228504
1037.345 .0228529
1037.929 .0228536
1038.514 .0228548
1039.097 .0228564
1039.681 .0228586
1040.265 .0228626
1040.848 .0228686
1041.432 .0228759
1042.015 .0228831
1042.598 .0228903
1043.181 .0228972
1043.764 .0229030
1044.346 .0229088
1044.929 .0229137
1045.511 .0229191
1046.094 .0229265
1046.676 .0229359
1047.258 .0229473
1047.840 .0229607
1048.422 .0229756
1049.003 .0229909
1049.585 .0230064
1050.166 .0230208
1050.748 .0230333
1051.329 .0230436
1051.910 .0230524
1052.491 .0230588
1053.072 .0230630
1053.653 .0230667
1054.234 .0230698
1054.815 .0230730
1055.396 .0230768
1055.976 .0230801
1056.557 .0230830
1057.138 .0230863
1057.718 .0230893
1058.298 .0230914
1058.879 .0230925
1059.459 .0230929
1060.039 .0230917
1060.620 .0230896
1061.200 .0230862
1061.780 .0230816
1062.360 .0230771
1062.940 .0230733
1063.520 .0230691
1064.101 .0230649
1064.681 .0230612
1065.261 .0230581
1065.841 .0230541
1066.421 .0230503
1067.001 .0230451
1067.581 .0230392
1068.161 .0230318
1068.741 .0230243
1069.321 .0230169
1069.901 .0230115
1070.482 .0230083
1071.062 .0230071
1071.642 .0230084
1072.222 .0230119
1072.803 .0230163
1073.383 .0230216
1073.963 .0230266
1074.544 .0230306
1075.124 .0230314
1075.705 .0230307
1076.286 .0230271
1076.866 .0230228
1077.447 .0230189
1078.028 .0230159
1078.609 .0230162
1079.190 .0230205
1079.771 .0230284
1080.352 .0230400
1080.934 .0230554
1081.515 .0230746
1082.097 .0230944
1082.679 .0231156
1083.260 .0231355
1083.842 .0231553
1084.424 .0231742
1085.007 .0231923
1085.589 .0232101
1086.172 .0232289
1086.754 .0232477
1087.337 .0232657
1087.920 .0232834
1088.503 .0232984
1089.087 .0233090
1089.670 .0233149
1090.254 .0233150
1090.838 .0233108
1091.422 .0233009
1092.006 .0232881
1092.590 .0232733
1093.175 .0232597
1093.760 .0232479
1094.345 .0232392
1094.930 .0232351
1095.516 .0232348
1096.102 .0232378
1096.688 .0232417
1097.274 .0232465
1097.860 .0232507
1098.447 .0232539
1099.034 .0232554
1099.622 .0232565
1100.209 .0232580
1100.797 .0232599
1101.385 .0232645
1101.973 .0232717
1102.562 .0232790
1103.151 .0232879
1103.740 .0232960
1104.330 .0233045
1104.920 .0233105
1105.510 .0233169
1106.101 .0233202
1106.691 .0233202
1107.283 .0233170
1107.874 .0233103
1108.466 .0232991
1109.058 .0232858
1109.651 .0232692
1110.244 .0232528
1110.837 .0232362
1111.431 .0232205
1112.025 .0232058
1112.620 .0231950
1113.215 .0231846
1113.810 .0231734
1114.406 .0231597
1115.002 .0231454
1115.599 .0231275
1116.196 .0231049
1116.793 .0230802
1117.391 .0230556
1117.989 .0230320
1118.588 .0230104
1119.187 .0229910
1119.787 .0229767
1120.387 .0229656
1120.988 .0229569
1121.589 .0229476
1122.190 .0229380
1122.793 .0229280
1123.395 .0229168
1123.998 .0229038
1124.602 .0228924
1125.206 .0228853
1125.811 .0228851
1126.416 .0228979
1127.022 .0229235
1127.628 .0229619
1128.235 .0230130
1128.843 .0230771
1129.451 .0231481
1130.059 .0232200
1130.669 .0232909
1131.278 .0233559
1131.889 .0234140
1132.500 .0234680
1133.112 .0235160
1133.724 .0235621
1134.337 .0236096
1134.950 .0236563
1135.564 .0236977
1136.179 .0237349
1136.795 .0237659
1137.411 .0237898
1138.028 .0238062
1138.645 .0238135
1139.263 .0238154
1139.882 .0238193
1140.502 .0238236
1141.122 .0238298
1141.743 .0238478
1142.365 .0238732
1142.987 .0239507
1143.611 .0238832
1144.235 .0238811
1144.859 .0241423
1145.485 .0241082
