Measurement Sequence started on: 10-20-44-796
Integration time: 35
Scans to Average: 2 
>>>>>Begin Spectral Data<<<<<
432.953 .0552310
433.882 .0475138
434.810 .0430381
435.737 .0402820
436.662 .0363119
437.586 .0384171
438.509 .0370174
439.431 .0361483
440.351 .0355952
441.269 .0352265
442.187 .0350113
443.103 .0348167
444.018 .0346861
444.932 .0346189
445.844 .0345592
446.756 .0345374
447.666 .0345421
448.575 .0345443
449.482 .0345491
450.388 .0345342
451.294 .0344970
452.198 .0344298
453.100 .0343335
454.002 .0342346
454.902 .0341353
455.801 .0340414
456.699 .0339515
457.596 .0338811
458.492 .0338146
459.387 .0337524
460.280 .0337007
461.172 .0336555
462.064 .0336134
462.954 .0335698
463.843 .0335224
464.730 .0334713
465.617 .0334246
466.503 .0333811
467.387 .0333386
468.271 .0333031
469.153 .0332608
470.035 .0332160
470.915 .0331642
471.794 .0331097
472.673 .0330492
473.550 .0329850
474.426 .0329234
475.301 .0328625
476.175 .0328058
477.048 .0327563
477.920 .0327134
478.791 .0326791
479.661 .0326495
480.530 .0326213
481.398 .0325916
482.266 .0325648
483.132 .0325382
483.997 .0325120
484.861 .0324864
485.724 .0324657
486.587 .0324487
487.448 .0324331
488.308 .0324198
489.168 .0324058
490.026 .0323872
490.884 .0323612
491.741 .0323251
492.597 .0322798
493.452 .0322283
494.306 .0321714
495.159 .0321133
496.011 .0320584
496.862 .0320096
497.713 .0319618
498.562 .0319147
499.411 .0318667
500.259 .0318100
501.106 .0317420
501.952 .0316630
502.798 .0315727
503.642 .0314752
504.486 .0313753
505.329 .0312759
506.171 .0311784
507.012 .0310898
507.852 .0310049
508.692 .0309231
509.531 .0308443
510.369 .0307601
511.206 .0306689
512.043 .0305720
512.878 .0304700
513.713 .0303632
514.547 .0302553
515.381 .0301444
516.213 .0300313
517.045 .0299172
517.876 .0297998
518.706 .0296735
519.536 .0295427
520.365 .0294073
521.193 .0292603
522.020 .0291023
522.847 .0289417
523.673 .0287708
524.498 .0285903
525.323 .0283883
526.146 .0281726
526.969 .0279458
527.792 .0277039
528.614 .0274534
529.435 .0272051
530.255 .0269644
531.075 .0267335
531.894 .0265072
532.712 .0262887
533.530 .0260793
534.347 .0258775
535.163 .0256771
535.979 .0254915
536.794 .0253259
537.608 .0251835
538.422 .0250711
539.235 .0250072
540.048 .0249890
540.860 .0250089
541.671 .0250747
542.481 .0251739
543.292 .0253017
544.101 .0254499
544.910 .0256086
545.718 .0257792
546.526 .0259544
547.333 .0261200
548.139 .0262688
548.945 .0264071
549.750 .0265321
550.555 .0266349
551.359 .0267159
552.162 .0267780
552.965 .0268209
553.768 .0268526
554.569 .0268809
555.371 .0269006
556.171 .0269235
556.972 .0269510
557.771 .0269763
558.570 .0269993
559.369 .0270198
560.167 .0270455
560.964 .0270804
561.761 .0271278
562.558 .0271859
563.354 .0272577
564.149 .0273464
564.944 .0274479
565.738 .0275555
566.532 .0276665
567.325 .0277744
568.118 .0278743
568.910 .0279644
569.702 .0280470
570.494 .0281260
571.285 .0282029
572.075 .0282791
572.865 .0283505
573.654 .0284169
574.443 .0284775
575.232 .0285360
576.020 .0285952
576.807 .0286521
577.594 .0287107
578.381 .0287703
579.167 .0288332
579.952 .0288986
580.738 .0289652
581.522 .0290333
582.307 .0290986
583.091 .0291629
583.874 .0292226
584.657 .0292773
585.440 .0293305
586.222 .0293802
587.004 .0294280
587.785 .0294721
588.566 .0295125
589.346 .0295465
590.126 .0295752
590.906 .0295957
591.685 .0296085
592.464 .0296155
593.242 .0296186
594.020 .0296170
594.797 .0296134
595.575 .0296100
596.351 .0296065
597.128 .0296021
597.904 .0295979
598.679 .0295928
599.454 .0295864
600.229 .0295787
601.004 .0295694
601.778 .0295587
602.551 .0295476
603.325 .0295363
604.097 .0295250
604.870 .0295136
605.642 .0295029
606.414 .0294920
607.185 .0294814
607.956 .0294711
608.727 .0294613
609.497 .0294522
610.267 .0294441
611.037 .0294375
611.806 .0294304
612.575 .0294233
613.344 .0294160
614.112 .0294066
614.880 .0293956
615.647 .0293833
616.414 .0293696
617.181 .0293554
617.948 .0293413
618.714 .0293271
619.480 .0293131
620.245 .0292992
621.011 .0292856
621.775 .0292701
622.540 .0292533
623.304 .0292340
624.068 .0292123
624.832 .0291894
625.595 .0291661
626.358 .0291426
627.120 .0291211
627.883 .0291008
628.645 .0290832
629.406 .0290677
630.168 .0290544
630.929 .0290427
631.689 .0290320
632.450 .0290210
633.210 .0290095
633.970 .0289959
634.729 .0289811
635.489 .0289642
636.248 .0289467
637.006 .0289285
637.765 .0289102
638.523 .0288918
639.280 .0288735
640.038 .0288547
640.795 .0288358
641.552 .0288158
642.309 .0287950
643.065 .0287730
643.821 .0287502
644.577 .0287265
645.332 .0287025
646.088 .0286791
646.843 .0286564
647.597 .0286345
648.352 .0286138
649.106 .0285941
649.860 .0285750
650.613 .0285568
651.367 .0285405
652.120 .0285247
652.872 .0285104
653.625 .0284979
654.377 .0284859
655.129 .0284748
655.881 .0284642
656.632 .0284533
657.384 .0284425
658.135 .0284317
658.885 .0284199
659.636 .0284078
660.386 .0283959
661.136 .0283831
661.885 .0283698
662.635 .0283570
663.384 .0283440
664.133 .0283303
664.881 .0283161
665.630 .0283014
666.378 .0282857
667.126 .0282692
667.874 .0282511
668.621 .0282329
669.368 .0282149
670.115 .0281967
670.862 .0281785
671.608 .0281619
672.354 .0281467
673.100 .0281330
673.846 .0281212
674.591 .0281108
675.337 .0281019
676.082 .0280936
676.826 .0280856
677.571 .0280787
678.315 .0280721
679.059 .0280658
679.803 .0280591
680.547 .0280520
681.290 .0280435
682.033 .0280330
682.776 .0280216
683.518 .0280087
684.261 .0279951
685.003 .0279812
685.745 .0279678
686.487 .0279555
687.228 .0279452
687.969 .0279357
688.710 .0279270
689.451 .0279189
690.192 .0279104
690.932 .0279007
691.672 .0278898
692.412 .0278786
693.152 .0278673
693.891 .0278564
694.630 .0278468
695.369 .0278375
696.108 .0278294
696.846 .0278213
697.585 .0278127
698.323 .0278032
699.061 .0277928
699.798 .0277809
700.536 .0277676
701.273 .0277533
702.010 .0277381
702.746 .0277227
703.483 .0277069
704.219 .0276910
704.955 .0276750
705.691 .0276591
706.427 .0276430
707.162 .0276270
707.897 .0276119
708.632 .0275978
709.367 .0275843
710.101 .0275711
710.835 .0275579
711.569 .0275442
712.303 .0275293
713.037 .0275132
713.770 .0274966
714.503 .0274794
715.236 .0274619
715.969 .0274448
716.702 .0274282
717.434 .0274131
718.166 .0273985
718.898 .0273841
719.629 .0273699
720.361 .0273550
721.092 .0273387
721.823 .0273207
722.554 .0273020
723.284 .0272819
724.014 .0272604
724.744 .0272375
725.474 .0272135
726.204 .0271884
726.933 .0271629
727.662 .0271363
728.391 .0271094
729.120 .0270827
729.849 .0270557
730.577 .0270289
731.305 .0270027
732.033 .0269765
732.760 .0269506
733.488 .0269244
734.215 .0268988
734.942 .0268730
735.669 .0268475
736.395 .0268232
737.122 .0268002
737.848 .0267786
738.573 .0267582
739.299 .0267387
740.024 .0267204
740.750 .0267032
741.474 .0266869
742.199 .0266714
742.924 .0266566
743.648 .0266426
744.372 .0266288
745.096 .0266157
745.819 .0266032
746.543 .0265913
747.266 .0265802
747.989 .0265709
748.711 .0265626
749.434 .0265567
750.156 .0265526
750.878 .0265505
751.599 .0265492
752.321 .0265484
753.042 .0265471
753.763 .0265447
754.484 .0265411
755.205 .0265362
755.925 .0265304
756.645 .0265242
757.365 .0265170
758.085 .0265098
758.804 .0265017
759.523 .0264929
760.242 .0264824
760.961 .0264700
761.679 .0264556
762.397 .0264390
763.115 .0264204
763.833 .0264003
764.551 .0263795
765.268 .0263581
765.985 .0263361
766.702 .0263140
767.418 .0262917
768.134 .0262692
768.850 .0262474
769.566 .0262268
770.282 .0262076
770.997 .0261904
771.712 .0261751
772.427 .0261619
773.142 .0261509
773.856 .0261405
774.570 .0261310
775.284 .0261210
775.998 .0261107
776.711 .0260998
777.424 .0260886
778.137 .0260782
778.849 .0260687
779.562 .0260605
780.274 .0260541
780.986 .0260489
781.697 .0260453
782.409 .0260423
783.120 .0260400
783.831 .0260374
784.541 .0260344
785.252 .0260314
785.962 .0260283
786.671 .0260252
787.381 .0260231
788.090 .0260219
788.799 .0260211
789.508 .0260212
790.217 .0260216
790.925 .0260222
791.633 .0260230
792.341 .0260230
793.048 .0260222
793.755 .0260204
794.462 .0260173
795.169 .0260127
795.875 .0260066
796.581 .0259994
797.287 .0259904
797.993 .0259809
798.698 .0259715
799.403 .0259620
800.108 .0259525
800.812 .0259432
801.517 .0259336
802.221 .0259239
802.924 .0259138
803.628 .0259035
804.331 .0258935
805.034 .0258839
805.736 .0258742
806.439 .0258647
807.141 .0258554
807.843 .0258468
808.544 .0258379
809.245 .0258292
809.946 .0258198
810.647 .0258098
811.347 .0257998
812.047 .0257897
812.747 .0257802
813.447 .0257712
814.146 .0257621
814.845 .0257535
815.543 .0257449
816.242 .0257362
816.940 .0257273
817.638 .0257186
818.335 .0257097
819.032 .0257009
819.729 .0256916
820.426 .0256821
821.122 .0256723
821.818 .0256630
822.514 .0256535
823.209 .0256440
823.905 .0256346
824.599 .0256250
825.294 .0256154
825.988 .0256057
826.682 .0255946
827.376 .0255829
828.069 .0255698
828.762 .0255554
829.455 .0255394
830.147 .0255227
830.840 .0255058
831.531 .0254893
832.223 .0254736
832.914 .0254587
833.605 .0254445
834.296 .0254312
834.986 .0254179
835.676 .0254047
836.366 .0253914
837.055 .0253784
837.744 .0253661
838.433 .0253544
839.121 .0253431
839.809 .0253327
840.497 .0253231
841.185 .0253138
841.872 .0253041
842.559 .0252939
843.245 .0252832
843.932 .0252718
844.617 .0252591
845.303 .0252458
845.988 .0252320
846.673 .0252182
847.358 .0252039
848.042 .0251901
848.726 .0251762
849.410 .0251624
850.093 .0251494
850.776 .0251365
851.459 .0251236
852.141 .0251107
852.823 .0250973
853.505 .0250832
854.186 .0250682
854.867 .0250520
855.548 .0250347
856.228 .0250175
856.908 .0250000
857.588 .0249820
858.267 .0249645
858.946 .0249474
859.625 .0249297
860.303 .0249113
860.981 .0248921
861.659 .0248711
862.336 .0248493
863.013 .0248265
863.690 .0248029
864.366 .0247798
865.042 .0247581
865.718 .0247379
866.393 .0247196
867.068 .0247030
867.743 .0246875
868.417 .0246726
869.091 .0246578
869.765 .0246426
870.438 .0246265
871.111 .0246107
871.783 .0245948
872.456 .0245792
873.127 .0245646
873.799 .0245507
874.470 .0245384
875.141 .0245270
875.811 .0245160
876.481 .0245054
877.151 .0244947
877.820 .0244844
878.489 .0244741
879.158 .0244642
879.826 .0244542
880.494 .0244446
881.162 .0244351
881.829 .0244254
882.496 .0244150
883.163 .0244045
883.829 .0243934
884.495 .0243823
885.160 .0243712
885.825 .0243601
886.490 .0243496
887.154 .0243405
887.818 .0243319
888.482 .0243236
889.145 .0243150
889.808 .0243065
890.471 .0242970
891.133 .0242880
891.795 .0242789
892.456 .0242705
893.117 .0242637
893.778 .0242589
894.439 .0242563
895.099 .0242552
895.758 .0242557
896.417 .0242570
897.076 .0242579
897.735 .0242579
898.393 .0242565
899.051 .0242542
899.708 .0242515
900.365 .0242487
901.022 .0242460
901.678 .0242439
902.334 .0242427
902.990 .0242421
903.645 .0242417
904.300 .0242410
904.954 .0242401
905.608 .0242381
906.262 .0242360
906.915 .0242331
907.568 .0242293
908.221 .0242256
908.873 .0242223
909.525 .0242191
910.176 .0242163
910.828 .0242139
911.478 .0242122
912.129 .0242105
912.778 .0242090
913.428 .0242073
914.077 .0242059
914.726 .0242048
915.375 .0242035
916.023 .0242017
916.670 .0242001
917.318 .0241978
917.964 .0241952
918.611 .0241921
919.257 .0241889
919.903 .0241854
920.548 .0241823
921.193 .0241799
921.838 .0241785
922.482 .0241781
923.126 .0241792
923.770 .0241815
924.413 .0241848
925.056 .0241885
925.698 .0241931
926.340 .0241981
926.982 .0242039
927.623 .0242095
928.264 .0242150
928.904 .0242196
929.544 .0242238
930.184 .0242268
930.823 .0242285
931.462 .0242290
932.101 .0242284
932.739 .0242274
933.377 .0242258
934.014 .0242232
934.651 .0242205
935.288 .0242168
935.924 .0242128
936.560 .0242067
937.196 .0241997
937.831 .0241917
938.466 .0241831
939.100 .0241740
939.734 .0241643
940.368 .0241549
941.001 .0241460
941.634 .0241375
942.266 .0241292
942.899 .0241205
943.530 .0241108
944.162 .0240992
944.793 .0240864
945.423 .0240716
946.053 .0240558
946.683 .0240386
947.313 .0240212
947.942 .0240037
948.571 .0239858
949.199 .0239681
949.827 .0239504
950.455 .0239337
951.082 .0239177
951.709 .0239011
952.335 .0238852
952.961 .0238699
953.587 .0238553
954.212 .0238412
954.837 .0238282
955.462 .0238160
956.086 .0238049
956.710 .0237945
957.334 .0237849
957.957 .0237759
958.579 .0237668
959.202 .0237572
959.824 .0237464
960.445 .0237353
961.067 .0237231
961.688 .0237100
962.308 .0236975
962.928 .0236854
963.548 .0236737
964.168 .0236623
964.787 .0236517
965.406 .0236425
966.024 .0236343
966.642 .0236267
967.260 .0236201
967.877 .0236142
968.494 .0236091
969.110 .0236038
969.727 .0235991
970.342 .0235942
970.958 .0235895
971.573 .0235855
972.188 .0235824
972.802 .0235802
973.416 .0235793
974.030 .0235783
974.643 .0235773
975.256 .0235752
975.869 .0235714
976.481 .0235653
977.093 .0235585
977.705 .0235498
978.316 .0235407
978.927 .0235314
979.538 .0235238
980.148 .0235172
980.758 .0235124
981.367 .0235082
981.977 .0235047
982.586 .0235013
983.194 .0234975
983.802 .0234929
984.410 .0234883
985.018 .0234837
985.625 .0234792
986.232 .0234741
986.838 .0234697
987.445 .0234646
988.050 .0234582
988.656 .0234493
989.261 .0234385
989.866 .0234244
990.471 .0234080
991.075 .0233898
991.679 .0233700
992.282 .0233496
992.886 .0233293
993.489 .0233095
994.091 .0232906
994.694 .0232726
995.296 .0232552
995.897 .0232378
996.499 .0232216
997.100 .0232050
997.701 .0231892
998.301 .0231752
998.901 .0231633
999.501 .0231535
1000.101 .0231462
1000.700 .0231414
1001.299 .0231389
1001.898 .0231372
1002.496 .0231358
1003.094 .0231331
1003.692 .0231291
1004.289 .0231232
1004.887 .0231153
1005.484 .0231068
1006.080 .0230986
1006.677 .0230900
1007.273 .0230832
1007.868 .0230775
1008.464 .0230734
1009.059 .0230708
1009.654 .0230691
1010.249 .0230679
1010.843 .0230666
1011.437 .0230643
1012.031 .0230608
1012.625 .0230565
1013.218 .0230517
1013.811 .0230450
1014.404 .0230378
1014.997 .0230310
1015.589 .0230230
1016.181 .0230146
1016.773 .0230068
1017.365 .0229980
1017.956 .0229879
1018.547 .0229758
1019.138 .0229620
1019.728 .0229465
1020.319 .0229305
1020.909 .0229137
1021.499 .0228973
1022.088 .0228829
1022.678 .0228693
1023.267 .0228565
1023.856 .0228458
1024.445 .0228360
1025.033 .0228260
1025.621 .0228152
1026.209 .0228043
1026.797 .0227914
1027.385 .0227771
1027.972 .0227626
1028.560 .0227483
1029.147 .0227346
1029.734 .0227218
1030.320 .0227092
1030.907 .0226978
1031.493 .0226877
1032.079 .0226783
1032.665 .0226705
1033.250 .0226650
1033.836 .0226620
1034.421 .0226604
1035.006 .0226612
1035.591 .0226651
1036.176 .0226705
1036.761 .0226771
1037.345 .0226841
1037.929 .0226903
1038.514 .0226959
1039.097 .0227001
1039.681 .0227046
1040.265 .0227092
1040.848 .0227132
1041.432 .0227177
1042.015 .0227215
1042.598 .0227245
1043.181 .0227257
1043.764 .0227247
1044.346 .0227221
1044.929 .0227165
1045.511 .0227090
1046.094 .0226991
1046.676 .0226894
1047.258 .0226806
1047.840 .0226731
1048.422 .0226674
1049.003 .0226645
1049.585 .0226625
1050.166 .0226616
1050.748 .0226612
1051.329 .0226605
1051.910 .0226598
1052.491 .0226585
1053.072 .0226563
1053.653 .0226544
1054.234 .0226528
1054.815 .0226529
1055.396 .0226533
1055.976 .0226559
1056.557 .0226579
1057.138 .0226611
1057.718 .0226627
1058.298 .0226619
1058.879 .0226591
1059.459 .0226554
1060.039 .0226497
1060.620 .0226426
1061.200 .0226337
1061.780 .0226236
1062.360 .0226122
1062.940 .0225988
1063.520 .0225821
1064.101 .0225639
1064.681 .0225433
1065.261 .0225224
1065.841 .0225013
1066.421 .0224822
1067.001 .0224647
1067.581 .0224514
1068.161 .0224412
1068.741 .0224331
1069.321 .0224257
1069.901 .0224204
1070.482 .0224181
1071.062 .0224181
1071.642 .0224204
1072.222 .0224251
1072.803 .0224348
1073.383 .0224485
1073.963 .0224642
1074.544 .0224833
1075.124 .0225034
1075.705 .0225243
1076.286 .0225446
1076.866 .0225634
1077.447 .0225825
1078.028 .0225999
1078.609 .0226163
1079.190 .0226303
1079.771 .0226415
1080.352 .0226483
1080.934 .0226509
1081.515 .0226509
1082.097 .0226510
1082.679 .0226490
1083.260 .0226473
1083.842 .0226468
1084.424 .0226489
1085.007 .0226519
1085.589 .0226547
1086.172 .0226565
1086.754 .0226568
1087.337 .0226532
1087.920 .0226487
1088.503 .0226421
1089.087 .0226352
1089.670 .0226288
1090.254 .0226217
1090.838 .0226151
1091.422 .0226076
1092.006 .0225987
1092.590 .0225908
1093.175 .0225853
1093.760 .0225810
1094.345 .0225776
1094.930 .0225757
1095.516 .0225769
1096.102 .0225798
1096.688 .0225832
1097.274 .0225865
1097.860 .0225879
1098.447 .0225870
1099.034 .0225857
1099.622 .0225833
1100.209 .0225836
1100.797 .0225858
1101.385 .0225937
1101.973 .0226037
1102.562 .0226138
1103.151 .0226231
1103.740 .0226285
1104.330 .0226286
1104.920 .0226238
1105.510 .0226136
1106.101 .0226028
1106.691 .0225941
1107.283 .0225886
1107.874 .0225891
1108.466 .0225944
1109.058 .0226062
1109.651 .0226194
1110.244 .0226349
1110.837 .0226518
1111.431 .0226666
1112.025 .0226815
1112.620 .0226986
1113.215 .0227198
1113.810 .0227452
1114.406 .0227756
1115.002 .0228122
1115.599 .0228502
1116.196 .0228882
1116.793 .0229226
1117.391 .0229523
1117.989 .0229743
1118.588 .0229927
1119.187 .0230039
1119.787 .0230119
1120.387 .0230200
1120.988 .0230249
1121.589 .0230303
1122.190 .0230343
1122.793 .0230363
1123.395 .0230300
1123.998 .0230204
1124.602 .0230050
1125.206 .0229823
1125.811 .0229581
1126.416 .0229327
1127.022 .0229087
1127.628 .0228895
1128.235 .0228744
1128.843 .0228625
1129.451 .0228548
1130.059 .0228541
1130.669 .0228534
1131.278 .0228604
1131.889 .0228719
1132.500 .0228909
1133.112 .0229174
1133.724 .0229553
1134.337 .0230031
1134.950 .0230640
1135.564 .0231403
1136.179 .0232315
1136.795 .0233301
1137.411 .0234334
1138.028 .0235358
1138.645 .0236442
1139.263 .0237528
1139.882 .0238621
1140.502 .0239723
1141.122 .0240870
1141.743 .0241968
1142.365 .0242308
1142.987 .0245046
1143.611 .0246276
1144.235 .0247029
1144.859 .0245897
1145.485 .0226363
