Measurement Sequence started on: 10-20-44-796
Integration time: 35
Scans to Average: 2 
>>>>>Begin Spectral Data<<<<<
432.953 .0312728
433.882 .0395977
434.810 .0377844
435.737 .0408197
436.662 .0400703
437.586 .0396223
438.509 .0400013
439.431 .0400757
440.351 .0401722
441.269 .0401795
442.187 .0402082
443.103 .0402528
444.018 .0402547
444.932 .0402968
445.844 .0403218
446.756 .0403341
447.666 .0403474
448.575 .0403666
449.482 .0403705
450.388 .0403726
451.294 .0403767
452.198 .0403841
453.100 .0403888
454.002 .0404055
454.902 .0404137
455.801 .0404259
456.699 .0404410
457.596 .0404559
458.492 .0404542
459.387 .0404388
460.280 .0404140
461.172 .0403763
462.064 .0403387
462.954 .0402977
463.843 .0402579
464.730 .0402310
465.617 .0402134
466.503 .0401969
467.387 .0401795
468.271 .0401559
469.153 .0401210
470.035 .0400726
470.915 .0400202
471.794 .0399545
472.673 .0398889
473.550 .0398313
474.426 .0397849
475.301 .0397446
476.175 .0397150
477.048 .0396854
477.920 .0396541
478.791 .0396151
479.661 .0395657
480.530 .0395038
481.398 .0394391
482.266 .0393710
483.132 .0393017
483.997 .0392410
484.861 .0391945
485.724 .0391552
486.587 .0391279
487.448 .0391024
488.308 .0390728
489.168 .0390362
490.026 .0389858
490.884 .0389228
491.741 .0388493
492.597 .0387666
493.452 .0386791
494.306 .0385928
495.159 .0385084
496.011 .0384260
496.862 .0383474
497.713 .0382674
498.562 .0381793
499.411 .0380838
500.259 .0379749
501.106 .0378550
501.952 .0377287
502.798 .0376015
503.642 .0374743
504.486 .0373598
505.329 .0372526
506.171 .0371525
507.012 .0370616
507.852 .0369718
508.692 .0368799
509.531 .0367875
510.369 .0366851
511.206 .0365770
512.043 .0364713
512.878 .0363616
513.713 .0362421
514.547 .0361204
515.381 .0359903
516.213 .0358479
517.045 .0356866
517.876 .0355041
518.706 .0353002
519.536 .0350840
520.365 .0348548
521.193 .0346114
522.020 .0343679
522.847 .0341214
523.673 .0338668
524.498 .0336084
525.323 .0333418
526.146 .0330639
526.969 .0327913
527.792 .0325254
528.614 .0322759
529.435 .0320543
530.255 .0318656
531.075 .0317118
531.894 .0315973
532.712 .0315060
533.530 .0314351
534.347 .0313791
535.163 .0313331
535.979 .0312878
536.794 .0312544
537.608 .0312304
538.422 .0312307
539.235 .0312470
540.048 .0312765
540.860 .0313060
541.671 .0313393
542.481 .0313662
543.292 .0313860
544.101 .0314020
544.910 .0314106
545.718 .0314174
546.526 .0314344
547.333 .0314499
548.139 .0314749
548.945 .0315059
549.750 .0315381
550.555 .0315732
551.359 .0316097
552.162 .0316497
552.965 .0317000
553.768 .0317620
554.569 .0318365
555.371 .0319197
556.171 .0320068
556.972 .0320903
557.771 .0321638
558.570 .0322258
559.369 .0322714
560.167 .0323045
560.964 .0323334
561.761 .0323622
562.558 .0323953
563.354 .0324427
564.149 .0324932
564.944 .0325581
565.738 .0326252
566.532 .0326911
567.325 .0327517
568.118 .0328077
568.910 .0328606
569.702 .0329086
570.494 .0329604
571.285 .0330200
572.075 .0330826
572.865 .0331565
573.654 .0332316
574.443 .0333093
575.232 .0333832
576.020 .0334575
576.807 .0335272
577.594 .0335925
578.381 .0336502
579.167 .0336988
579.952 .0337387
580.738 .0337716
581.522 .0337939
582.307 .0338064
583.091 .0338150
583.874 .0338202
584.657 .0338225
585.440 .0338271
586.222 .0338356
587.004 .0338488
587.785 .0338630
588.566 .0338769
589.346 .0338858
590.126 .0338890
590.906 .0338863
591.685 .0338781
592.464 .0338650
593.242 .0338497
594.020 .0338318
594.797 .0338150
595.575 .0337983
596.351 .0337809
597.128 .0337600
597.904 .0337370
598.679 .0337118
599.454 .0336823
600.229 .0336490
601.004 .0336146
601.778 .0335800
602.551 .0335452
603.325 .0335094
604.097 .0334734
604.870 .0334363
605.642 .0333998
606.414 .0333623
607.185 .0333256
607.956 .0332895
608.727 .0332561
609.497 .0332238
610.267 .0331946
611.037 .0331668
611.806 .0331392
612.575 .0331116
613.344 .0330841
614.112 .0330554
614.880 .0330253
615.647 .0329948
616.414 .0329649
617.181 .0329356
617.948 .0329084
618.714 .0328815
619.480 .0328571
620.245 .0328337
621.011 .0328110
621.775 .0327874
622.540 .0327643
623.304 .0327408
624.068 .0327165
624.832 .0326923
625.595 .0326678
626.358 .0326436
627.120 .0326201
627.883 .0325969
628.645 .0325747
629.406 .0325528
630.168 .0325318
630.929 .0325103
631.689 .0324893
632.450 .0324687
633.210 .0324490
633.970 .0324308
634.729 .0324133
635.489 .0323970
636.248 .0323822
637.006 .0323688
637.765 .0323564
638.523 .0323458
639.280 .0323355
640.038 .0323257
640.795 .0323164
641.552 .0323068
642.309 .0322968
643.065 .0322871
643.821 .0322772
644.577 .0322669
645.332 .0322561
646.088 .0322441
646.843 .0322298
647.597 .0322143
648.352 .0321960
649.106 .0321747
649.860 .0321509
650.613 .0321253
651.367 .0320981
652.120 .0320710
652.872 .0320445
653.625 .0320191
654.377 .0319956
655.129 .0319733
655.881 .0319509
656.632 .0319282
657.384 .0319042
658.135 .0318779
658.885 .0318490
659.636 .0318186
660.386 .0317872
661.136 .0317557
661.885 .0317250
662.635 .0316954
663.384 .0316677
664.133 .0316411
664.881 .0316151
665.630 .0315885
666.378 .0315616
667.126 .0315331
667.874 .0315034
668.621 .0314728
669.368 .0314419
670.115 .0314121
670.862 .0313831
671.608 .0313554
672.354 .0313289
673.100 .0313034
673.846 .0312784
674.591 .0312531
675.337 .0312277
676.082 .0312006
676.826 .0311721
677.571 .0311421
678.315 .0311107
679.059 .0310784
679.803 .0310463
680.547 .0310145
681.290 .0309832
682.033 .0309528
682.776 .0309225
683.518 .0308923
684.261 .0308624
685.003 .0308327
685.745 .0308027
686.487 .0307723
687.228 .0307419
687.969 .0307107
688.710 .0306792
689.451 .0306476
690.192 .0306156
690.932 .0305838
691.672 .0305523
692.412 .0305220
693.152 .0304933
693.891 .0304669
694.630 .0304428
695.369 .0304210
696.108 .0304015
696.846 .0303836
697.585 .0303664
698.323 .0303498
699.061 .0303344
699.798 .0303197
700.536 .0303060
701.273 .0302928
702.010 .0302801
702.746 .0302683
703.483 .0302570
704.219 .0302453
704.955 .0302328
705.691 .0302198
706.427 .0302057
707.162 .0301902
707.897 .0301737
708.632 .0301562
709.367 .0301378
710.101 .0301186
710.835 .0300992
711.569 .0300800
712.303 .0300613
713.037 .0300446
713.770 .0300302
714.503 .0300188
715.236 .0300092
715.969 .0300012
716.702 .0299948
717.434 .0299888
718.166 .0299820
718.898 .0299740
719.629 .0299651
720.361 .0299552
721.092 .0299439
721.823 .0299325
722.554 .0299209
723.284 .0299095
724.014 .0298974
724.744 .0298843
725.474 .0298702
726.204 .0298553
726.933 .0298387
727.662 .0298219
728.391 .0298049
729.120 .0297883
729.849 .0297719
730.577 .0297569
731.305 .0297425
732.033 .0297287
732.760 .0297151
733.488 .0297017
734.215 .0296871
734.942 .0296727
735.669 .0296577
736.395 .0296431
737.122 .0296285
737.848 .0296136
738.573 .0295984
739.299 .0295829
740.024 .0295661
740.750 .0295483
741.474 .0295291
742.199 .0295096
742.924 .0294899
743.648 .0294704
744.372 .0294520
745.096 .0294357
745.819 .0294215
746.543 .0294092
747.266 .0293984
747.989 .0293891
748.711 .0293799
749.434 .0293712
750.156 .0293622
750.878 .0293523
751.599 .0293423
752.321 .0293319
753.042 .0293214
753.763 .0293116
754.484 .0293025
755.205 .0292933
755.925 .0292845
756.645 .0292745
757.365 .0292624
758.085 .0292482
758.804 .0292316
759.523 .0292118
760.242 .0291890
760.961 .0291638
761.679 .0291365
762.397 .0291081
763.115 .0290796
763.833 .0290503
764.551 .0290216
765.268 .0289928
765.985 .0289638
766.702 .0289337
767.418 .0289036
768.134 .0288735
768.850 .0288440
769.566 .0288156
770.282 .0287885
770.997 .0287634
771.712 .0287413
772.427 .0287215
773.142 .0287035
773.856 .0286868
774.570 .0286713
775.284 .0286558
775.998 .0286405
776.711 .0286248
777.424 .0286093
778.137 .0285933
778.849 .0285770
779.562 .0285594
780.274 .0285405
780.986 .0285210
781.697 .0285008
782.409 .0284806
783.120 .0284608
783.831 .0284423
784.541 .0284260
785.252 .0284122
785.962 .0284006
786.671 .0283904
787.381 .0283810
788.090 .0283718
788.799 .0283613
789.508 .0283496
790.217 .0283369
790.925 .0283230
791.633 .0283085
792.341 .0282934
793.048 .0282774
793.755 .0282612
794.462 .0282446
795.169 .0282273
795.875 .0282087
796.581 .0281891
797.287 .0281680
797.993 .0281463
798.698 .0281246
799.403 .0281035
800.108 .0280835
800.812 .0280652
801.517 .0280485
802.221 .0280334
802.924 .0280199
803.628 .0280081
804.331 .0279983
805.034 .0279901
805.736 .0279823
806.439 .0279749
807.141 .0279676
807.843 .0279603
808.544 .0279520
809.245 .0279423
809.946 .0279312
810.647 .0279191
811.347 .0279066
812.047 .0278937
812.747 .0278825
813.447 .0278726
814.146 .0278640
814.845 .0278561
815.543 .0278483
816.242 .0278404
816.940 .0278327
817.638 .0278247
818.335 .0278173
819.032 .0278104
819.729 .0278049
820.426 .0278011
821.122 .0277993
821.818 .0277983
822.514 .0277975
823.209 .0277965
823.905 .0277948
824.599 .0277911
825.294 .0277862
825.988 .0277798
826.682 .0277736
827.376 .0277672
828.069 .0277603
828.762 .0277526
829.455 .0277453
830.147 .0277366
830.840 .0277273
831.531 .0277165
832.223 .0277056
832.914 .0276951
833.605 .0276864
834.296 .0276790
834.986 .0276738
835.676 .0276703
836.366 .0276682
837.055 .0276656
837.744 .0276634
838.433 .0276594
839.121 .0276551
839.809 .0276502
840.497 .0276460
841.185 .0276420
841.872 .0276397
842.559 .0276394
843.245 .0276409
843.932 .0276432
844.617 .0276457
845.303 .0276474
845.988 .0276484
846.673 .0276480
847.358 .0276470
848.042 .0276461
848.726 .0276465
849.410 .0276481
850.093 .0276516
850.776 .0276566
851.459 .0276633
852.141 .0276695
852.823 .0276750
853.505 .0276783
854.186 .0276781
854.867 .0276747
855.548 .0276679
856.228 .0276591
856.908 .0276492
857.588 .0276386
858.267 .0276280
858.946 .0276174
859.625 .0276068
860.303 .0275961
860.981 .0275843
861.659 .0275717
862.336 .0275579
863.013 .0275429
863.690 .0275272
864.366 .0275111
865.042 .0274956
865.718 .0274813
866.393 .0274678
867.068 .0274556
867.743 .0274437
868.417 .0274321
869.091 .0274198
869.765 .0274068
870.438 .0273929
871.111 .0273781
871.783 .0273625
872.456 .0273464
873.127 .0273298
873.799 .0273132
874.470 .0272969
875.141 .0272809
875.811 .0272655
876.481 .0272507
877.151 .0272359
877.820 .0272218
878.489 .0272084
879.158 .0271956
879.826 .0271832
880.494 .0271720
881.162 .0271611
881.829 .0271504
882.496 .0271395
883.163 .0271276
883.829 .0271150
884.495 .0271016
885.160 .0270870
885.825 .0270713
886.490 .0270556
887.154 .0270398
887.818 .0270242
888.482 .0270103
889.145 .0269977
889.808 .0269859
890.471 .0269752
891.133 .0269644
891.795 .0269535
892.456 .0269422
893.117 .0269301
893.778 .0269178
894.439 .0269055
895.099 .0268936
895.758 .0268819
896.417 .0268710
897.076 .0268612
897.735 .0268514
898.393 .0268416
899.051 .0268312
899.708 .0268192
900.365 .0268055
901.022 .0267898
901.678 .0267726
902.334 .0267536
902.990 .0267332
903.645 .0267121
904.300 .0266905
904.954 .0266683
905.608 .0266462
906.262 .0266236
906.915 .0266015
907.568 .0265797
908.221 .0265577
908.873 .0265365
909.525 .0265160
910.176 .0264957
910.828 .0264755
911.478 .0264553
912.129 .0264348
912.778 .0264138
913.428 .0263934
914.077 .0263730
914.726 .0263537
915.375 .0263359
916.023 .0263202
916.670 .0263068
917.318 .0262957
917.964 .0262855
918.611 .0262757
919.257 .0262658
919.903 .0262548
920.548 .0262425
921.193 .0262296
921.838 .0262156
922.482 .0262013
923.126 .0261867
923.770 .0261722
924.413 .0261576
925.056 .0261434
925.698 .0261286
926.340 .0261129
926.982 .0260957
927.623 .0260765
928.264 .0260559
928.904 .0260340
929.544 .0260105
930.184 .0259861
930.823 .0259608
931.462 .0259358
932.101 .0259110
932.739 .0258878
933.377 .0258660
934.014 .0258462
934.651 .0258281
935.288 .0258107
935.924 .0257937
936.560 .0257769
937.196 .0257600
937.831 .0257424
938.466 .0257243
939.100 .0257058
939.734 .0256873
940.368 .0256698
941.001 .0256530
941.634 .0256367
942.266 .0256198
942.899 .0256022
943.530 .0255830
944.162 .0255617
944.793 .0255396
945.423 .0255156
946.053 .0254911
946.683 .0254666
947.313 .0254422
947.942 .0254182
948.571 .0253952
949.199 .0253723
949.827 .0253490
950.455 .0253257
951.082 .0253024
951.709 .0252795
952.335 .0252583
952.961 .0252389
953.587 .0252217
954.212 .0252067
954.837 .0251936
955.462 .0251815
956.086 .0251709
956.710 .0251611
957.334 .0251509
957.957 .0251407
958.579 .0251299
959.202 .0251192
959.824 .0251087
960.445 .0250982
961.067 .0250880
961.688 .0250782
962.308 .0250687
962.928 .0250594
963.548 .0250503
964.168 .0250414
964.787 .0250314
965.406 .0250204
966.024 .0250074
966.642 .0249926
967.260 .0249762
967.877 .0249591
968.494 .0249423
969.110 .0249267
969.727 .0249126
970.342 .0249008
970.958 .0248918
971.573 .0248858
972.188 .0248819
972.802 .0248798
973.416 .0248793
974.030 .0248804
974.643 .0248825
975.256 .0248860
975.869 .0248910
976.481 .0248976
977.093 .0249052
977.705 .0249141
978.316 .0249238
978.927 .0249342
979.538 .0249447
980.148 .0249544
980.758 .0249633
981.367 .0249707
981.977 .0249761
982.586 .0249797
983.194 .0249816
983.802 .0249816
984.410 .0249798
985.018 .0249766
985.625 .0249725
986.232 .0249682
986.838 .0249634
987.445 .0249588
988.050 .0249548
988.656 .0249516
989.261 .0249487
989.866 .0249463
990.471 .0249446
991.075 .0249434
991.679 .0249425
992.282 .0249418
992.886 .0249411
993.489 .0249411
994.091 .0249409
994.694 .0249408
995.296 .0249410
995.897 .0249409
996.499 .0249406
997.100 .0249405
997.701 .0249405
998.301 .0249414
998.901 .0249435
999.501 .0249465
1000.101 .0249504
1000.700 .0249551
1001.299 .0249598
1001.898 .0249645
1002.496 .0249690
1003.094 .0249728
1003.692 .0249755
1004.289 .0249780
1004.887 .0249804
1005.484 .0249828
1006.080 .0249863
1006.677 .0249898
1007.273 .0249931
1007.868 .0249970
1008.464 .0250006
1009.059 .0250040
1009.654 .0250082
1010.249 .0250135
1010.843 .0250199
1011.437 .0250285
1012.031 .0250390
1012.625 .0250509
1013.218 .0250645
1013.811 .0250786
1014.404 .0250930
1014.997 .0251074
1015.589 .0251220
1016.181 .0251358
1016.773 .0251498
1017.365 .0251645
1017.956 .0251785
1018.547 .0251911
1019.138 .0252021
1019.728 .0252097
1020.319 .0252141
1020.909 .0252150
1021.499 .0252128
1022.088 .0252082
1022.678 .0252032
1023.267 .0251980
1023.856 .0251938
1024.445 .0251909
1025.033 .0251897
1025.621 .0251898
1026.209 .0251915
1026.797 .0251934
1027.385 .0251952
1027.972 .0251982
1028.560 .0252020
1029.147 .0252062
1029.734 .0252125
1030.320 .0252195
1030.907 .0252279
1031.493 .0252364
1032.079 .0252452
1032.665 .0252536
1033.250 .0252617
1033.836 .0252689
1034.421 .0252748
1035.006 .0252798
1035.591 .0252834
1036.176 .0252846
1036.761 .0252847
1037.345 .0252843
1037.929 .0252825
1038.514 .0252794
1039.097 .0252764
1039.681 .0252730
1040.265 .0252706
1040.848 .0252690
1041.432 .0252687
1042.015 .0252689
1042.598 .0252692
1043.181 .0252704
1043.764 .0252706
1044.346 .0252721
1044.929 .0252737
1045.511 .0252749
1046.094 .0252774
1046.676 .0252809
1047.258 .0252847
1047.840 .0252892
1048.422 .0252955
1049.003 .0253012
1049.585 .0253066
1050.166 .0253109
1050.748 .0253134
1051.329 .0253143
1051.910 .0253154
1052.491 .0253151
1053.072 .0253125
1053.653 .0253104
1054.234 .0253060
1054.815 .0253001
1055.396 .0252945
1055.976 .0252878
1056.557 .0252814
1057.138 .0252755
1057.718 .0252709
1058.298 .0252656
1058.879 .0252622
1059.459 .0252587
1060.039 .0252537
1060.620 .0252472
1061.200 .0252381
1061.780 .0252263
1062.360 .0252124
1062.940 .0251984
1063.520 .0251843
1064.101 .0251713
1064.681 .0251604
1065.261 .0251511
1065.841 .0251429
1066.421 .0251348
1067.001 .0251268
1067.581 .0251176
1068.161 .0251079
1068.741 .0250973
1069.321 .0250865
1069.901 .0250765
1070.482 .0250679
1071.062 .0250604
1071.642 .0250510
1072.222 .0250428
1072.803 .0250321
1073.383 .0250184
1073.963 .0250015
1074.544 .0249814
1075.124 .0249573
1075.705 .0249313
1076.286 .0249041
1076.866 .0248745
1077.447 .0248449
1078.028 .0248183
1078.609 .0247925
1079.190 .0247697
1079.771 .0247516
1080.352 .0247374
1080.934 .0247263
1081.515 .0247212
1082.097 .0247177
1082.679 .0247175
1083.260 .0247211
1083.842 .0247285
1084.424 .0247389
1085.007 .0247534
1085.589 .0247711
1086.172 .0247929
1086.754 .0248191
1087.337 .0248474
1087.920 .0248735
1088.503 .0248998
1089.087 .0249229
1089.670 .0249404
1090.254 .0249520
1090.838 .0249602
1091.422 .0249635
1092.006 .0249636
1092.590 .0249579
1093.175 .0249484
1093.760 .0249342
1094.345 .0249144
1094.930 .0248876
1095.516 .0248571
1096.102 .0248245
1096.688 .0247929
1097.274 .0247644
1097.860 .0247416
1098.447 .0247225
1099.034 .0247059
1099.622 .0246911
1100.209 .0246761
1100.797 .0246595
1101.385 .0246441
1101.973 .0246311
1102.562 .0246254
1103.151 .0246273
1103.740 .0246383
1104.330 .0246583
1104.920 .0246851
1105.510 .0247149
1106.101 .0247402
1106.691 .0247578
1107.283 .0247659
1107.874 .0247627
1108.466 .0247505
1109.058 .0247347
1109.651 .0247168
1110.244 .0247003
1110.837 .0246877
1111.431 .0246767
1112.025 .0246675
1112.620 .0246597
1113.215 .0246519
1113.810 .0246434
1114.406 .0246344
1115.002 .0246255
1115.599 .0246144
1116.196 .0246050
1116.793 .0245960
1117.391 .0245862
1117.989 .0245750
1118.588 .0245621
1119.187 .0245459
1119.787 .0245283
1120.387 .0245098
1120.988 .0244912
1121.589 .0244768
1122.190 .0244638
1122.793 .0244549
1123.395 .0244485
1123.998 .0244463
1124.602 .0244518
1125.206 .0244657
1125.811 .0244882
1126.416 .0245180
1127.022 .0245537
1127.628 .0245944
1128.235 .0246380
1128.843 .0246877
1129.451 .0247368
1130.059 .0247885
1130.669 .0248435
1131.278 .0249004
1131.889 .0249552
1132.500 .0250154
1133.112 .0250720
1133.724 .0251301
1134.337 .0251825
1134.950 .0252246
1135.564 .0252528
1136.179 .0252754
1136.795 .0252917
1137.411 .0253084
1138.028 .0253288
1138.645 .0253598
1139.263 .0254037
1139.882 .0254619
1140.502 .0255272
1141.122 .0255963
1141.743 .0256749
1142.365 .0257710
1142.987 .0258335
1143.611 .0258908
1144.235 .0258099
1144.859 .0261220
1145.485 .0266125
