Measurement Sequence started on: 10-20-44-796
Integration time: 35
Scans to Average: 2 
>>>>>Begin Spectral Data<<<<<
432.953 .0501384
433.882 .0410257
434.810 .0365362
435.737 .0374002
436.662 .0354651
437.586 .0364823
438.509 .0356849
439.431 .0353530
440.351 .0352376
441.269 .0351708
442.187 .0352096
443.103 .0352837
444.018 .0353617
444.932 .0354760
445.844 .0355986
446.756 .0357101
447.666 .0358039
448.575 .0358885
449.482 .0359747
450.388 .0360628
451.294 .0361461
452.198 .0362289
453.100 .0363129
454.002 .0363849
454.902 .0364402
455.801 .0364749
456.699 .0365064
457.596 .0365284
458.492 .0365341
459.387 .0365296
460.280 .0365181
461.172 .0364951
462.064 .0364671
462.954 .0364270
463.843 .0363759
464.730 .0363139
465.617 .0362441
466.503 .0361702
467.387 .0360973
468.271 .0360223
469.153 .0359524
470.035 .0358870
470.915 .0358326
471.794 .0357746
472.673 .0357175
473.550 .0356664
474.426 .0356201
475.301 .0355790
476.175 .0355451
477.048 .0355130
477.920 .0354886
478.791 .0354667
479.661 .0354483
480.530 .0354272
481.398 .0354050
482.266 .0353806
483.132 .0353553
483.997 .0353269
484.861 .0353000
485.724 .0352746
486.587 .0352555
487.448 .0352403
488.308 .0352280
489.168 .0352169
490.026 .0352068
490.884 .0351943
491.741 .0351788
492.597 .0351577
493.452 .0351330
494.306 .0351019
495.159 .0350704
496.011 .0350406
496.862 .0350124
497.713 .0349802
498.562 .0349427
499.411 .0348997
500.259 .0348457
501.106 .0347815
501.952 .0347082
502.798 .0346277
503.642 .0345436
504.486 .0344577
505.329 .0343715
506.171 .0342862
507.012 .0342043
507.852 .0341184
508.692 .0340261
509.531 .0339278
510.369 .0338199
511.206 .0337015
512.043 .0335816
512.878 .0334595
513.713 .0333330
514.547 .0332049
515.381 .0330746
516.213 .0329358
517.045 .0327918
517.876 .0326399
518.706 .0324801
519.536 .0323200
520.365 .0321719
521.193 .0320236
522.020 .0318939
522.847 .0317819
523.673 .0316771
524.498 .0315772
525.323 .0314802
526.146 .0313822
526.969 .0312802
527.792 .0311716
528.614 .0310668
529.435 .0309626
530.255 .0308758
531.075 .0307877
531.894 .0307075
532.712 .0306343
533.530 .0305525
534.347 .0304535
535.163 .0303393
535.979 .0302102
536.794 .0300739
537.608 .0299333
538.422 .0298049
539.235 .0296951
540.048 .0296137
540.860 .0295568
541.671 .0295254
542.481 .0295067
543.292 .0294964
544.101 .0294788
544.910 .0294616
545.718 .0294321
546.526 .0293884
547.333 .0293396
548.139 .0292863
548.945 .0292364
549.750 .0291871
550.555 .0291430
551.359 .0291080
552.162 .0290772
552.965 .0290540
553.768 .0290339
554.569 .0290293
555.371 .0290370
556.171 .0290591
556.972 .0290964
557.771 .0291500
558.570 .0292192
559.369 .0293025
560.167 .0293997
560.964 .0295046
561.761 .0296171
562.558 .0297374
563.354 .0298652
564.149 .0300030
564.944 .0301491
565.738 .0303021
566.532 .0304535
567.325 .0306003
568.118 .0307329
568.910 .0308495
569.702 .0309484
570.494 .0310338
571.285 .0311069
572.075 .0311716
572.865 .0312310
573.654 .0312877
574.443 .0313437
575.232 .0313967
576.020 .0314455
576.807 .0314904
577.594 .0315294
578.381 .0315644
579.167 .0315940
579.952 .0316257
580.738 .0316584
581.522 .0316939
582.307 .0317300
583.091 .0317694
583.874 .0318097
584.657 .0318507
585.440 .0318900
586.222 .0319284
587.004 .0319646
587.785 .0319989
588.566 .0320298
589.346 .0320567
590.126 .0320781
590.906 .0320943
591.685 .0321049
592.464 .0321110
593.242 .0321129
594.020 .0321127
594.797 .0321108
595.575 .0321089
596.351 .0321056
597.128 .0321011
597.904 .0320947
598.679 .0320872
599.454 .0320785
600.229 .0320683
601.004 .0320571
601.778 .0320457
602.551 .0320344
603.325 .0320234
604.097 .0320123
604.870 .0320007
605.642 .0319891
606.414 .0319780
607.185 .0319658
607.956 .0319539
608.727 .0319427
609.497 .0319333
610.267 .0319249
611.037 .0319176
611.806 .0319107
612.575 .0319034
613.344 .0318947
614.112 .0318845
614.880 .0318728
615.647 .0318604
616.414 .0318474
617.181 .0318354
617.948 .0318237
618.714 .0318124
619.480 .0318007
620.245 .0317885
621.011 .0317754
621.775 .0317606
622.540 .0317429
623.304 .0317241
624.068 .0317052
624.832 .0316867
625.595 .0316682
626.358 .0316520
627.120 .0316372
627.883 .0316223
628.645 .0316071
629.406 .0315905
630.168 .0315717
630.929 .0315519
631.689 .0315307
632.450 .0315081
633.210 .0314858
633.970 .0314633
634.729 .0314401
635.489 .0314170
636.248 .0313932
637.006 .0313671
637.765 .0313388
638.523 .0313094
639.280 .0312782
640.038 .0312460
640.795 .0312151
641.552 .0311854
642.309 .0311587
643.065 .0311344
643.821 .0311117
644.577 .0310905
645.332 .0310700
646.088 .0310492
646.843 .0310272
647.597 .0310054
648.352 .0309841
649.106 .0309629
649.860 .0309424
650.613 .0309231
651.367 .0309055
652.120 .0308897
652.872 .0308748
653.625 .0308607
654.377 .0308472
655.129 .0308341
655.881 .0308206
656.632 .0308069
657.384 .0307932
658.135 .0307799
658.885 .0307661
659.636 .0307524
660.386 .0307389
661.136 .0307257
661.885 .0307133
662.635 .0307019
663.384 .0306913
664.133 .0306806
664.881 .0306697
665.630 .0306586
666.378 .0306460
667.126 .0306325
667.874 .0306171
668.621 .0306005
669.368 .0305831
670.115 .0305654
670.862 .0305474
671.608 .0305302
672.354 .0305149
673.100 .0305008
673.846 .0304877
674.591 .0304751
675.337 .0304628
676.082 .0304504
676.826 .0304372
677.571 .0304231
678.315 .0304081
679.059 .0303929
679.803 .0303775
680.547 .0303624
681.290 .0303479
682.033 .0303340
682.776 .0303204
683.518 .0303065
684.261 .0302918
685.003 .0302753
685.745 .0302567
686.487 .0302361
687.228 .0302142
687.969 .0301913
688.710 .0301672
689.451 .0301434
690.192 .0301196
690.932 .0300964
691.672 .0300733
692.412 .0300501
693.152 .0300268
693.891 .0300034
694.630 .0299800
695.369 .0299562
696.108 .0299329
696.846 .0299106
697.585 .0298884
698.323 .0298674
699.061 .0298471
699.798 .0298271
700.536 .0298073
701.273 .0297880
702.010 .0297683
702.746 .0297481
703.483 .0297272
704.219 .0297056
704.955 .0296833
705.691 .0296603
706.427 .0296367
707.162 .0296125
707.897 .0295889
708.632 .0295660
709.367 .0295434
710.101 .0295219
710.835 .0295011
711.569 .0294807
712.303 .0294605
713.037 .0294408
713.770 .0294215
714.503 .0294024
715.236 .0293845
715.969 .0293667
716.702 .0293496
717.434 .0293337
718.166 .0293183
718.898 .0293025
719.629 .0292876
720.361 .0292723
721.092 .0292568
721.823 .0292414
722.554 .0292261
723.284 .0292108
724.014 .0291957
724.744 .0291801
725.474 .0291631
726.204 .0291444
726.933 .0291243
727.662 .0291019
728.391 .0290788
729.120 .0290551
729.849 .0290314
730.577 .0290086
731.305 .0289870
732.033 .0289659
732.760 .0289448
733.488 .0289237
734.215 .0289019
734.942 .0288792
735.669 .0288558
736.395 .0288326
737.122 .0288109
737.848 .0287912
738.573 .0287743
739.299 .0287599
740.024 .0287480
740.750 .0287375
741.474 .0287273
742.199 .0287166
742.924 .0287047
743.648 .0286917
744.372 .0286779
745.096 .0286642
745.819 .0286503
746.543 .0286372
747.266 .0286254
747.989 .0286146
748.711 .0286043
749.434 .0285941
750.156 .0285837
750.878 .0285730
751.599 .0285626
752.321 .0285528
753.042 .0285441
753.763 .0285373
754.484 .0285314
755.205 .0285266
755.925 .0285221
756.645 .0285165
757.365 .0285093
758.085 .0285000
758.804 .0284886
759.523 .0284742
760.242 .0284574
760.961 .0284386
761.679 .0284180
762.397 .0283960
763.115 .0283722
763.833 .0283467
764.551 .0283198
765.268 .0282914
765.985 .0282617
766.702 .0282315
767.418 .0282014
768.134 .0281721
768.850 .0281439
769.566 .0281173
770.282 .0280925
770.997 .0280690
771.712 .0280475
772.427 .0280271
773.142 .0280074
773.856 .0279880
774.570 .0279687
775.284 .0279497
775.998 .0279308
776.711 .0279124
777.424 .0278945
778.137 .0278776
778.849 .0278616
779.562 .0278463
780.274 .0278322
780.986 .0278191
781.697 .0278068
782.409 .0277954
783.120 .0277847
783.831 .0277744
784.541 .0277647
785.252 .0277558
785.962 .0277474
786.671 .0277393
787.381 .0277314
788.090 .0277232
788.799 .0277140
789.508 .0277038
790.217 .0276921
790.925 .0276792
791.633 .0276651
792.341 .0276494
793.048 .0276328
793.755 .0276151
794.462 .0275972
795.169 .0275791
795.875 .0275615
796.581 .0275450
797.287 .0275295
797.993 .0275153
798.698 .0275029
799.403 .0274924
800.108 .0274834
800.812 .0274754
801.517 .0274688
802.221 .0274630
802.924 .0274577
803.628 .0274527
804.331 .0274480
805.034 .0274439
805.736 .0274396
806.439 .0274343
807.141 .0274281
807.843 .0274208
808.544 .0274119
809.245 .0274012
809.946 .0273889
810.647 .0273749
811.347 .0273596
812.047 .0273436
812.747 .0273268
813.447 .0273092
814.146 .0272912
814.845 .0272730
815.543 .0272552
816.242 .0272379
816.940 .0272210
817.638 .0272056
818.335 .0271921
819.032 .0271796
819.729 .0271689
820.426 .0271596
821.122 .0271511
821.818 .0271430
822.514 .0271344
823.209 .0271248
823.905 .0271143
824.599 .0271027
825.294 .0270899
825.988 .0270762
826.682 .0270623
827.376 .0270482
828.069 .0270342
828.762 .0270205
829.455 .0270075
830.147 .0269946
830.840 .0269820
831.531 .0269695
832.223 .0269570
832.914 .0269442
833.605 .0269310
834.296 .0269176
834.986 .0269039
835.676 .0268904
836.366 .0268775
837.055 .0268647
837.744 .0268527
838.433 .0268410
839.121 .0268295
839.809 .0268183
840.497 .0268072
841.185 .0267956
841.872 .0267837
842.559 .0267717
843.245 .0267592
843.932 .0267465
844.617 .0267339
845.303 .0267223
845.988 .0267114
846.673 .0267015
847.358 .0266926
848.042 .0266851
848.726 .0266791
849.410 .0266735
850.093 .0266683
850.776 .0266636
851.459 .0266585
852.141 .0266525
852.823 .0266450
853.505 .0266367
854.186 .0266275
854.867 .0266174
855.548 .0266061
856.228 .0265946
856.908 .0265830
857.588 .0265716
858.267 .0265606
858.946 .0265503
859.625 .0265402
860.303 .0265303
860.981 .0265198
861.659 .0265085
862.336 .0264960
863.013 .0264826
863.690 .0264683
864.366 .0264534
865.042 .0264378
865.718 .0264218
866.393 .0264057
867.068 .0263899
867.743 .0263733
868.417 .0263559
869.091 .0263373
869.765 .0263174
870.438 .0262959
871.111 .0262730
871.783 .0262492
872.456 .0262255
873.127 .0262024
873.799 .0261801
874.470 .0261587
875.141 .0261386
875.811 .0261190
876.481 .0261005
877.151 .0260826
877.820 .0260651
878.489 .0260482
879.158 .0260323
879.826 .0260172
880.494 .0260033
881.162 .0259903
881.829 .0259781
882.496 .0259662
883.163 .0259543
883.829 .0259420
884.495 .0259293
885.160 .0259171
885.825 .0259056
886.490 .0258954
887.154 .0258870
887.818 .0258795
888.482 .0258734
889.145 .0258681
889.808 .0258634
890.471 .0258582
891.133 .0258526
891.795 .0258470
892.456 .0258408
893.117 .0258352
893.778 .0258303
894.439 .0258266
895.099 .0258243
895.758 .0258228
896.417 .0258213
897.076 .0258190
897.735 .0258148
898.393 .0258085
899.051 .0258003
899.708 .0257899
900.365 .0257774
901.022 .0257638
901.678 .0257505
902.334 .0257373
902.990 .0257243
903.645 .0257125
904.300 .0257014
904.954 .0256910
905.608 .0256805
906.262 .0256695
906.915 .0256587
907.568 .0256476
908.221 .0256366
908.873 .0256260
909.525 .0256166
910.176 .0256081
910.828 .0256008
911.478 .0255950
912.129 .0255902
912.778 .0255856
913.428 .0255813
914.077 .0255767
914.726 .0255722
915.375 .0255671
916.023 .0255617
916.670 .0255560
917.318 .0255503
917.964 .0255439
918.611 .0255368
919.257 .0255288
919.903 .0255205
920.548 .0255116
921.193 .0255028
921.838 .0254941
922.482 .0254861
923.126 .0254790
923.770 .0254729
924.413 .0254669
925.056 .0254609
925.698 .0254544
926.340 .0254473
926.982 .0254393
927.623 .0254309
928.264 .0254222
928.904 .0254140
929.544 .0254061
930.184 .0253983
930.823 .0253910
931.462 .0253839
932.101 .0253764
932.739 .0253680
933.377 .0253586
934.014 .0253475
934.651 .0253352
935.288 .0253221
935.924 .0253090
936.560 .0252959
937.196 .0252834
937.831 .0252711
938.466 .0252595
939.100 .0252482
939.734 .0252368
940.368 .0252252
941.001 .0252144
941.634 .0252033
942.266 .0251925
942.899 .0251816
943.530 .0251713
944.162 .0251611
944.793 .0251507
945.423 .0251394
946.053 .0251273
946.683 .0251142
947.313 .0251002
947.942 .0250851
948.571 .0250695
949.199 .0250530
949.827 .0250361
950.455 .0250190
951.082 .0250023
951.709 .0249859
952.335 .0249700
952.961 .0249544
953.587 .0249396
954.212 .0249253
954.837 .0249114
955.462 .0248987
956.086 .0248870
956.710 .0248766
957.334 .0248675
957.957 .0248594
958.579 .0248531
959.202 .0248486
959.824 .0248451
960.445 .0248419
961.067 .0248389
961.688 .0248355
962.308 .0248310
962.928 .0248257
963.548 .0248193
964.168 .0248116
964.787 .0248031
965.406 .0247938
966.024 .0247839
966.642 .0247739
967.260 .0247633
967.877 .0247518
968.494 .0247395
969.110 .0247260
969.727 .0247110
970.342 .0246952
970.958 .0246799
971.573 .0246654
972.188 .0246526
972.802 .0246420
973.416 .0246335
974.030 .0246270
974.643 .0246224
975.256 .0246190
975.869 .0246164
976.481 .0246147
977.093 .0246143
977.705 .0246159
978.316 .0246203
978.927 .0246278
979.538 .0246381
980.148 .0246507
980.758 .0246650
981.367 .0246794
981.977 .0246935
982.586 .0247063
983.194 .0247177
983.802 .0247274
984.410 .0247350
985.018 .0247407
985.625 .0247444
986.232 .0247470
986.838 .0247478
987.445 .0247466
988.050 .0247439
988.656 .0247396
989.261 .0247339
989.866 .0247261
990.471 .0247172
991.075 .0247070
991.679 .0246964
992.282 .0246850
992.886 .0246732
993.489 .0246617
994.091 .0246507
994.694 .0246403
995.296 .0246313
995.897 .0246239
996.499 .0246179
997.100 .0246133
997.701 .0246106
998.301 .0246084
998.901 .0246070
999.501 .0246062
1000.101 .0246058
1000.700 .0246054
1001.299 .0246052
1001.898 .0246043
1002.496 .0246041
1003.094 .0246039
1003.692 .0246035
1004.289 .0246032
1004.887 .0246032
1005.484 .0246029
1006.080 .0246024
1006.677 .0246020
1007.273 .0246007
1007.868 .0245987
1008.464 .0245962
1009.059 .0245923
1009.654 .0245879
1010.249 .0245836
1010.843 .0245790
1011.437 .0245752
1012.031 .0245721
1012.625 .0245692
1013.218 .0245665
1013.811 .0245646
1014.404 .0245630
1014.997 .0245623
1015.589 .0245628
1016.181 .0245643
1016.773 .0245666
1017.365 .0245713
1017.956 .0245761
1018.547 .0245807
1019.138 .0245847
1019.728 .0245873
1020.319 .0245880
1020.909 .0245880
1021.499 .0245868
1022.088 .0245856
1022.678 .0245846
1023.267 .0245839
1023.856 .0245830
1024.445 .0245821
1025.033 .0245808
1025.621 .0245785
1026.209 .0245758
1026.797 .0245721
1027.385 .0245670
1027.972 .0245626
1028.560 .0245593
1029.147 .0245571
1029.734 .0245573
1030.320 .0245587
1030.907 .0245609
1031.493 .0245635
1032.079 .0245651
1032.665 .0245649
1033.250 .0245639
1033.836 .0245617
1034.421 .0245578
1035.006 .0245530
1035.591 .0245482
1036.176 .0245423
1036.761 .0245364
1037.345 .0245306
1037.929 .0245239
1038.514 .0245166
1039.097 .0245091
1039.681 .0245004
1040.265 .0244926
1040.848 .0244857
1041.432 .0244798
1042.015 .0244756
1042.598 .0244731
1043.181 .0244716
1043.764 .0244717
1044.346 .0244740
1044.929 .0244781
1045.511 .0244835
1046.094 .0244909
1046.676 .0244987
1047.258 .0245075
1047.840 .0245169
1048.422 .0245255
1049.003 .0245330
1049.585 .0245392
1050.166 .0245429
1050.748 .0245451
1051.329 .0245459
1051.910 .0245470
1052.491 .0245483
1053.072 .0245501
1053.653 .0245520
1054.234 .0245534
1054.815 .0245540
1055.396 .0245529
1055.976 .0245496
1056.557 .0245455
1057.138 .0245393
1057.718 .0245327
1058.298 .0245263
1058.879 .0245209
1059.459 .0245157
1060.039 .0245109
1060.620 .0245051
1061.200 .0244978
1061.780 .0244884
1062.360 .0244776
1062.940 .0244659
1063.520 .0244544
1064.101 .0244429
1064.681 .0244315
1065.261 .0244217
1065.841 .0244130
1066.421 .0244039
1067.001 .0243950
1067.581 .0243845
1068.161 .0243719
1068.741 .0243580
1069.321 .0243437
1069.901 .0243305
1070.482 .0243194
1071.062 .0243112
1071.642 .0243058
1072.222 .0243040
1072.803 .0243038
1073.383 .0243035
1073.963 .0243017
1074.544 .0242982
1075.124 .0242892
1075.705 .0242760
1076.286 .0242595
1076.866 .0242418
1077.447 .0242245
1078.028 .0242092
1078.609 .0241968
1079.190 .0241888
1079.771 .0241842
1080.352 .0241825
1080.934 .0241806
1081.515 .0241790
1082.097 .0241751
1082.679 .0241692
1083.260 .0241609
1083.842 .0241515
1084.424 .0241427
1085.007 .0241364
1085.589 .0241325
1086.172 .0241322
1086.754 .0241333
1087.337 .0241354
1087.920 .0241379
1088.503 .0241390
1089.087 .0241362
1089.670 .0241296
1090.254 .0241182
1090.838 .0241039
1091.422 .0240862
1092.006 .0240684
1092.590 .0240486
1093.175 .0240305
1093.760 .0240136
1094.345 .0239951
1094.930 .0239769
1095.516 .0239597
1096.102 .0239416
1096.688 .0239247
1097.274 .0239094
1097.860 .0238969
1098.447 .0238868
1099.034 .0238812
1099.622 .0238782
1100.209 .0238772
1100.797 .0238778
1101.385 .0238769
1101.973 .0238740
1102.562 .0238726
1103.151 .0238697
1103.740 .0238671
1104.330 .0238671
1104.920 .0238691
1105.510 .0238746
1106.101 .0238824
1106.691 .0238901
1107.283 .0238959
1107.874 .0239000
1108.466 .0239011
1109.058 .0238979
1109.651 .0238921
1110.244 .0238838
1110.837 .0238755
1111.431 .0238705
1112.025 .0238665
1112.620 .0238668
1113.215 .0238741
1113.810 .0238885
1114.406 .0239096
1115.002 .0239352
1115.599 .0239633
1116.196 .0239924
1116.793 .0240203
1117.391 .0240443
1117.989 .0240604
1118.588 .0240720
1119.187 .0240776
1119.787 .0240767
1120.387 .0240721
1120.988 .0240649
1121.589 .0240586
1122.190 .0240533
1122.793 .0240482
1123.395 .0240428
1123.998 .0240398
1124.602 .0240395
1125.206 .0240423
1125.811 .0240500
1126.416 .0240635
1127.022 .0240831
1127.628 .0241074
1128.235 .0241382
1128.843 .0241730
1129.451 .0242093
1130.059 .0242486
1130.669 .0242896
1131.278 .0243357
1131.889 .0243856
1132.500 .0244406
1133.112 .0245024
1133.724 .0245700
1134.337 .0246396
1134.950 .0247057
1135.564 .0247683
1136.179 .0248239
1136.795 .0248722
1137.411 .0249137
1138.028 .0249525
1138.645 .0249928
1139.263 .0250421
1139.882 .0250945
1140.502 .0251507
1141.122 .0252095
1141.743 .0252647
1142.365 .0253095
1142.987 .0254074
1143.611 .0254295
1144.235 .0254072
1144.859 .0253629
1145.485 .0253138
