Measurement Sequence started on: 10-20-44-796
Integration time: 35
Scans to Average: 2 
>>>>>Begin Spectral Data<<<<<
432.953 .0332872
433.882 .0359997
434.810 .0324500
435.737 .0313353
436.662 .0314931
437.586 .0324403
438.509 .0323121
439.431 .0321557
440.351 .0321257
441.269 .0321156
442.187 .0321009
443.103 .0320757
444.018 .0320927
444.932 .0321582
445.844 .0322276
446.756 .0323038
447.666 .0323791
448.575 .0324424
449.482 .0324979
450.388 .0325314
451.294 .0325489
452.198 .0325466
453.100 .0325229
454.002 .0324836
454.902 .0324233
455.801 .0323519
456.699 .0322706
457.596 .0321847
458.492 .0320889
459.387 .0319891
460.280 .0318923
461.172 .0317960
462.064 .0317013
462.954 .0316083
463.843 .0315261
464.730 .0314515
465.617 .0313909
466.503 .0313403
467.387 .0312989
468.271 .0312646
469.153 .0312356
470.035 .0312106
470.915 .0311888
471.794 .0311702
472.673 .0311555
473.550 .0311460
474.426 .0311483
475.301 .0311555
476.175 .0311687
477.048 .0311844
477.920 .0311996
478.791 .0312064
479.661 .0312063
480.530 .0312011
481.398 .0311895
482.266 .0311769
483.132 .0311692
483.997 .0311643
484.861 .0311641
485.724 .0311721
486.587 .0311838
487.448 .0311959
488.308 .0312045
489.168 .0312035
490.026 .0311919
490.884 .0311719
491.741 .0311435
492.597 .0311082
493.452 .0310725
494.306 .0310398
495.159 .0310078
496.011 .0309797
496.862 .0309528
497.713 .0309217
498.562 .0308852
499.411 .0308420
500.259 .0307877
501.106 .0307247
501.952 .0306561
502.798 .0305867
503.642 .0305173
504.486 .0304482
505.329 .0303804
506.171 .0303120
507.012 .0302474
507.852 .0301812
508.692 .0301124
509.531 .0300408
510.369 .0299674
511.206 .0298918
512.043 .0298124
512.878 .0297305
513.713 .0296449
514.547 .0295551
515.381 .0294591
516.213 .0293524
517.045 .0292317
517.876 .0290985
518.706 .0289562
519.536 .0288009
520.365 .0286327
521.193 .0284497
522.020 .0282542
522.847 .0280442
523.673 .0278174
524.498 .0275797
525.323 .0273310
526.146 .0270774
526.969 .0268260
527.792 .0265817
528.614 .0263448
529.435 .0261255
530.255 .0259296
531.075 .0257555
531.894 .0256041
532.712 .0254679
533.530 .0253472
534.347 .0252483
535.163 .0251661
535.979 .0251032
536.794 .0250576
537.608 .0250357
538.422 .0250275
539.235 .0250317
540.048 .0250479
540.860 .0250695
541.671 .0250999
542.481 .0251326
543.292 .0251651
544.101 .0252025
544.910 .0252398
545.718 .0252830
546.526 .0253378
547.333 .0253994
548.139 .0254629
548.945 .0255244
549.750 .0255862
550.555 .0256415
551.359 .0256928
552.162 .0257368
552.965 .0257818
553.768 .0258284
554.569 .0258801
555.371 .0259337
556.171 .0259961
556.972 .0260696
557.771 .0261513
558.570 .0262352
559.369 .0263194
560.167 .0264009
560.964 .0264819
561.761 .0265572
562.558 .0266344
563.354 .0267117
564.149 .0267903
564.944 .0268693
565.738 .0269494
566.532 .0270282
567.325 .0271037
568.118 .0271721
568.910 .0272317
569.702 .0272852
570.494 .0273334
571.285 .0273757
572.075 .0274233
572.865 .0274780
573.654 .0275390
574.443 .0276063
575.232 .0276825
576.020 .0277631
576.807 .0278466
577.594 .0279304
578.381 .0280118
579.167 .0280925
579.952 .0281739
580.738 .0282541
581.522 .0283362
582.307 .0284208
583.091 .0285045
583.874 .0285849
584.657 .0286617
585.440 .0287311
586.222 .0287920
587.004 .0288445
587.785 .0288888
588.566 .0289256
589.346 .0289573
590.126 .0289844
590.906 .0290081
591.685 .0290295
592.464 .0290489
593.242 .0290662
594.020 .0290802
594.797 .0290906
595.575 .0290971
596.351 .0290993
597.128 .0290979
597.904 .0290922
598.679 .0290836
599.454 .0290725
600.229 .0290603
601.004 .0290475
601.778 .0290352
602.551 .0290241
603.325 .0290135
604.097 .0290036
604.870 .0289939
605.642 .0289838
606.414 .0289728
607.185 .0289610
607.956 .0289492
608.727 .0289378
609.497 .0289280
610.267 .0289201
611.037 .0289148
611.806 .0289124
612.575 .0289120
613.344 .0289127
614.112 .0289141
614.880 .0289152
615.647 .0289147
616.414 .0289127
617.181 .0289091
617.948 .0289043
618.714 .0288985
619.480 .0288922
620.245 .0288858
621.011 .0288793
621.775 .0288724
622.540 .0288644
623.304 .0288554
624.068 .0288458
624.832 .0288343
625.595 .0288218
626.358 .0288087
627.120 .0287948
627.883 .0287796
628.645 .0287645
629.406 .0287492
630.168 .0287339
630.929 .0287186
631.689 .0287037
632.450 .0286887
633.210 .0286741
633.970 .0286592
634.729 .0286447
635.489 .0286307
636.248 .0286174
637.006 .0286033
637.765 .0285893
638.523 .0285751
639.280 .0285604
640.038 .0285450
640.795 .0285298
641.552 .0285144
642.309 .0285004
643.065 .0284874
643.821 .0284756
644.577 .0284646
645.332 .0284550
646.088 .0284456
646.843 .0284353
647.597 .0284237
648.352 .0284106
649.106 .0283956
649.860 .0283806
650.613 .0283650
651.367 .0283500
652.120 .0283363
652.872 .0283240
653.625 .0283129
654.377 .0283028
655.129 .0282930
655.881 .0282837
656.632 .0282747
657.384 .0282659
658.135 .0282565
658.885 .0282471
659.636 .0282390
660.386 .0282309
661.136 .0282228
661.885 .0282143
662.635 .0282052
663.384 .0281960
664.133 .0281861
664.881 .0281757
665.630 .0281654
666.378 .0281554
667.126 .0281447
667.874 .0281329
668.621 .0281199
669.368 .0281055
670.115 .0280898
670.862 .0280727
671.608 .0280552
672.354 .0280373
673.100 .0280201
673.846 .0280041
674.591 .0279898
675.337 .0279771
676.082 .0279653
676.826 .0279545
677.571 .0279442
678.315 .0279342
679.059 .0279243
679.803 .0279150
680.547 .0279065
681.290 .0278985
682.033 .0278904
682.776 .0278816
683.518 .0278727
684.261 .0278631
685.003 .0278525
685.745 .0278407
686.487 .0278282
687.228 .0278149
687.969 .0278007
688.710 .0277862
689.451 .0277706
690.192 .0277543
690.932 .0277367
691.672 .0277178
692.412 .0276979
693.152 .0276775
693.891 .0276572
694.630 .0276375
695.369 .0276190
696.108 .0276012
696.846 .0275841
697.585 .0275677
698.323 .0275516
699.061 .0275360
699.798 .0275206
700.536 .0275052
701.273 .0274900
702.010 .0274751
702.746 .0274601
703.483 .0274458
704.219 .0274317
704.955 .0274176
705.691 .0274037
706.427 .0273897
707.162 .0273759
707.897 .0273626
708.632 .0273497
709.367 .0273372
710.101 .0273246
710.835 .0273119
711.569 .0272982
712.303 .0272840
713.037 .0272693
713.770 .0272538
714.503 .0272383
715.236 .0272230
715.969 .0272078
716.702 .0271935
717.434 .0271800
718.166 .0271665
718.898 .0271526
719.629 .0271383
720.361 .0271229
721.092 .0271067
721.823 .0270898
722.554 .0270725
723.284 .0270557
724.014 .0270395
724.744 .0270230
725.474 .0270062
726.204 .0269898
726.933 .0269727
727.662 .0269547
728.391 .0269363
729.120 .0269172
729.849 .0268978
730.577 .0268785
731.305 .0268594
732.033 .0268406
732.760 .0268222
733.488 .0268039
734.215 .0267854
734.942 .0267669
735.669 .0267479
736.395 .0267286
737.122 .0267096
737.848 .0266905
738.573 .0266713
739.299 .0266525
740.024 .0266342
740.750 .0266161
741.474 .0265982
742.199 .0265804
742.924 .0265626
743.648 .0265446
744.372 .0265265
745.096 .0265083
745.819 .0264902
746.543 .0264722
747.266 .0264548
747.989 .0264383
748.711 .0264234
749.434 .0264103
750.156 .0263993
750.878 .0263908
751.599 .0263845
752.321 .0263801
753.042 .0263771
753.763 .0263751
754.484 .0263732
755.205 .0263709
755.925 .0263682
756.645 .0263642
757.365 .0263592
758.085 .0263532
758.804 .0263465
759.523 .0263389
760.242 .0263300
760.961 .0263197
761.679 .0263076
762.397 .0262936
763.115 .0262769
763.833 .0262577
764.551 .0262363
765.268 .0262129
765.985 .0261879
766.702 .0261622
767.418 .0261366
768.134 .0261117
768.850 .0260883
769.566 .0260663
770.282 .0260453
770.997 .0260257
771.712 .0260072
772.427 .0259896
773.142 .0259723
773.856 .0259554
774.570 .0259386
775.284 .0259219
775.998 .0259052
776.711 .0258883
777.424 .0258718
778.137 .0258557
778.849 .0258398
779.562 .0258239
780.274 .0258083
780.986 .0257929
781.697 .0257778
782.409 .0257633
783.120 .0257494
783.831 .0257361
784.541 .0257236
785.252 .0257119
785.962 .0257010
786.671 .0256909
787.381 .0256813
788.090 .0256722
788.799 .0256635
789.508 .0256549
790.217 .0256461
790.925 .0256372
791.633 .0256284
792.341 .0256189
793.048 .0256089
793.755 .0255981
794.462 .0255867
795.169 .0255743
795.875 .0255615
796.581 .0255484
797.287 .0255353
797.993 .0255224
798.698 .0255097
799.403 .0254970
800.108 .0254844
800.812 .0254713
801.517 .0254574
802.221 .0254431
802.924 .0254283
803.628 .0254129
804.331 .0253977
805.034 .0253832
805.736 .0253692
806.439 .0253560
807.141 .0253439
807.843 .0253322
808.544 .0253209
809.245 .0253098
809.946 .0252983
810.647 .0252874
811.347 .0252770
812.047 .0252675
812.747 .0252595
813.447 .0252533
814.146 .0252479
814.845 .0252437
815.543 .0252398
816.242 .0252359
816.940 .0252311
817.638 .0252254
818.335 .0252181
819.032 .0252097
819.729 .0252002
820.426 .0251898
821.122 .0251786
821.818 .0251667
822.514 .0251536
823.209 .0251397
823.905 .0251243
824.599 .0251073
825.294 .0250886
825.988 .0250690
826.682 .0250484
827.376 .0250277
828.069 .0250073
828.762 .0249879
829.455 .0249693
830.147 .0249518
830.840 .0249354
831.531 .0249200
832.223 .0249053
832.914 .0248912
833.605 .0248775
834.296 .0248640
834.986 .0248512
835.676 .0248390
836.366 .0248278
837.055 .0248175
837.744 .0248078
838.433 .0247984
839.121 .0247894
839.809 .0247803
840.497 .0247713
841.185 .0247623
841.872 .0247535
842.559 .0247446
843.245 .0247356
843.932 .0247266
844.617 .0247174
845.303 .0247083
845.988 .0246992
846.673 .0246901
847.358 .0246813
848.042 .0246731
848.726 .0246657
849.410 .0246594
850.093 .0246538
850.776 .0246489
851.459 .0246437
852.141 .0246380
852.823 .0246314
853.505 .0246237
854.186 .0246146
854.867 .0246044
855.548 .0245936
856.228 .0245823
856.908 .0245708
857.588 .0245594
858.267 .0245480
858.946 .0245364
859.625 .0245248
860.303 .0245128
860.981 .0245004
861.659 .0244878
862.336 .0244747
863.013 .0244610
863.690 .0244469
864.366 .0244323
865.042 .0244176
865.718 .0244033
866.393 .0243895
867.068 .0243757
867.743 .0243625
868.417 .0243496
869.091 .0243367
869.765 .0243235
870.438 .0243098
871.111 .0242953
871.783 .0242801
872.456 .0242644
873.127 .0242484
873.799 .0242327
874.470 .0242176
875.141 .0242037
875.811 .0241908
876.481 .0241786
877.151 .0241666
877.820 .0241548
878.489 .0241428
879.158 .0241306
879.826 .0241179
880.494 .0241048
881.162 .0240917
881.829 .0240787
882.496 .0240649
883.163 .0240511
883.829 .0240369
884.495 .0240225
885.160 .0240076
885.825 .0239924
886.490 .0239771
887.154 .0239623
887.818 .0239488
888.482 .0239362
889.145 .0239244
889.808 .0239140
890.471 .0239039
891.133 .0238946
891.795 .0238857
892.456 .0238770
893.117 .0238683
893.778 .0238597
894.439 .0238506
895.099 .0238408
895.758 .0238305
896.417 .0238201
897.076 .0238097
897.735 .0237997
898.393 .0237897
899.051 .0237796
899.708 .0237695
900.365 .0237593
901.022 .0237481
901.678 .0237362
902.334 .0237234
902.990 .0237103
903.645 .0236975
904.300 .0236855
904.954 .0236750
905.608 .0236660
906.262 .0236585
906.915 .0236519
907.568 .0236456
908.221 .0236389
908.873 .0236314
909.525 .0236231
910.176 .0236139
910.828 .0236040
911.478 .0235945
912.129 .0235854
912.778 .0235773
913.428 .0235700
914.077 .0235633
914.726 .0235566
915.375 .0235495
916.023 .0235419
916.670 .0235339
917.318 .0235254
917.964 .0235166
918.611 .0235079
919.257 .0234997
919.903 .0234917
920.548 .0234841
921.193 .0234766
921.838 .0234697
922.482 .0234629
923.126 .0234562
923.770 .0234492
924.413 .0234426
925.056 .0234364
925.698 .0234300
926.340 .0234238
926.982 .0234177
927.623 .0234112
928.264 .0234045
928.904 .0233974
929.544 .0233899
930.184 .0233816
930.823 .0233732
931.462 .0233643
932.101 .0233551
932.739 .0233460
933.377 .0233366
934.014 .0233270
934.651 .0233175
935.288 .0233078
935.924 .0232978
936.560 .0232876
937.196 .0232774
937.831 .0232665
938.466 .0232553
939.100 .0232444
939.734 .0232336
940.368 .0232228
941.001 .0232123
941.634 .0232022
942.266 .0231923
942.899 .0231825
943.530 .0231718
944.162 .0231603
944.793 .0231475
945.423 .0231329
946.053 .0231164
946.683 .0230984
947.313 .0230800
947.942 .0230611
948.571 .0230422
949.199 .0230236
949.827 .0230051
950.455 .0229870
951.082 .0229697
951.709 .0229530
952.335 .0229367
952.961 .0229207
953.587 .0229055
954.212 .0228909
954.837 .0228769
955.462 .0228638
956.086 .0228521
956.710 .0228416
957.334 .0228321
957.957 .0228231
958.579 .0228147
959.202 .0228074
959.824 .0228006
960.445 .0227940
961.067 .0227877
961.688 .0227819
962.308 .0227760
962.928 .0227704
963.548 .0227650
964.168 .0227591
964.787 .0227526
965.406 .0227458
966.024 .0227387
966.642 .0227313
967.260 .0227238
967.877 .0227163
968.494 .0227090
969.110 .0227023
969.727 .0226952
970.342 .0226883
970.958 .0226817
971.573 .0226752
972.188 .0226679
972.802 .0226606
973.416 .0226532
974.030 .0226461
974.643 .0226398
975.256 .0226346
975.869 .0226306
976.481 .0226283
977.093 .0226273
977.705 .0226279
978.316 .0226292
978.927 .0226312
979.538 .0226327
980.148 .0226343
980.758 .0226353
981.367 .0226356
981.977 .0226357
982.586 .0226361
983.194 .0226363
983.802 .0226363
984.410 .0226357
985.018 .0226347
985.625 .0226331
986.232 .0226312
986.838 .0226282
987.445 .0226245
988.050 .0226200
988.656 .0226153
989.261 .0226101
989.866 .0226051
990.471 .0226002
991.075 .0225960
991.679 .0225926
992.282 .0225902
992.886 .0225885
993.489 .0225882
994.091 .0225886
994.694 .0225899
995.296 .0225908
995.897 .0225917
996.499 .0225918
997.100 .0225912
997.701 .0225904
998.301 .0225896
998.901 .0225890
999.501 .0225891
1000.101 .0225900
1000.700 .0225914
1001.299 .0225928
1001.898 .0225939
1002.496 .0225946
1003.094 .0225951
1003.692 .0225957
1004.289 .0225961
1004.887 .0225970
1005.484 .0225993
1006.080 .0226024
1006.677 .0226063
1007.273 .0226111
1007.868 .0226155
1008.464 .0226202
1009.059 .0226249
1009.654 .0226290
1010.249 .0226329
1010.843 .0226372
1011.437 .0226417
1012.031 .0226457
1012.625 .0226492
1013.218 .0226517
1013.811 .0226533
1014.404 .0226540
1014.997 .0226536
1015.589 .0226519
1016.181 .0226505
1016.773 .0226486
1017.365 .0226465
1017.956 .0226449
1018.547 .0226436
1019.138 .0226423
1019.728 .0226414
1020.319 .0226402
1020.909 .0226389
1021.499 .0226371
1022.088 .0226354
1022.678 .0226335
1023.267 .0226318
1023.856 .0226298
1024.445 .0226281
1025.033 .0226262
1025.621 .0226243
1026.209 .0226214
1026.797 .0226176
1027.385 .0226130
1027.972 .0226072
1028.560 .0226003
1029.147 .0225929
1029.734 .0225856
1030.320 .0225794
1030.907 .0225736
1031.493 .0225698
1032.079 .0225672
1032.665 .0225660
1033.250 .0225648
1033.836 .0225640
1034.421 .0225632
1035.006 .0225624
1035.591 .0225613
1036.176 .0225609
1036.761 .0225612
1037.345 .0225625
1037.929 .0225635
1038.514 .0225646
1039.097 .0225655
1039.681 .0225659
1040.265 .0225645
1040.848 .0225627
1041.432 .0225601
1042.015 .0225582
1042.598 .0225565
1043.181 .0225564
1043.764 .0225577
1044.346 .0225609
1044.929 .0225651
1045.511 .0225693
1046.094 .0225731
1046.676 .0225764
1047.258 .0225780
1047.840 .0225792
1048.422 .0225787
1049.003 .0225776
1049.585 .0225753
1050.166 .0225721
1050.748 .0225672
1051.329 .0225609
1051.910 .0225525
1052.491 .0225422
1053.072 .0225302
1053.653 .0225167
1054.234 .0225017
1054.815 .0224865
1055.396 .0224719
1055.976 .0224579
1056.557 .0224441
1057.138 .0224312
1057.718 .0224189
1058.298 .0224070
1058.879 .0223950
1059.459 .0223822
1060.039 .0223700
1060.620 .0223574
1061.200 .0223440
1061.780 .0223298
1062.360 .0223147
1062.940 .0222993
1063.520 .0222836
1064.101 .0222667
1064.681 .0222495
1065.261 .0222321
1065.841 .0222148
1066.421 .0221987
1067.001 .0221840
1067.581 .0221710
1068.161 .0221599
1068.741 .0221508
1069.321 .0221438
1069.901 .0221378
1070.482 .0221345
1071.062 .0221328
1071.642 .0221321
1072.222 .0221333
1072.803 .0221340
1073.383 .0221345
1073.963 .0221347
1074.544 .0221337
1075.124 .0221316
1075.705 .0221287
1076.286 .0221246
1076.866 .0221202
1077.447 .0221151
1078.028 .0221096
1078.609 .0221030
1079.190 .0220958
1079.771 .0220866
1080.352 .0220752
1080.934 .0220631
1081.515 .0220511
1082.097 .0220402
1082.679 .0220317
1083.260 .0220245
1083.842 .0220208
1084.424 .0220183
1085.007 .0220164
1085.589 .0220140
1086.172 .0220118
1086.754 .0220072
1087.337 .0220018
1087.920 .0219957
1088.503 .0219896
1089.087 .0219846
1089.670 .0219815
1090.254 .0219784
1090.838 .0219747
1091.422 .0219701
1092.006 .0219636
1092.590 .0219545
1093.175 .0219453
1093.760 .0219333
1094.345 .0219208
1094.930 .0219085
1095.516 .0218979
1096.102 .0218908
1096.688 .0218888
1097.274 .0218921
1097.860 .0218999
1098.447 .0219115
1099.034 .0219244
1099.622 .0219361
1100.209 .0219475
1100.797 .0219551
1101.385 .0219585
1101.973 .0219583
1102.562 .0219556
1103.151 .0219519
1103.740 .0219487
1104.330 .0219477
1104.920 .0219471
1105.510 .0219470
1106.101 .0219446
1106.691 .0219370
1107.283 .0219251
1107.874 .0219072
1108.466 .0218831
1109.058 .0218563
1109.651 .0218292
1110.244 .0218030
1110.837 .0217817
1111.431 .0217671
1112.025 .0217575
1112.620 .0217533
1113.215 .0217517
1113.810 .0217509
1114.406 .0217488
1115.002 .0217462
1115.599 .0217425
1116.196 .0217375
1116.793 .0217345
1117.391 .0217298
1117.989 .0217267
1118.588 .0217237
1119.187 .0217189
1119.787 .0217131
1120.387 .0217059
1120.988 .0216976
1121.589 .0216896
1122.190 .0216832
1122.793 .0216803
1123.395 .0216808
1123.998 .0216878
1124.602 .0217001
1125.206 .0217168
1125.811 .0217361
1126.416 .0217552
1127.022 .0217742
1127.628 .0217935
1128.235 .0218117
1128.843 .0218334
1129.451 .0218635
1130.059 .0218999
1130.669 .0219426
1131.278 .0219919
1131.889 .0220424
1132.500 .0220908
1133.112 .0221355
1133.724 .0221725
1134.337 .0222031
1134.950 .0222290
1135.564 .0222533
1136.179 .0222776
1136.795 .0223083
1137.411 .0223475
1138.028 .0223940
1138.645 .0224487
1139.263 .0225061
1139.882 .0225651
1140.502 .0226299
1141.122 .0226907
1141.743 .0227528
1142.365 .0228196
1142.987 .0228234
1143.611 .0230344
1144.235 .0229151
1144.859 .0230679
1145.485 .0233102
