Measurement Sequence started on: 10-20-44-796
Integration time: 35
Scans to Average: 2 
>>>>>Begin Spectral Data<<<<<
432.953 .0372273
433.882 .0399410
434.810 .0376446
435.737 .0363309
436.662 .0331823
437.586 .0345109
438.509 .0339139
439.431 .0333566
440.351 .0329576
441.269 .0326578
442.187 .0324686
443.103 .0322848
444.018 .0321807
444.932 .0321040
445.844 .0320840
446.756 .0321082
447.666 .0321794
448.575 .0322598
449.482 .0323417
450.388 .0324352
451.294 .0325193
452.198 .0325944
453.100 .0326624
454.002 .0327262
454.902 .0328059
455.801 .0329011
456.699 .0329950
457.596 .0330845
458.492 .0331665
459.387 .0332299
460.280 .0332606
461.172 .0332565
462.064 .0332232
462.954 .0331580
463.843 .0330776
464.730 .0329875
465.617 .0328935
466.503 .0328095
467.387 .0327353
468.271 .0326702
469.153 .0326131
470.035 .0325527
470.915 .0324967
471.794 .0324368
472.673 .0323802
473.550 .0323309
474.426 .0322897
475.301 .0322650
476.175 .0322575
477.048 .0322650
477.920 .0322835
478.791 .0323072
479.661 .0323343
480.530 .0323551
481.398 .0323675
482.266 .0323707
483.132 .0323599
483.997 .0323453
484.861 .0323253
485.724 .0323017
486.587 .0322794
487.448 .0322604
488.308 .0322401
489.168 .0322202
490.026 .0321981
490.884 .0321713
491.741 .0321375
492.597 .0321005
493.452 .0320551
494.306 .0320069
495.159 .0319615
496.011 .0319176
496.862 .0318770
497.713 .0318450
498.562 .0318066
499.411 .0317683
500.259 .0317224
501.106 .0316674
501.952 .0315969
502.798 .0315148
503.642 .0314228
504.486 .0313230
505.329 .0312251
506.171 .0311272
507.012 .0310311
507.852 .0309456
508.692 .0308580
509.531 .0307666
510.369 .0306677
511.206 .0305641
512.043 .0304458
512.878 .0303192
513.713 .0301815
514.547 .0300350
515.381 .0298893
516.213 .0297403
517.045 .0295835
517.876 .0294191
518.706 .0292402
519.536 .0290425
520.365 .0288267
521.193 .0285929
522.020 .0283378
522.847 .0280728
523.673 .0278063
524.498 .0275420
525.323 .0272824
526.146 .0270501
526.969 .0268473
527.792 .0266691
528.614 .0265199
529.435 .0263904
530.255 .0262906
531.075 .0262102
531.894 .0261420
532.712 .0260881
533.530 .0260449
534.347 .0260162
535.163 .0259899
535.979 .0259791
536.794 .0259830
537.608 .0259854
538.422 .0259968
539.235 .0260033
540.048 .0260028
540.860 .0259943
541.671 .0259782
542.481 .0259589
543.292 .0259353
544.101 .0259115
544.910 .0258947
545.718 .0258905
546.526 .0258999
547.333 .0259200
548.139 .0259543
548.945 .0260055
549.750 .0260688
550.555 .0261471
551.359 .0262383
552.162 .0263417
552.965 .0264484
553.768 .0265546
554.569 .0266619
555.371 .0267655
556.171 .0268579
556.972 .0269447
557.771 .0270254
558.570 .0270999
559.369 .0271695
560.167 .0272453
560.964 .0273252
561.761 .0274072
562.558 .0274908
563.354 .0275764
564.149 .0276559
564.944 .0277349
565.738 .0278070
566.532 .0278737
567.325 .0279411
568.118 .0280063
568.910 .0280715
569.702 .0281428
570.494 .0282236
571.285 .0283096
572.075 .0284034
572.865 .0285038
573.654 .0286003
574.443 .0286946
575.232 .0287853
576.020 .0288681
576.807 .0289412
577.594 .0290055
578.381 .0290631
579.167 .0291151
579.952 .0291686
580.738 .0292214
581.522 .0292798
582.307 .0293429
583.091 .0294064
583.874 .0294674
584.657 .0295239
585.440 .0295742
586.222 .0296153
587.004 .0296472
587.785 .0296720
588.566 .0296901
589.346 .0297040
590.126 .0297152
590.906 .0297243
591.685 .0297317
592.464 .0297363
593.242 .0297390
594.020 .0297403
594.797 .0297388
595.575 .0297355
596.351 .0297315
597.128 .0297259
597.904 .0297192
598.679 .0297108
599.454 .0297022
600.229 .0296941
601.004 .0296864
601.778 .0296796
602.551 .0296754
603.325 .0296725
604.097 .0296709
604.870 .0296704
605.642 .0296704
606.414 .0296690
607.185 .0296646
607.956 .0296572
608.727 .0296458
609.497 .0296306
610.267 .0296129
611.037 .0295937
611.806 .0295751
612.575 .0295571
613.344 .0295410
614.112 .0295265
614.880 .0295127
615.647 .0294976
616.414 .0294812
617.181 .0294631
617.948 .0294420
618.714 .0294188
619.480 .0293951
620.245 .0293734
621.011 .0293534
621.775 .0293359
622.540 .0293218
623.304 .0293101
624.068 .0293000
624.832 .0292889
625.595 .0292762
626.358 .0292617
627.120 .0292461
627.883 .0292294
628.645 .0292133
629.406 .0291994
630.168 .0291883
630.929 .0291802
631.689 .0291748
632.450 .0291710
633.210 .0291668
633.970 .0291622
634.729 .0291569
635.489 .0291487
636.248 .0291386
637.006 .0291265
637.765 .0291133
638.523 .0290984
639.280 .0290821
640.038 .0290642
640.795 .0290455
641.552 .0290277
642.309 .0290098
643.065 .0289912
643.821 .0289743
644.577 .0289581
645.332 .0289417
646.088 .0289257
646.843 .0289098
647.597 .0288940
648.352 .0288797
649.106 .0288665
649.860 .0288546
650.613 .0288450
651.367 .0288390
652.120 .0288352
652.872 .0288333
653.625 .0288328
654.377 .0288314
655.129 .0288292
655.881 .0288257
656.632 .0288191
657.384 .0288103
658.135 .0287998
658.885 .0287870
659.636 .0287724
660.386 .0287566
661.136 .0287405
661.885 .0287249
662.635 .0287102
663.384 .0286956
664.133 .0286801
664.881 .0286643
665.630 .0286472
666.378 .0286283
667.126 .0286075
667.874 .0285849
668.621 .0285609
669.368 .0285359
670.115 .0285101
670.862 .0284842
671.608 .0284591
672.354 .0284349
673.100 .0284111
673.846 .0283876
674.591 .0283643
675.337 .0283422
676.082 .0283208
676.826 .0283011
677.571 .0282831
678.315 .0282668
679.059 .0282523
679.803 .0282389
680.547 .0282268
681.290 .0282153
682.033 .0282042
682.776 .0281931
683.518 .0281821
684.261 .0281710
685.003 .0281596
685.745 .0281478
686.487 .0281363
687.228 .0281243
687.969 .0281111
688.710 .0280970
689.451 .0280818
690.192 .0280660
690.932 .0280495
691.672 .0280313
692.412 .0280136
693.152 .0279955
693.891 .0279777
694.630 .0279593
695.369 .0279420
696.108 .0279252
696.846 .0279084
697.585 .0278918
698.323 .0278749
699.061 .0278576
699.798 .0278397
700.536 .0278213
701.273 .0278030
702.010 .0277851
702.746 .0277682
703.483 .0277524
704.219 .0277390
704.955 .0277271
705.691 .0277166
706.427 .0277065
707.162 .0276972
707.897 .0276871
708.632 .0276761
709.367 .0276649
710.101 .0276531
710.835 .0276413
711.569 .0276287
712.303 .0276155
713.037 .0276017
713.770 .0275870
714.503 .0275712
715.236 .0275536
715.969 .0275348
716.702 .0275142
717.434 .0274922
718.166 .0274688
718.898 .0274449
719.629 .0274211
720.361 .0273978
721.092 .0273750
721.823 .0273527
722.554 .0273316
723.284 .0273118
724.014 .0272928
724.744 .0272747
725.474 .0272572
726.204 .0272400
726.933 .0272220
727.662 .0272035
728.391 .0271842
729.120 .0271647
729.849 .0271451
730.577 .0271259
731.305 .0271074
732.033 .0270903
732.760 .0270739
733.488 .0270590
734.215 .0270455
734.942 .0270326
735.669 .0270193
736.395 .0270058
737.122 .0269914
737.848 .0269763
738.573 .0269607
739.299 .0269449
740.024 .0269286
740.750 .0269122
741.474 .0268949
742.199 .0268775
742.924 .0268597
743.648 .0268414
744.372 .0268225
745.096 .0268039
745.819 .0267848
746.543 .0267659
747.266 .0267478
747.989 .0267316
748.711 .0267174
749.434 .0267056
750.156 .0266959
750.878 .0266884
751.599 .0266832
752.321 .0266802
753.042 .0266785
753.763 .0266787
754.484 .0266796
755.205 .0266815
755.925 .0266838
756.645 .0266866
757.365 .0266894
758.085 .0266917
758.804 .0266923
759.523 .0266907
760.242 .0266861
760.961 .0266786
761.679 .0266681
762.397 .0266550
763.115 .0266396
763.833 .0266223
764.551 .0266033
765.268 .0265832
765.985 .0265625
766.702 .0265412
767.418 .0265189
768.134 .0264960
768.850 .0264725
769.566 .0264489
770.282 .0264257
770.997 .0264031
771.712 .0263811
772.427 .0263600
773.142 .0263397
773.856 .0263201
774.570 .0263011
775.284 .0262827
775.998 .0262648
776.711 .0262478
777.424 .0262312
778.137 .0262154
778.849 .0262008
779.562 .0261870
780.274 .0261739
780.986 .0261608
781.697 .0261482
782.409 .0261357
783.120 .0261233
783.831 .0261121
784.541 .0261020
785.252 .0260929
785.962 .0260847
786.671 .0260771
787.381 .0260700
788.090 .0260626
788.799 .0260539
789.508 .0260441
790.217 .0260324
790.925 .0260188
791.633 .0260034
792.341 .0259869
793.048 .0259701
793.755 .0259526
794.462 .0259346
795.169 .0259166
795.875 .0258987
796.581 .0258810
797.287 .0258634
797.993 .0258467
798.698 .0258305
799.403 .0258148
800.108 .0257999
800.812 .0257860
801.517 .0257734
802.221 .0257626
802.924 .0257527
803.628 .0257441
804.331 .0257369
805.034 .0257299
805.736 .0257233
806.439 .0257167
807.141 .0257100
807.843 .0257029
808.544 .0256949
809.245 .0256859
809.946 .0256754
810.647 .0256642
811.347 .0256518
812.047 .0256384
812.747 .0256248
813.447 .0256100
814.146 .0255948
814.845 .0255795
815.543 .0255642
816.242 .0255490
816.940 .0255341
817.638 .0255193
818.335 .0255047
819.032 .0254900
819.729 .0254754
820.426 .0254605
821.122 .0254460
821.818 .0254315
822.514 .0254169
823.209 .0254026
823.905 .0253887
824.599 .0253746
825.294 .0253606
825.988 .0253462
826.682 .0253314
827.376 .0253162
828.069 .0253007
828.762 .0252844
829.455 .0252678
830.147 .0252515
830.840 .0252354
831.531 .0252197
832.223 .0252047
832.914 .0251899
833.605 .0251755
834.296 .0251618
834.986 .0251481
835.676 .0251348
836.366 .0251216
837.055 .0251083
837.744 .0250947
838.433 .0250814
839.121 .0250680
839.809 .0250543
840.497 .0250411
841.185 .0250282
841.872 .0250153
842.559 .0250034
843.245 .0249920
843.932 .0249817
844.617 .0249726
845.303 .0249642
845.988 .0249561
846.673 .0249481
847.358 .0249407
848.042 .0249337
848.726 .0249268
849.410 .0249205
850.093 .0249141
850.776 .0249082
851.459 .0249027
852.141 .0248965
852.823 .0248902
853.505 .0248832
854.186 .0248748
854.867 .0248646
855.548 .0248531
856.228 .0248404
856.908 .0248270
857.588 .0248134
858.267 .0248000
858.946 .0247867
859.625 .0247740
860.303 .0247620
860.981 .0247507
861.659 .0247400
862.336 .0247293
863.013 .0247183
863.690 .0247074
864.366 .0246962
865.042 .0246853
865.718 .0246748
866.393 .0246657
867.068 .0246577
867.743 .0246512
868.417 .0246458
869.091 .0246411
869.765 .0246370
870.438 .0246330
871.111 .0246285
871.783 .0246234
872.456 .0246173
873.127 .0246107
873.799 .0246033
874.470 .0245957
875.141 .0245878
875.811 .0245799
876.481 .0245714
877.151 .0245624
877.820 .0245523
878.489 .0245413
879.158 .0245289
879.826 .0245153
880.494 .0245007
881.162 .0244857
881.829 .0244709
882.496 .0244565
883.163 .0244436
883.829 .0244327
884.495 .0244236
885.160 .0244167
885.825 .0244118
886.490 .0244084
887.154 .0244058
887.818 .0244033
888.482 .0244004
889.145 .0243972
889.808 .0243934
890.471 .0243889
891.133 .0243845
891.795 .0243802
892.456 .0243762
893.117 .0243726
893.778 .0243693
894.439 .0243661
895.099 .0243627
895.758 .0243586
896.417 .0243533
897.076 .0243475
897.735 .0243412
898.393 .0243349
899.051 .0243292
899.708 .0243244
900.365 .0243208
901.022 .0243185
901.678 .0243175
902.334 .0243171
902.990 .0243171
903.645 .0243168
904.300 .0243152
904.954 .0243125
905.608 .0243080
906.262 .0243015
906.915 .0242936
907.568 .0242848
908.221 .0242751
908.873 .0242652
909.525 .0242552
910.176 .0242458
910.828 .0242371
911.478 .0242287
912.129 .0242206
912.778 .0242130
913.428 .0242061
914.077 .0241999
914.726 .0241946
915.375 .0241905
916.023 .0241877
916.670 .0241866
917.318 .0241866
917.964 .0241875
918.611 .0241890
919.257 .0241898
919.903 .0241905
920.548 .0241898
921.193 .0241877
921.838 .0241840
922.482 .0241791
923.126 .0241731
923.770 .0241658
924.413 .0241566
925.056 .0241462
925.698 .0241345
926.340 .0241221
926.982 .0241083
927.623 .0240940
928.264 .0240792
928.904 .0240644
929.544 .0240495
930.184 .0240350
930.823 .0240206
931.462 .0240078
932.101 .0239952
932.739 .0239837
933.377 .0239725
934.014 .0239613
934.651 .0239502
935.288 .0239394
935.924 .0239276
936.560 .0239154
937.196 .0239018
937.831 .0238880
938.466 .0238728
939.100 .0238579
939.734 .0238422
940.368 .0238265
941.001 .0238111
941.634 .0237954
942.266 .0237783
942.899 .0237609
943.530 .0237423
944.162 .0237227
944.793 .0237022
945.423 .0236811
946.053 .0236601
946.683 .0236402
947.313 .0236220
947.942 .0236052
948.571 .0235900
949.199 .0235765
949.827 .0235629
950.455 .0235495
951.082 .0235365
951.709 .0235230
952.335 .0235102
952.961 .0234983
953.587 .0234872
954.212 .0234766
954.837 .0234670
955.462 .0234578
956.086 .0234491
956.710 .0234402
957.334 .0234308
957.957 .0234206
958.579 .0234102
959.202 .0233989
959.824 .0233858
960.445 .0233726
961.067 .0233590
961.688 .0233442
962.308 .0233292
962.928 .0233129
963.548 .0232959
964.168 .0232782
964.787 .0232600
965.406 .0232410
966.024 .0232220
966.642 .0232036
967.260 .0231857
967.877 .0231692
968.494 .0231543
969.110 .0231406
969.727 .0231284
970.342 .0231178
970.958 .0231072
971.573 .0230967
972.188 .0230869
972.802 .0230772
973.416 .0230676
974.030 .0230583
974.643 .0230493
975.256 .0230412
975.869 .0230342
976.481 .0230277
977.093 .0230212
977.705 .0230157
978.316 .0230098
978.927 .0230027
979.538 .0229951
980.148 .0229869
980.758 .0229780
981.367 .0229697
981.977 .0229625
982.586 .0229559
983.194 .0229506
983.802 .0229469
984.410 .0229438
985.018 .0229418
985.625 .0229400
986.232 .0229380
986.838 .0229363
987.445 .0229342
988.050 .0229307
988.656 .0229260
989.261 .0229205
989.866 .0229132
990.471 .0229045
991.075 .0228951
991.679 .0228851
992.282 .0228746
992.886 .0228643
993.489 .0228542
994.091 .0228451
994.694 .0228367
995.296 .0228284
995.897 .0228206
996.499 .0228130
997.100 .0228048
997.701 .0227968
998.301 .0227890
998.901 .0227824
999.501 .0227767
1000.101 .0227728
1000.700 .0227699
1001.299 .0227685
1001.898 .0227676
1002.496 .0227662
1003.094 .0227641
1003.692 .0227613
1004.289 .0227570
1004.887 .0227529
1005.484 .0227491
1006.080 .0227471
1006.677 .0227466
1007.273 .0227483
1007.868 .0227512
1008.464 .0227556
1009.059 .0227606
1009.654 .0227652
1010.249 .0227690
1010.843 .0227735
1011.437 .0227775
1012.031 .0227808
1012.625 .0227842
1013.218 .0227879
1013.811 .0227923
1014.404 .0227972
1014.997 .0228028
1015.589 .0228083
1016.181 .0228132
1016.773 .0228175
1017.365 .0228192
1017.956 .0228191
1018.547 .0228168
1019.138 .0228122
1019.728 .0228066
1020.319 .0228008
1020.909 .0227952
1021.499 .0227902
1022.088 .0227886
1022.678 .0227896
1023.267 .0227925
1023.856 .0227960
1024.445 .0227996
1025.033 .0228015
1025.621 .0228015
1026.209 .0227986
1026.797 .0227942
1027.385 .0227897
1027.972 .0227859
1028.560 .0227841
1029.147 .0227851
1029.734 .0227892
1030.320 .0227956
1030.907 .0228011
1031.493 .0228054
1032.079 .0228055
1032.665 .0228018
1033.250 .0227936
1033.836 .0227828
1034.421 .0227718
1035.006 .0227611
1035.591 .0227524
1036.176 .0227466
1036.761 .0227437
1037.345 .0227431
1037.929 .0227433
1038.514 .0227436
1039.097 .0227430
1039.681 .0227421
1040.265 .0227407
1040.848 .0227400
1041.432 .0227396
1042.015 .0227413
1042.598 .0227442
1043.181 .0227482
1043.764 .0227529
1044.346 .0227566
1044.929 .0227600
1045.511 .0227622
1046.094 .0227628
1046.676 .0227613
1047.258 .0227576
1047.840 .0227527
1048.422 .0227447
1049.003 .0227343
1049.585 .0227223
1050.166 .0227095
1050.748 .0226979
1051.329 .0226893
1051.910 .0226844
1052.491 .0226836
1053.072 .0226880
1053.653 .0226949
1054.234 .0227035
1054.815 .0227122
1055.396 .0227194
1055.976 .0227250
1056.557 .0227287
1057.138 .0227320
1057.718 .0227353
1058.298 .0227409
1058.879 .0227489
1059.459 .0227580
1060.039 .0227683
1060.620 .0227763
1061.200 .0227817
1061.780 .0227830
1062.360 .0227792
1062.940 .0227720
1063.520 .0227620
1064.101 .0227509
1064.681 .0227390
1065.261 .0227282
1065.841 .0227191
1066.421 .0227126
1067.001 .0227080
1067.581 .0227053
1068.161 .0227047
1068.741 .0227060
1069.321 .0227084
1069.901 .0227113
1070.482 .0227142
1071.062 .0227162
1071.642 .0227153
1072.222 .0227125
1072.803 .0227063
1073.383 .0226990
1073.963 .0226873
1074.544 .0226748
1075.124 .0226614
1075.705 .0226465
1076.286 .0226304
1076.866 .0226151
1077.447 .0225997
1078.028 .0225850
1078.609 .0225708
1079.190 .0225581
1079.771 .0225472
1080.352 .0225395
1080.934 .0225317
1081.515 .0225271
1082.097 .0225270
1082.679 .0225336
1083.260 .0225465
1083.842 .0225691
1084.424 .0225979
1085.007 .0226319
1085.589 .0226705
1086.172 .0227107
1086.754 .0227484
1087.337 .0227834
1087.920 .0228116
1088.503 .0228352
1089.087 .0228522
1089.670 .0228629
1090.254 .0228695
1090.838 .0228734
1091.422 .0228740
1092.006 .0228702
1092.590 .0228617
1093.175 .0228509
1093.760 .0228376
1094.345 .0228255
1094.930 .0228142
1095.516 .0228057
1096.102 .0228002
1096.688 .0227961
1097.274 .0227943
1097.860 .0227916
1098.447 .0227834
1099.034 .0227718
1099.622 .0227556
1100.209 .0227365
1100.797 .0227198
1101.385 .0227067
1101.973 .0227028
1102.562 .0227069
1103.151 .0227167
1103.740 .0227267
1104.330 .0227336
1104.920 .0227346
1105.510 .0227255
1106.101 .0227088
1106.691 .0226864
1107.283 .0226589
1107.874 .0226354
1108.466 .0226207
1109.058 .0226170
1109.651 .0226240
1110.244 .0226417
1110.837 .0226647
1111.431 .0226930
1112.025 .0227176
1112.620 .0227361
1113.215 .0227455
1113.810 .0227525
1114.406 .0227548
1115.002 .0227535
1115.599 .0227535
1116.196 .0227563
1116.793 .0227614
1117.391 .0227715
1117.989 .0227810
1118.588 .0227909
1119.187 .0228002
1119.787 .0228086
1120.387 .0228095
1120.988 .0228066
1121.589 .0227991
1122.190 .0227872
1122.793 .0227744
1123.395 .0227663
1123.998 .0227588
1124.602 .0227604
1125.206 .0227755
1125.811 .0228023
1126.416 .0228379
1127.022 .0228805
1127.628 .0229238
1128.235 .0229664
1128.843 .0230057
1129.451 .0230331
1130.059 .0230534
1130.669 .0230750
1131.278 .0230969
1131.889 .0231185
1132.500 .0231472
1133.112 .0231808
1133.724 .0232165
1134.337 .0232565
1134.950 .0232928
1135.564 .0233251
1136.179 .0233537
1136.795 .0233777
1137.411 .0234021
1138.028 .0234285
1138.645 .0234628
1139.263 .0235047
1139.882 .0235544
1140.502 .0236087
1141.122 .0236706
1141.743 .0237305
1142.365 .0238189
1142.987 .0238106
1143.611 .0238383
1144.235 .0241290
1144.859 .0239560
1145.485 .0248249
