Measurement Sequence started on: 10-20-44-796
Integration time: 35
Scans to Average: 2 
>>>>>Begin Spectral Data<<<<<
432.953 .0219756
433.882 .0378774
434.810 .0346538
435.737 .0327647
436.662 .0332464
437.586 .0334916
438.509 .0338068
439.431 .0336302
440.351 .0335590
441.269 .0335093
442.187 .0334227
443.103 .0333098
444.018 .0332161
444.932 .0331342
445.844 .0330819
446.756 .0330404
447.666 .0330231
448.575 .0330087
449.482 .0329875
450.388 .0329585
451.294 .0329176
452.198 .0328637
453.100 .0328136
454.002 .0327597
454.902 .0327166
455.801 .0326826
456.699 .0326589
457.596 .0326366
458.492 .0326243
459.387 .0326166
460.280 .0326062
461.172 .0325938
462.064 .0325807
462.954 .0325609
463.843 .0325352
464.730 .0325069
465.617 .0324744
466.503 .0324369
467.387 .0323986
468.271 .0323543
469.153 .0323112
470.035 .0322699
470.915 .0322330
471.794 .0322029
472.673 .0321799
473.550 .0321600
474.426 .0321408
475.301 .0321251
476.175 .0321098
477.048 .0320926
477.920 .0320763
478.791 .0320608
479.661 .0320463
480.530 .0320344
481.398 .0320248
482.266 .0320182
483.132 .0320165
483.997 .0320114
484.861 .0320026
485.724 .0319919
486.587 .0319752
487.448 .0319510
488.308 .0319206
489.168 .0318869
490.026 .0318477
490.884 .0318048
491.741 .0317595
492.597 .0317114
493.452 .0316643
494.306 .0316134
495.159 .0315585
496.011 .0315041
496.862 .0314496
497.713 .0313929
498.562 .0313358
499.411 .0312780
500.259 .0312166
501.106 .0311522
501.952 .0310857
502.798 .0310151
503.642 .0309402
504.486 .0308592
505.329 .0307722
506.171 .0306805
507.012 .0305841
507.852 .0304814
508.692 .0303773
509.531 .0302703
510.369 .0301552
511.206 .0300335
512.043 .0299037
512.878 .0297687
513.713 .0296313
514.547 .0294919
515.381 .0293568
516.213 .0292270
517.045 .0291056
517.876 .0289875
518.706 .0288742
519.536 .0287663
520.365 .0286541
521.193 .0285376
522.020 .0284146
522.847 .0282864
523.673 .0281582
524.498 .0280273
525.323 .0278957
526.146 .0277593
526.969 .0276195
527.792 .0274681
528.614 .0272998
529.435 .0271154
530.255 .0269217
531.075 .0267204
531.894 .0265212
532.712 .0263332
533.530 .0261592
534.347 .0260076
535.163 .0258737
535.979 .0257554
536.794 .0256479
537.608 .0255480
538.422 .0254595
539.235 .0253779
540.048 .0253098
540.860 .0252610
541.671 .0252361
542.481 .0252397
543.292 .0252579
544.101 .0252906
544.910 .0253317
545.718 .0253753
546.526 .0254173
547.333 .0254602
548.139 .0255079
548.945 .0255671
549.750 .0256342
550.555 .0257160
551.359 .0258082
552.162 .0259060
552.965 .0260056
553.768 .0260985
554.569 .0261808
555.371 .0262527
556.171 .0263130
556.972 .0263677
557.771 .0264180
558.570 .0264681
559.369 .0265178
560.167 .0265720
560.964 .0266304
561.761 .0266881
562.558 .0267484
563.354 .0268134
564.149 .0268777
564.944 .0269433
565.738 .0270132
566.532 .0270847
567.325 .0271622
568.118 .0272398
568.910 .0273197
569.702 .0274004
570.494 .0274852
571.285 .0275719
572.075 .0276581
572.865 .0277456
573.654 .0278304
574.443 .0279105
575.232 .0279884
576.020 .0280593
576.807 .0281278
577.594 .0281919
578.381 .0282542
579.167 .0283125
579.952 .0283710
580.738 .0284311
581.522 .0284928
582.307 .0285562
583.091 .0286211
583.874 .0286852
584.657 .0287479
585.440 .0288082
586.222 .0288648
587.004 .0289156
587.785 .0289612
588.566 .0289995
589.346 .0290321
590.126 .0290580
590.906 .0290787
591.685 .0290951
592.464 .0291080
593.242 .0291182
594.020 .0291251
594.797 .0291299
595.575 .0291325
596.351 .0291326
597.128 .0291304
597.904 .0291256
598.679 .0291185
599.454 .0291095
600.229 .0291008
601.004 .0290924
601.778 .0290848
602.551 .0290782
603.325 .0290728
604.097 .0290693
604.870 .0290649
605.642 .0290602
606.414 .0290546
607.185 .0290479
607.956 .0290400
608.727 .0290310
609.497 .0290211
610.267 .0290105
611.037 .0289996
611.806 .0289880
612.575 .0289752
613.344 .0289610
614.112 .0289453
614.880 .0289285
615.647 .0289106
616.414 .0288919
617.181 .0288721
617.948 .0288537
618.714 .0288358
619.480 .0288179
620.245 .0288005
621.011 .0287838
621.775 .0287675
622.540 .0287514
623.304 .0287357
624.068 .0287208
624.832 .0287062
625.595 .0286921
626.358 .0286783
627.120 .0286653
627.883 .0286515
628.645 .0286371
629.406 .0286218
630.168 .0286054
630.929 .0285866
631.689 .0285666
632.450 .0285454
633.210 .0285228
633.970 .0284989
634.729 .0284746
635.489 .0284494
636.248 .0284245
637.006 .0283991
637.765 .0283739
638.523 .0283499
639.280 .0283271
640.038 .0283045
640.795 .0282838
641.552 .0282644
642.309 .0282465
643.065 .0282303
643.821 .0282162
644.577 .0282032
645.332 .0281919
646.088 .0281817
646.843 .0281722
647.597 .0281631
648.352 .0281546
649.106 .0281458
649.860 .0281369
650.613 .0281275
651.367 .0281171
652.120 .0281064
652.872 .0280954
653.625 .0280834
654.377 .0280708
655.129 .0280578
655.881 .0280435
656.632 .0280284
657.384 .0280124
658.135 .0279957
658.885 .0279787
659.636 .0279617
660.386 .0279452
661.136 .0279292
661.885 .0279141
662.635 .0278996
663.384 .0278863
664.133 .0278741
664.881 .0278623
665.630 .0278514
666.378 .0278417
667.126 .0278327
667.874 .0278240
668.621 .0278160
669.368 .0278085
670.115 .0278005
670.862 .0277925
671.608 .0277841
672.354 .0277753
673.100 .0277661
673.846 .0277566
674.591 .0277470
675.337 .0277379
676.082 .0277292
676.826 .0277201
677.571 .0277110
678.315 .0277015
679.059 .0276908
679.803 .0276794
680.547 .0276678
681.290 .0276555
682.033 .0276426
682.776 .0276304
683.518 .0276182
684.261 .0276062
685.003 .0275943
685.745 .0275821
686.487 .0275697
687.228 .0275565
687.969 .0275418
688.710 .0275260
689.451 .0275102
690.192 .0274941
690.932 .0274772
691.672 .0274608
692.412 .0274447
693.152 .0274286
693.891 .0274127
694.630 .0273975
695.369 .0273825
696.108 .0273680
696.846 .0273535
697.585 .0273394
698.323 .0273257
699.061 .0273127
699.798 .0273003
700.536 .0272890
701.273 .0272783
702.010 .0272677
702.746 .0272570
703.483 .0272467
704.219 .0272363
704.955 .0272253
705.691 .0272139
706.427 .0272026
707.162 .0271912
707.897 .0271798
708.632 .0271681
709.367 .0271566
710.101 .0271445
710.835 .0271315
711.569 .0271174
712.303 .0271023
713.037 .0270868
713.770 .0270707
714.503 .0270544
715.236 .0270384
715.969 .0270224
716.702 .0270061
717.434 .0269897
718.166 .0269730
718.898 .0269551
719.629 .0269360
720.361 .0269160
721.092 .0268953
721.823 .0268742
722.554 .0268532
723.284 .0268325
724.014 .0268121
724.744 .0267919
725.474 .0267711
726.204 .0267500
726.933 .0267287
727.662 .0267070
728.391 .0266849
729.120 .0266626
729.849 .0266404
730.577 .0266185
731.305 .0265970
732.033 .0265764
732.760 .0265562
733.488 .0265362
734.215 .0265167
734.942 .0264973
735.669 .0264779
736.395 .0264589
737.122 .0264402
737.848 .0264214
738.573 .0264024
739.299 .0263832
740.024 .0263634
740.750 .0263437
741.474 .0263241
742.199 .0263044
742.924 .0262849
743.648 .0262665
744.372 .0262485
745.096 .0262313
745.819 .0262152
746.543 .0262000
747.266 .0261859
747.989 .0261731
748.711 .0261612
749.434 .0261500
750.156 .0261404
750.878 .0261324
751.599 .0261258
752.321 .0261211
753.042 .0261185
753.763 .0261172
754.484 .0261176
755.205 .0261187
755.925 .0261199
756.645 .0261205
757.365 .0261206
758.085 .0261190
758.804 .0261159
759.523 .0261112
760.242 .0261053
760.961 .0260983
761.679 .0260908
762.397 .0260821
763.115 .0260719
763.833 .0260600
764.551 .0260461
765.268 .0260295
765.985 .0260108
766.702 .0259905
767.418 .0259692
768.134 .0259477
768.850 .0259274
769.566 .0259081
770.282 .0258910
770.997 .0258762
771.712 .0258629
772.427 .0258507
773.142 .0258394
773.856 .0258282
774.570 .0258169
775.284 .0258060
775.998 .0257957
776.711 .0257859
777.424 .0257775
778.137 .0257706
778.849 .0257649
779.562 .0257604
780.274 .0257565
780.986 .0257528
781.697 .0257491
782.409 .0257450
783.120 .0257397
783.831 .0257339
784.541 .0257275
785.252 .0257211
785.962 .0257147
786.671 .0257085
787.381 .0257026
788.090 .0256970
788.799 .0256916
789.508 .0256858
790.217 .0256800
790.925 .0256744
791.633 .0256685
792.341 .0256624
793.048 .0256559
793.755 .0256490
794.462 .0256414
795.169 .0256331
795.875 .0256238
796.581 .0256137
797.287 .0256031
797.993 .0255922
798.698 .0255813
799.403 .0255709
800.108 .0255611
800.812 .0255518
801.517 .0255428
802.221 .0255338
802.924 .0255243
803.628 .0255146
804.331 .0255048
805.034 .0254951
805.736 .0254854
806.439 .0254759
807.141 .0254668
807.843 .0254581
808.544 .0254495
809.245 .0254403
809.946 .0254309
810.647 .0254209
811.347 .0254104
812.047 .0253991
812.747 .0253880
813.447 .0253769
814.146 .0253658
814.845 .0253547
815.543 .0253435
816.242 .0253322
816.940 .0253205
817.638 .0253081
818.335 .0252952
819.032 .0252821
819.729 .0252691
820.426 .0252559
821.122 .0252432
821.818 .0252306
822.514 .0252183
823.209 .0252059
823.905 .0251936
824.599 .0251812
825.294 .0251686
825.988 .0251551
826.682 .0251413
827.376 .0251268
828.069 .0251120
828.762 .0250966
829.455 .0250808
830.147 .0250643
830.840 .0250479
831.531 .0250311
832.223 .0250144
832.914 .0249978
833.605 .0249814
834.296 .0249648
834.986 .0249478
835.676 .0249306
836.366 .0249129
837.055 .0248946
837.744 .0248760
838.433 .0248567
839.121 .0248374
839.809 .0248181
840.497 .0247990
841.185 .0247807
841.872 .0247633
842.559 .0247468
843.245 .0247308
843.932 .0247156
844.617 .0247007
845.303 .0246857
845.988 .0246712
846.673 .0246569
847.358 .0246428
848.042 .0246292
848.726 .0246164
849.410 .0246043
850.093 .0245929
850.776 .0245822
851.459 .0245713
852.141 .0245604
852.823 .0245489
853.505 .0245371
854.186 .0245248
854.867 .0245128
855.548 .0245009
856.228 .0244895
856.908 .0244788
857.588 .0244688
858.267 .0244591
858.946 .0244499
859.625 .0244407
860.303 .0244318
860.981 .0244229
861.659 .0244142
862.336 .0244052
863.013 .0243967
863.690 .0243884
864.366 .0243800
865.042 .0243712
865.718 .0243621
866.393 .0243523
867.068 .0243417
867.743 .0243300
868.417 .0243171
869.091 .0243034
869.765 .0242890
870.438 .0242737
871.111 .0242583
871.783 .0242430
872.456 .0242278
873.127 .0242130
873.799 .0241986
874.470 .0241846
875.141 .0241707
875.811 .0241578
876.481 .0241455
877.151 .0241342
877.820 .0241237
878.489 .0241141
879.158 .0241057
879.826 .0240983
880.494 .0240912
881.162 .0240846
881.829 .0240783
882.496 .0240714
883.163 .0240633
883.829 .0240548
884.495 .0240458
885.160 .0240367
885.825 .0240281
886.490 .0240203
887.154 .0240134
887.818 .0240079
888.482 .0240029
889.145 .0239989
889.808 .0239958
890.471 .0239926
891.133 .0239891
891.795 .0239854
892.456 .0239816
893.117 .0239776
893.778 .0239745
894.439 .0239725
895.099 .0239710
895.758 .0239703
896.417 .0239701
897.076 .0239699
897.735 .0239695
898.393 .0239682
899.051 .0239658
899.708 .0239622
900.365 .0239575
901.022 .0239517
901.678 .0239460
902.334 .0239403
902.990 .0239352
903.645 .0239304
904.300 .0239266
904.954 .0239230
905.608 .0239196
906.262 .0239163
906.915 .0239129
907.568 .0239096
908.221 .0239060
908.873 .0239025
909.525 .0238994
910.176 .0238964
910.828 .0238938
911.478 .0238915
912.129 .0238895
912.778 .0238875
913.428 .0238857
914.077 .0238838
914.726 .0238822
915.375 .0238805
916.023 .0238795
916.670 .0238790
917.318 .0238793
917.964 .0238803
918.611 .0238818
919.257 .0238839
919.903 .0238864
920.548 .0238890
921.193 .0238920
921.838 .0238953
922.482 .0238987
923.126 .0239022
923.770 .0239059
924.413 .0239094
925.056 .0239132
925.698 .0239171
926.340 .0239211
926.982 .0239240
927.623 .0239257
928.264 .0239259
928.904 .0239244
929.544 .0239211
930.184 .0239158
930.823 .0239091
931.462 .0239014
932.101 .0238930
932.739 .0238841
933.377 .0238748
934.014 .0238651
934.651 .0238546
935.288 .0238435
935.924 .0238317
936.560 .0238195
937.196 .0238071
937.831 .0237949
938.466 .0237837
939.100 .0237733
939.734 .0237644
940.368 .0237562
941.001 .0237488
941.634 .0237415
942.266 .0237331
942.899 .0237237
943.530 .0237133
944.162 .0237019
944.793 .0236894
945.423 .0236763
946.053 .0236628
946.683 .0236489
947.313 .0236346
947.942 .0236195
948.571 .0236035
949.199 .0235862
949.827 .0235677
950.455 .0235471
951.082 .0235264
951.709 .0235056
952.335 .0234852
952.961 .0234660
953.587 .0234475
954.212 .0234293
954.837 .0234115
955.462 .0233939
956.086 .0233761
956.710 .0233584
957.334 .0233411
957.957 .0233236
958.579 .0233067
959.202 .0232908
959.824 .0232754
960.445 .0232608
961.067 .0232474
961.688 .0232340
962.308 .0232210
962.928 .0232085
963.548 .0231962
964.168 .0231848
964.787 .0231737
965.406 .0231626
966.024 .0231514
966.642 .0231397
967.260 .0231270
967.877 .0231135
968.494 .0230996
969.110 .0230852
969.727 .0230705
970.342 .0230565
970.958 .0230430
971.573 .0230307
972.188 .0230192
972.802 .0230086
973.416 .0229984
974.030 .0229885
974.643 .0229780
975.256 .0229681
975.869 .0229587
976.481 .0229503
977.093 .0229432
977.705 .0229383
978.316 .0229348
978.927 .0229329
979.538 .0229319
980.148 .0229308
980.758 .0229287
981.367 .0229256
981.977 .0229207
982.586 .0229143
983.194 .0229069
983.802 .0228985
984.410 .0228892
985.018 .0228801
985.625 .0228703
986.232 .0228600
986.838 .0228492
987.445 .0228375
988.050 .0228246
988.656 .0228107
989.261 .0227957
989.866 .0227797
990.471 .0227634
991.075 .0227469
991.679 .0227301
992.282 .0227137
992.886 .0226979
993.489 .0226826
994.091 .0226679
994.694 .0226538
995.296 .0226400
995.897 .0226274
996.499 .0226159
997.100 .0226054
997.701 .0225969
998.301 .0225903
998.901 .0225856
999.501 .0225825
1000.101 .0225803
1000.700 .0225785
1001.299 .0225757
1001.898 .0225717
1002.496 .0225657
1003.094 .0225578
1003.692 .0225483
1004.289 .0225372
1004.887 .0225258
1005.484 .0225147
1006.080 .0225037
1006.677 .0224932
1007.273 .0224830
1007.868 .0224727
1008.464 .0224621
1009.059 .0224517
1009.654 .0224410
1010.249 .0224313
1010.843 .0224235
1011.437 .0224179
1012.031 .0224146
1012.625 .0224143
1013.218 .0224160
1013.811 .0224187
1014.404 .0224221
1014.997 .0224246
1015.589 .0224258
1016.181 .0224262
1016.773 .0224248
1017.365 .0224220
1017.956 .0224180
1018.547 .0224133
1019.138 .0224076
1019.728 .0224017
1020.319 .0223951
1020.909 .0223887
1021.499 .0223825
1022.088 .0223770
1022.678 .0223718
1023.267 .0223672
1023.856 .0223633
1024.445 .0223593
1025.033 .0223552
1025.621 .0223508
1026.209 .0223455
1026.797 .0223401
1027.385 .0223341
1027.972 .0223290
1028.560 .0223250
1029.147 .0223221
1029.734 .0223207
1030.320 .0223204
1030.907 .0223202
1031.493 .0223194
1032.079 .0223179
1032.665 .0223157
1033.250 .0223122
1033.836 .0223088
1034.421 .0223063
1035.006 .0223054
1035.591 .0223070
1036.176 .0223114
1036.761 .0223182
1037.345 .0223274
1037.929 .0223371
1038.514 .0223460
1039.097 .0223525
1039.681 .0223565
1040.265 .0223578
1040.848 .0223568
1041.432 .0223536
1042.015 .0223495
1042.598 .0223450
1043.181 .0223422
1043.764 .0223399
1044.346 .0223390
1044.929 .0223396
1045.511 .0223406
1046.094 .0223425
1046.676 .0223434
1047.258 .0223443
1047.840 .0223456
1048.422 .0223473
1049.003 .0223501
1049.585 .0223533
1050.166 .0223581
1050.748 .0223641
1051.329 .0223715
1051.910 .0223801
1052.491 .0223887
1053.072 .0223974
1053.653 .0224054
1054.234 .0224128
1054.815 .0224189
1055.396 .0224235
1055.976 .0224253
1056.557 .0224259
1057.138 .0224244
1057.718 .0224205
1058.298 .0224144
1058.879 .0224068
1059.459 .0223988
1060.039 .0223906
1060.620 .0223814
1061.200 .0223732
1061.780 .0223652
1062.360 .0223586
1062.940 .0223520
1063.520 .0223458
1064.101 .0223387
1064.681 .0223308
1065.261 .0223228
1065.841 .0223139
1066.421 .0223051
1067.001 .0222976
1067.581 .0222914
1068.161 .0222879
1068.741 .0222882
1069.321 .0222915
1069.901 .0222977
1070.482 .0223064
1071.062 .0223146
1071.642 .0223207
1072.222 .0223254
1072.803 .0223264
1073.383 .0223249
1073.963 .0223219
1074.544 .0223196
1075.124 .0223170
1075.705 .0223174
1076.286 .0223201
1076.866 .0223243
1077.447 .0223299
1078.028 .0223363
1078.609 .0223402
1079.190 .0223439
1079.771 .0223453
1080.352 .0223463
1080.934 .0223469
1081.515 .0223502
1082.097 .0223559
1082.679 .0223659
1083.260 .0223799
1083.842 .0223978
1084.424 .0224168
1085.007 .0224371
1085.589 .0224558
1086.172 .0224719
1086.754 .0224844
1087.337 .0224947
1087.920 .0225020
1088.503 .0225081
1089.087 .0225109
1089.670 .0225118
1090.254 .0225090
1090.838 .0225032
1091.422 .0224938
1092.006 .0224801
1092.590 .0224645
1093.175 .0224487
1093.760 .0224336
1094.345 .0224210
1094.930 .0224115
1095.516 .0224057
1096.102 .0224012
1096.688 .0223987
1097.274 .0223963
1097.860 .0223935
1098.447 .0223903
1099.034 .0223858
1099.622 .0223805
1100.209 .0223761
1100.797 .0223734
1101.385 .0223712
1101.973 .0223716
1102.562 .0223725
1103.151 .0223714
1103.740 .0223696
1104.330 .0223663
1104.920 .0223635
1105.510 .0223607
1106.101 .0223605
1106.691 .0223626
1107.283 .0223676
1107.874 .0223760
1108.466 .0223862
1109.058 .0223999
1109.651 .0224143
1110.244 .0224282
1110.837 .0224414
1111.431 .0224537
1112.025 .0224670
1112.620 .0224794
1113.215 .0224923
1113.810 .0225061
1114.406 .0225219
1115.002 .0225368
1115.599 .0225528
1116.196 .0225689
1116.793 .0225833
1117.391 .0225972
1117.989 .0226071
1118.588 .0226153
1119.187 .0226211
1119.787 .0226270
1120.387 .0226303
1120.988 .0226347
1121.589 .0226421
1122.190 .0226467
1122.793 .0226529
1123.395 .0226590
1123.998 .0226616
1124.602 .0226624
1125.206 .0226600
1125.811 .0226565
1126.416 .0226529
1127.022 .0226531
1127.628 .0226559
1128.235 .0226670
1128.843 .0226863
1129.451 .0227129
1130.059 .0227440
1130.669 .0227839
1131.278 .0228291
1131.889 .0228738
1132.500 .0229197
1133.112 .0229659
1133.724 .0230139
1134.337 .0230647
1134.950 .0231144
1135.564 .0231679
1136.179 .0232220
1136.795 .0232805
1137.411 .0233358
1138.028 .0233894
1138.645 .0234424
1139.263 .0234927
1139.882 .0235337
1140.502 .0235756
1141.122 .0236127
1141.743 .0236632
1142.365 .0237140
1142.987 .0236209
1143.611 .0238671
1144.235 .0238067
1144.859 .0241996
1145.485 .0240246
