Measurement Sequence started on: 10-20-44-796
Integration time: 35
Scans to Average: 2 
>>>>>Begin Spectral Data<<<<<
432.953 .0351341
433.882 .0387284
434.810 .0418437
435.737 .0431575
436.662 .0422180
437.586 .0421267
438.509 .0424636
439.431 .0425518
440.351 .0424850
441.269 .0423555
442.187 .0422239
443.103 .0420575
444.018 .0418888
444.932 .0417384
445.844 .0415811
446.756 .0414392
447.666 .0413243
448.575 .0412202
449.482 .0411483
450.388 .0410966
451.294 .0410535
452.198 .0410212
453.100 .0409830
454.002 .0409383
454.902 .0408903
455.801 .0408349
456.699 .0407802
457.596 .0407231
458.492 .0406657
459.387 .0406097
460.280 .0405564
461.172 .0405069
462.064 .0404565
462.954 .0403969
463.843 .0403274
464.730 .0402468
465.617 .0401585
466.503 .0400648
467.387 .0399611
468.271 .0398605
469.153 .0397656
470.035 .0396800
470.915 .0396033
471.794 .0395311
472.673 .0394733
473.550 .0394249
474.426 .0393811
475.301 .0393449
476.175 .0393154
477.048 .0392885
477.920 .0392627
478.791 .0392398
479.661 .0392171
480.530 .0391946
481.398 .0391737
482.266 .0391584
483.132 .0391462
483.997 .0391383
484.861 .0391324
485.724 .0391314
486.587 .0391345
487.448 .0391321
488.308 .0391233
489.168 .0391073
490.026 .0390812
490.884 .0390455
491.741 .0390006
492.597 .0389506
493.452 .0388983
494.306 .0388452
495.159 .0387892
496.011 .0387337
496.862 .0386765
497.713 .0386143
498.562 .0385420
499.411 .0384610
500.259 .0383671
501.106 .0382621
501.952 .0381517
502.798 .0380339
503.642 .0379159
504.486 .0377997
505.329 .0376819
506.171 .0375663
507.012 .0374536
507.852 .0373411
508.692 .0372245
509.531 .0371084
510.369 .0369884
511.206 .0368621
512.043 .0367338
512.878 .0366010
513.713 .0364619
514.547 .0363204
515.381 .0361751
516.213 .0360209
517.045 .0358660
517.876 .0357057
518.706 .0355395
519.536 .0353721
520.365 .0352076
521.193 .0350404
522.020 .0348773
522.847 .0347231
523.673 .0345696
524.498 .0344149
525.323 .0342695
526.146 .0341250
526.969 .0339924
527.792 .0338736
528.614 .0337632
529.435 .0336720
530.255 .0336021
531.075 .0335368
531.894 .0334710
532.712 .0334032
533.530 .0333273
534.347 .0332360
535.163 .0331349
535.979 .0330290
536.794 .0329225
537.608 .0328313
538.422 .0327525
539.235 .0326861
540.048 .0326376
540.860 .0325973
541.671 .0325516
542.481 .0325030
543.292 .0324451
544.101 .0323835
544.910 .0323230
545.718 .0322694
546.526 .0322266
547.333 .0322007
548.139 .0321959
548.945 .0322047
549.750 .0322246
550.555 .0322536
551.359 .0322743
552.162 .0322853
552.965 .0322855
553.768 .0322756
554.569 .0322617
555.371 .0322503
556.171 .0322448
556.972 .0322511
557.771 .0322706
558.570 .0322989
559.369 .0323371
560.167 .0323827
560.964 .0324282
561.761 .0324682
562.558 .0325066
563.354 .0325442
564.149 .0325805
564.944 .0326219
565.738 .0326733
566.532 .0327339
567.325 .0328002
568.118 .0328692
568.910 .0329420
569.702 .0330175
570.494 .0330906
571.285 .0331554
572.075 .0332170
572.865 .0332721
573.654 .0333214
574.443 .0333638
575.232 .0334052
576.020 .0334470
576.807 .0334856
577.594 .0335222
578.381 .0335580
579.167 .0335932
579.952 .0336294
580.738 .0336669
581.522 .0337074
582.307 .0337477
583.091 .0337890
583.874 .0338297
584.657 .0338701
585.440 .0339086
586.222 .0339422
587.004 .0339695
587.785 .0339929
588.566 .0340113
589.346 .0340234
590.126 .0340309
590.906 .0340355
591.685 .0340359
592.464 .0340322
593.242 .0340257
594.020 .0340171
594.797 .0340078
595.575 .0339993
596.351 .0339912
597.128 .0339837
597.904 .0339769
598.679 .0339700
599.454 .0339632
600.229 .0339554
601.004 .0339469
601.778 .0339368
602.551 .0339252
603.325 .0339124
604.097 .0338965
604.870 .0338779
605.642 .0338578
606.414 .0338358
607.185 .0338114
607.956 .0337850
608.727 .0337585
609.497 .0337309
610.267 .0337034
611.037 .0336759
611.806 .0336481
612.575 .0336199
613.344 .0335912
614.112 .0335607
614.880 .0335289
615.647 .0334972
616.414 .0334648
617.181 .0334336
617.948 .0334048
618.714 .0333777
619.480 .0333520
620.245 .0333277
621.011 .0333041
621.775 .0332783
622.540 .0332512
623.304 .0332215
624.068 .0331898
624.832 .0331568
625.595 .0331226
626.358 .0330884
627.120 .0330548
627.883 .0330221
628.645 .0329891
629.406 .0329563
630.168 .0329229
630.929 .0328877
631.689 .0328512
632.450 .0328131
633.210 .0327744
633.970 .0327349
634.729 .0326951
635.489 .0326548
636.248 .0326143
637.006 .0325741
637.765 .0325333
638.523 .0324930
639.280 .0324531
640.038 .0324136
640.795 .0323756
641.552 .0323389
642.309 .0323041
643.065 .0322719
643.821 .0322424
644.577 .0322141
645.332 .0321869
646.088 .0321606
646.843 .0321342
647.597 .0321083
648.352 .0320830
649.106 .0320583
649.860 .0320336
650.613 .0320097
651.367 .0319861
652.120 .0319628
652.872 .0319398
653.625 .0319160
654.377 .0318919
655.129 .0318672
655.881 .0318417
656.632 .0318164
657.384 .0317918
658.135 .0317688
658.885 .0317462
659.636 .0317248
660.386 .0317044
661.136 .0316848
661.885 .0316660
662.635 .0316482
663.384 .0316320
664.133 .0316173
664.881 .0316042
665.630 .0315924
666.378 .0315822
667.126 .0315733
667.874 .0315645
668.621 .0315552
669.368 .0315446
670.115 .0315331
670.862 .0315204
671.608 .0315082
672.354 .0314970
673.100 .0314872
673.846 .0314792
674.591 .0314729
675.337 .0314674
676.082 .0314621
676.826 .0314563
677.571 .0314490
678.315 .0314400
679.059 .0314294
679.803 .0314173
680.547 .0314049
681.290 .0313931
682.033 .0313816
682.776 .0313702
683.518 .0313590
684.261 .0313472
685.003 .0313343
685.745 .0313201
686.487 .0313040
687.228 .0312862
687.969 .0312670
688.710 .0312468
689.451 .0312256
690.192 .0312050
690.932 .0311843
691.672 .0311639
692.412 .0311434
693.152 .0311227
693.891 .0311016
694.630 .0310799
695.369 .0310578
696.108 .0310352
696.846 .0310117
697.585 .0309876
698.323 .0309627
699.061 .0309375
699.798 .0309119
700.536 .0308858
701.273 .0308591
702.010 .0308321
702.746 .0308045
703.483 .0307766
704.219 .0307484
704.955 .0307198
705.691 .0306908
706.427 .0306606
707.162 .0306297
707.897 .0305978
708.632 .0305650
709.367 .0305315
710.101 .0304972
710.835 .0304629
711.569 .0304285
712.303 .0303939
713.037 .0303603
713.770 .0303273
714.503 .0302949
715.236 .0302633
715.969 .0302326
716.702 .0302027
717.434 .0301739
718.166 .0301453
718.898 .0301175
719.629 .0300905
720.361 .0300642
721.092 .0300378
721.823 .0300121
722.554 .0299864
723.284 .0299602
724.014 .0299332
724.744 .0299056
725.474 .0298768
726.204 .0298473
726.933 .0298169
727.662 .0297859
728.391 .0297548
729.120 .0297236
729.849 .0296928
730.577 .0296627
731.305 .0296327
732.033 .0296031
732.760 .0295732
733.488 .0295437
734.215 .0295152
734.942 .0294875
735.669 .0294616
736.395 .0294373
737.122 .0294153
737.848 .0293951
738.573 .0293767
739.299 .0293594
740.024 .0293426
740.750 .0293258
741.474 .0293088
742.199 .0292911
742.924 .0292740
743.648 .0292575
744.372 .0292423
745.096 .0292289
745.819 .0292175
746.543 .0292069
747.266 .0291973
747.989 .0291881
748.711 .0291794
749.434 .0291702
750.156 .0291607
750.878 .0291507
751.599 .0291414
752.321 .0291329
753.042 .0291255
753.763 .0291193
754.484 .0291149
755.205 .0291111
755.925 .0291084
756.645 .0291055
757.365 .0291022
758.085 .0290982
758.804 .0290929
759.523 .0290861
760.242 .0290777
760.961 .0290673
761.679 .0290561
762.397 .0290439
763.115 .0290312
763.833 .0290177
764.551 .0290043
765.268 .0289909
765.985 .0289775
766.702 .0289639
767.418 .0289497
768.134 .0289351
768.850 .0289206
769.566 .0289062
770.282 .0288917
770.997 .0288783
771.712 .0288663
772.427 .0288561
773.142 .0288478
773.856 .0288407
774.570 .0288349
775.284 .0288296
775.998 .0288241
776.711 .0288176
777.424 .0288102
778.137 .0288024
778.849 .0287942
779.562 .0287865
780.274 .0287797
780.986 .0287742
781.697 .0287706
782.409 .0287691
783.120 .0287694
783.831 .0287708
784.541 .0287729
785.252 .0287753
785.962 .0287772
786.671 .0287783
787.381 .0287787
788.090 .0287788
788.799 .0287791
789.508 .0287790
790.217 .0287784
790.925 .0287778
791.633 .0287769
792.341 .0287751
793.048 .0287718
793.755 .0287667
794.462 .0287595
795.169 .0287502
795.875 .0287390
796.581 .0287267
797.287 .0287139
797.993 .0287012
798.698 .0286890
799.403 .0286776
800.108 .0286673
800.812 .0286574
801.517 .0286483
802.221 .0286396
802.924 .0286308
803.628 .0286218
804.331 .0286128
805.034 .0286041
805.736 .0285954
806.439 .0285875
807.141 .0285800
807.843 .0285730
808.544 .0285661
809.245 .0285590
809.946 .0285515
810.647 .0285436
811.347 .0285352
812.047 .0285264
812.747 .0285174
813.447 .0285082
814.146 .0284981
814.845 .0284882
815.543 .0284781
816.242 .0284681
816.940 .0284575
817.638 .0284465
818.335 .0284348
819.032 .0284224
819.729 .0284090
820.426 .0283946
821.122 .0283788
821.818 .0283620
822.514 .0283435
823.209 .0283241
823.905 .0283036
824.599 .0282825
825.294 .0282607
825.988 .0282385
826.682 .0282154
827.376 .0281916
828.069 .0281670
828.762 .0281416
829.455 .0281158
830.147 .0280896
830.840 .0280635
831.531 .0280380
832.223 .0280134
832.914 .0279903
833.605 .0279686
834.296 .0279489
834.986 .0279304
835.676 .0279130
836.366 .0278968
837.055 .0278807
837.744 .0278649
838.433 .0278486
839.121 .0278318
839.809 .0278145
840.497 .0277968
841.185 .0277787
841.872 .0277602
842.559 .0277419
843.245 .0277235
843.932 .0277046
844.617 .0276853
845.303 .0276651
845.988 .0276443
846.673 .0276226
847.358 .0276000
848.042 .0275765
848.726 .0275528
849.410 .0275296
850.093 .0275069
850.776 .0274854
851.459 .0274653
852.141 .0274461
852.823 .0274276
853.505 .0274095
854.186 .0273915
854.867 .0273736
855.548 .0273559
856.228 .0273382
856.908 .0273212
857.588 .0273045
858.267 .0272886
858.946 .0272733
859.625 .0272583
860.303 .0272438
860.981 .0272291
861.659 .0272141
862.336 .0271989
863.013 .0271835
863.690 .0271683
864.366 .0271528
865.042 .0271379
865.718 .0271226
866.393 .0271068
867.068 .0270906
867.743 .0270735
868.417 .0270552
869.091 .0270362
869.765 .0270162
870.438 .0269955
871.111 .0269747
871.783 .0269541
872.456 .0269338
873.127 .0269144
873.799 .0268954
874.470 .0268764
875.141 .0268572
875.811 .0268378
876.481 .0268177
877.151 .0267972
877.820 .0267772
878.489 .0267576
879.158 .0267393
879.826 .0267226
880.494 .0267074
881.162 .0266941
881.829 .0266821
882.496 .0266709
883.163 .0266602
883.829 .0266496
884.495 .0266386
885.160 .0266272
885.825 .0266160
886.490 .0266056
887.154 .0265964
887.818 .0265886
888.482 .0265823
889.145 .0265770
889.808 .0265726
890.471 .0265684
891.133 .0265642
891.795 .0265595
892.456 .0265537
893.117 .0265470
893.778 .0265397
894.439 .0265320
895.099 .0265243
895.758 .0265173
896.417 .0265108
897.076 .0265045
897.735 .0264985
898.393 .0264928
899.051 .0264872
899.708 .0264814
900.365 .0264752
901.022 .0264687
901.678 .0264620
902.334 .0264549
902.990 .0264479
903.645 .0264418
904.300 .0264368
904.954 .0264325
905.608 .0264290
906.262 .0264261
906.915 .0264240
907.568 .0264220
908.221 .0264200
908.873 .0264182
909.525 .0264158
910.176 .0264128
910.828 .0264098
911.478 .0264062
912.129 .0264024
912.778 .0263984
913.428 .0263944
914.077 .0263904
914.726 .0263861
915.375 .0263820
916.023 .0263782
916.670 .0263752
917.318 .0263726
917.964 .0263699
918.611 .0263679
919.257 .0263660
919.903 .0263636
920.548 .0263610
921.193 .0263580
921.838 .0263550
922.482 .0263520
923.126 .0263493
923.770 .0263471
924.413 .0263450
925.056 .0263438
925.698 .0263430
926.340 .0263417
926.982 .0263402
927.623 .0263376
928.264 .0263337
928.904 .0263290
929.544 .0263229
930.184 .0263161
930.823 .0263090
931.462 .0263027
932.101 .0262968
932.739 .0262917
933.377 .0262878
934.014 .0262842
934.651 .0262816
935.288 .0262792
935.924 .0262770
936.560 .0262751
937.196 .0262736
937.831 .0262725
938.466 .0262714
939.100 .0262710
939.734 .0262705
940.368 .0262696
941.001 .0262683
941.634 .0262663
942.266 .0262634
942.899 .0262591
943.530 .0262536
944.162 .0262470
944.793 .0262391
945.423 .0262299
946.053 .0262197
946.683 .0262087
947.313 .0261968
947.942 .0261835
948.571 .0261690
949.199 .0261537
949.827 .0261371
950.455 .0261196
951.082 .0261018
951.709 .0260841
952.335 .0260674
952.961 .0260518
953.587 .0260383
954.212 .0260265
954.837 .0260165
955.462 .0260080
956.086 .0260002
956.710 .0259931
957.334 .0259860
957.957 .0259785
958.579 .0259720
959.202 .0259662
959.824 .0259612
960.445 .0259572
961.067 .0259546
961.688 .0259528
962.308 .0259510
962.928 .0259487
963.548 .0259447
964.168 .0259386
964.787 .0259305
965.406 .0259202
966.024 .0259089
966.642 .0258972
967.260 .0258857
967.877 .0258745
968.494 .0258641
969.110 .0258537
969.727 .0258434
970.342 .0258330
970.958 .0258228
971.573 .0258129
972.188 .0258032
972.802 .0257947
973.416 .0257873
974.030 .0257810
974.643 .0257759
975.256 .0257715
975.869 .0257679
976.481 .0257641
977.093 .0257605
977.705 .0257567
978.316 .0257534
978.927 .0257509
979.538 .0257491
980.148 .0257478
980.758 .0257470
981.367 .0257464
981.977 .0257455
982.586 .0257450
983.194 .0257442
983.802 .0257430
984.410 .0257413
985.018 .0257392
985.625 .0257367
986.232 .0257342
986.838 .0257320
987.445 .0257296
988.050 .0257272
988.656 .0257247
989.261 .0257207
989.866 .0257152
990.471 .0257082
991.075 .0256996
991.679 .0256888
992.282 .0256764
992.886 .0256628
993.489 .0256485
994.091 .0256346
994.694 .0256218
995.296 .0256099
995.897 .0255992
996.499 .0255883
997.100 .0255767
997.701 .0255644
998.301 .0255515
998.901 .0255382
999.501 .0255247
1000.101 .0255123
1000.700 .0255009
1001.299 .0254910
1001.898 .0254829
1002.496 .0254764
1003.094 .0254705
1003.692 .0254646
1004.289 .0254579
1004.887 .0254503
1005.484 .0254421
1006.080 .0254337
1006.677 .0254257
1007.273 .0254183
1007.868 .0254120
1008.464 .0254066
1009.059 .0254017
1009.654 .0253979
1010.249 .0253942
1010.843 .0253908
1011.437 .0253869
1012.031 .0253825
1012.625 .0253782
1013.218 .0253735
1013.811 .0253691
1014.404 .0253645
1014.997 .0253604
1015.589 .0253562
1016.181 .0253515
1016.773 .0253466
1017.365 .0253413
1017.956 .0253356
1018.547 .0253290
1019.138 .0253210
1019.728 .0253124
1020.319 .0253027
1020.909 .0252923
1021.499 .0252812
1022.088 .0252696
1022.678 .0252569
1023.267 .0252440
1023.856 .0252315
1024.445 .0252189
1025.033 .0252067
1025.621 .0251944
1026.209 .0251817
1026.797 .0251683
1027.385 .0251541
1027.972 .0251391
1028.560 .0251239
1029.147 .0251094
1029.734 .0250950
1030.320 .0250808
1030.907 .0250685
1031.493 .0250573
1032.079 .0250475
1032.665 .0250382
1033.250 .0250295
1033.836 .0250194
1034.421 .0250089
1035.006 .0249968
1035.591 .0249842
1036.176 .0249716
1036.761 .0249593
1037.345 .0249477
1037.929 .0249376
1038.514 .0249285
1039.097 .0249204
1039.681 .0249128
1040.265 .0249070
1040.848 .0249001
1041.432 .0248936
1042.015 .0248867
1042.598 .0248807
1043.181 .0248756
1043.764 .0248713
1044.346 .0248679
1044.929 .0248657
1045.511 .0248638
1046.094 .0248619
1046.676 .0248593
1047.258 .0248565
1047.840 .0248518
1048.422 .0248453
1049.003 .0248370
1049.585 .0248265
1050.166 .0248143
1050.748 .0248014
1051.329 .0247875
1051.910 .0247724
1052.491 .0247571
1053.072 .0247408
1053.653 .0247251
1054.234 .0247094
1054.815 .0246935
1055.396 .0246778
1055.976 .0246633
1056.557 .0246484
1057.138 .0246332
1057.718 .0246176
1058.298 .0246025
1058.879 .0245875
1059.459 .0245734
1060.039 .0245585
1060.620 .0245436
1061.200 .0245283
1061.780 .0245123
1062.360 .0244937
1062.940 .0244746
1063.520 .0244536
1064.101 .0244312
1064.681 .0244081
1065.261 .0243851
1065.841 .0243622
1066.421 .0243409
1067.001 .0243200
1067.581 .0242994
1068.161 .0242779
1068.741 .0242556
1069.321 .0242332
1069.901 .0242116
1070.482 .0241911
1071.062 .0241714
1071.642 .0241548
1072.222 .0241419
1072.803 .0241311
1073.383 .0241242
1073.963 .0241205
1074.544 .0241197
1075.124 .0241203
1075.705 .0241211
1076.286 .0241238
1076.866 .0241277
1077.447 .0241325
1078.028 .0241378
1078.609 .0241443
1079.190 .0241505
1079.771 .0241563
1080.352 .0241593
1080.934 .0241605
1081.515 .0241596
1082.097 .0241569
1082.679 .0241523
1083.260 .0241453
1083.842 .0241374
1084.424 .0241289
1085.007 .0241207
1085.589 .0241130
1086.172 .0241040
1086.754 .0240972
1087.337 .0240922
1087.920 .0240899
1088.503 .0240895
1089.087 .0240916
1089.670 .0240970
1090.254 .0241045
1090.838 .0241117
1091.422 .0241168
1092.006 .0241190
1092.590 .0241190
1093.175 .0241153
1093.760 .0241091
1094.345 .0241012
1094.930 .0240924
1095.516 .0240857
1096.102 .0240811
1096.688 .0240781
1097.274 .0240795
1097.860 .0240842
1098.447 .0240917
1099.034 .0240992
1099.622 .0241064
1100.209 .0241130
1100.797 .0241212
1101.385 .0241312
1101.973 .0241418
1102.562 .0241539
1103.151 .0241683
1103.740 .0241815
1104.330 .0241932
1104.920 .0242016
1105.510 .0242056
1106.101 .0242056
1106.691 .0242008
1107.283 .0241898
1107.874 .0241749
1108.466 .0241564
1109.058 .0241374
1109.651 .0241176
1110.244 .0240988
1110.837 .0240820
1111.431 .0240687
1112.025 .0240615
1112.620 .0240604
1113.215 .0240666
1113.810 .0240797
1114.406 .0241002
1115.002 .0241274
1115.599 .0241561
1116.196 .0241865
1116.793 .0242172
1117.391 .0242491
1117.989 .0242799
1118.588 .0243089
1119.187 .0243353
1119.787 .0243593
1120.387 .0243848
1120.988 .0244075
1121.589 .0244304
1122.190 .0244533
1122.793 .0244762
1123.395 .0244994
1123.998 .0245245
1124.602 .0245508
1125.206 .0245770
1125.811 .0246075
1126.416 .0246398
1127.022 .0246725
1127.628 .0247043
1128.235 .0247339
1128.843 .0247656
1129.451 .0247982
1130.059 .0248320
1130.669 .0248619
1131.278 .0248967
1131.889 .0249299
1132.500 .0249609
1133.112 .0249901
1133.724 .0250192
1134.337 .0250462
1134.950 .0250727
1135.564 .0251000
1136.179 .0251281
1136.795 .0251633
1137.411 .0252103
1138.028 .0252657
1138.645 .0253373
1139.263 .0254211
1139.882 .0255178
1140.502 .0256309
1141.122 .0257605
1141.743 .0259135
1142.365 .0260882
1142.987 .0261289
1143.611 .0264164
1144.235 .0265504
1144.859 .0270779
1145.485 .0273627
