Measurement Sequence started on: 10-20-44-796
Integration time: 35
Scans to Average: 2 
>>>>>Begin Spectral Data<<<<<
432.953 .0440264
433.882 .0372520
434.810 .0348236
435.737 .0339456
436.662 .0318059
437.586 .0334594
438.509 .0328368
439.431 .0325673
440.351 .0324333
441.269 .0323536
442.187 .0323261
443.103 .0322859
444.018 .0322442
444.932 .0322163
445.844 .0321893
446.756 .0321690
447.666 .0321441
448.575 .0321155
449.482 .0320874
450.388 .0320576
451.294 .0320271
452.198 .0320081
453.100 .0319932
454.002 .0319919
454.902 .0320041
455.801 .0320251
456.699 .0320432
457.596 .0320605
458.492 .0320700
459.387 .0320750
460.280 .0320753
461.172 .0320718
462.064 .0320616
462.954 .0320467
463.843 .0320306
464.730 .0320130
465.617 .0319936
466.503 .0319780
467.387 .0319575
468.271 .0319376
469.153 .0319156
470.035 .0318894
470.915 .0318577
471.794 .0318246
472.673 .0317863
473.550 .0317440
474.426 .0317000
475.301 .0316554
476.175 .0316113
477.048 .0315701
477.920 .0315326
478.791 .0314964
479.661 .0314629
480.530 .0314333
481.398 .0314044
482.266 .0313797
483.132 .0313593
483.997 .0313401
484.861 .0313240
485.724 .0313140
486.587 .0313070
487.448 .0313034
488.308 .0313042
489.168 .0313072
490.026 .0313126
490.884 .0313181
491.741 .0313209
492.597 .0313196
493.452 .0313151
494.306 .0313058
495.159 .0312869
496.011 .0312618
496.862 .0312307
497.713 .0311900
498.562 .0311414
499.411 .0310868
500.259 .0310243
501.106 .0309564
501.952 .0308801
502.798 .0307995
503.642 .0307149
504.486 .0306301
505.329 .0305461
506.171 .0304648
507.012 .0303858
507.852 .0303060
508.692 .0302231
509.531 .0301363
510.369 .0300413
511.206 .0299375
512.043 .0298248
512.878 .0297042
513.713 .0295766
514.547 .0294433
515.381 .0293060
516.213 .0291681
517.045 .0290206
517.876 .0288592
518.706 .0286803
519.536 .0284819
520.365 .0282670
521.193 .0280389
522.020 .0278086
522.847 .0275817
523.673 .0273688
524.498 .0271696
525.323 .0269807
526.146 .0268026
526.969 .0266370
527.792 .0264730
528.614 .0263066
529.435 .0261392
530.255 .0259789
531.075 .0258268
531.894 .0256956
532.712 .0255841
533.530 .0254951
534.347 .0254248
535.163 .0253665
535.979 .0253153
536.794 .0252690
537.608 .0252258
538.422 .0251862
539.235 .0251507
540.048 .0251313
540.860 .0251202
541.671 .0251269
542.481 .0251490
543.292 .0251847
544.101 .0252279
544.910 .0252769
545.718 .0253271
546.526 .0253819
547.333 .0254398
548.139 .0255035
548.945 .0255716
549.750 .0256447
550.555 .0257221
551.359 .0258022
552.162 .0258793
552.965 .0259556
553.768 .0260250
554.569 .0260944
555.371 .0261532
556.171 .0262074
556.972 .0262596
557.771 .0263058
558.570 .0263463
559.369 .0263830
560.167 .0264140
560.964 .0264428
561.761 .0264673
562.558 .0264937
563.354 .0265253
564.149 .0265616
564.944 .0266020
565.738 .0266493
566.532 .0267072
567.325 .0267718
568.118 .0268369
568.910 .0269085
569.702 .0269827
570.494 .0270607
571.285 .0271416
572.075 .0272275
572.865 .0273187
573.654 .0274135
574.443 .0275098
575.232 .0276068
576.020 .0277035
576.807 .0277978
577.594 .0278875
578.381 .0279740
579.167 .0280551
579.952 .0281315
580.738 .0282037
581.522 .0282733
582.307 .0283388
583.091 .0284011
583.874 .0284589
584.657 .0285137
585.440 .0285638
586.222 .0286081
587.004 .0286464
587.785 .0286787
588.566 .0287053
589.346 .0287257
590.126 .0287406
590.906 .0287527
591.685 .0287617
592.464 .0287698
593.242 .0287760
594.020 .0287809
594.797 .0287853
595.575 .0287881
596.351 .0287891
597.128 .0287881
597.904 .0287843
598.679 .0287790
599.454 .0287714
600.229 .0287634
601.004 .0287548
601.778 .0287452
602.551 .0287354
603.325 .0287238
604.097 .0287097
604.870 .0286936
605.642 .0286755
606.414 .0286559
607.185 .0286348
607.956 .0286132
608.727 .0285921
609.497 .0285723
610.267 .0285547
611.037 .0285384
611.806 .0285237
612.575 .0285102
613.344 .0284964
614.112 .0284824
614.880 .0284682
615.647 .0284531
616.414 .0284382
617.181 .0284234
617.948 .0284090
618.714 .0283946
619.480 .0283806
620.245 .0283667
621.011 .0283524
621.775 .0283375
622.540 .0283216
623.304 .0283041
624.068 .0282860
624.832 .0282665
625.595 .0282458
626.358 .0282248
627.120 .0282034
627.883 .0281819
628.645 .0281615
629.406 .0281417
630.168 .0281235
630.929 .0281069
631.689 .0280932
632.450 .0280807
633.210 .0280695
633.970 .0280596
634.729 .0280503
635.489 .0280409
636.248 .0280312
637.006 .0280206
637.765 .0280101
638.523 .0279994
639.280 .0279885
640.038 .0279773
640.795 .0279663
641.552 .0279547
642.309 .0279424
643.065 .0279287
643.821 .0279138
644.577 .0278962
645.332 .0278777
646.088 .0278580
646.843 .0278376
647.597 .0278173
648.352 .0277974
649.106 .0277790
649.860 .0277622
650.613 .0277466
651.367 .0277329
652.120 .0277210
652.872 .0277113
653.625 .0277026
654.377 .0276951
655.129 .0276886
655.881 .0276827
656.632 .0276764
657.384 .0276698
658.135 .0276623
658.885 .0276541
659.636 .0276452
660.386 .0276351
661.136 .0276246
661.885 .0276138
662.635 .0276033
663.384 .0275925
664.133 .0275820
664.881 .0275707
665.630 .0275584
666.378 .0275455
667.126 .0275317
667.874 .0275170
668.621 .0275022
669.368 .0274875
670.115 .0274727
670.862 .0274576
671.608 .0274431
672.354 .0274286
673.100 .0274142
673.846 .0273994
674.591 .0273838
675.337 .0273678
676.082 .0273518
676.826 .0273354
677.571 .0273196
678.315 .0273045
679.059 .0272906
679.803 .0272776
680.547 .0272651
681.290 .0272528
682.033 .0272398
682.776 .0272260
683.518 .0272111
684.261 .0271943
685.003 .0271760
685.745 .0271566
686.487 .0271368
687.228 .0271167
687.969 .0270966
688.710 .0270764
689.451 .0270561
690.192 .0270353
690.932 .0270133
691.672 .0269898
692.412 .0269654
693.152 .0269408
693.891 .0269161
694.630 .0268918
695.369 .0268690
696.108 .0268476
696.846 .0268281
697.585 .0268098
698.323 .0267923
699.061 .0267752
699.798 .0267579
700.536 .0267404
701.273 .0267223
702.010 .0267044
702.746 .0266868
703.483 .0266698
704.219 .0266535
704.955 .0266379
705.691 .0266224
706.427 .0266070
707.162 .0265916
707.897 .0265767
708.632 .0265624
709.367 .0265486
710.101 .0265356
710.835 .0265240
711.569 .0265128
712.303 .0265020
713.037 .0264908
713.770 .0264790
714.503 .0264660
715.236 .0264519
715.969 .0264369
716.702 .0264221
717.434 .0264080
718.166 .0263943
718.898 .0263811
719.629 .0263683
720.361 .0263556
721.092 .0263420
721.823 .0263275
722.554 .0263117
723.284 .0262948
724.014 .0262769
724.744 .0262586
725.474 .0262407
726.204 .0262238
726.933 .0262079
727.662 .0261927
728.391 .0261780
729.120 .0261633
729.849 .0261482
730.577 .0261331
731.305 .0261181
732.033 .0261037
732.760 .0260898
733.488 .0260771
734.215 .0260654
734.942 .0260545
735.669 .0260438
736.395 .0260336
737.122 .0260233
737.848 .0260128
738.573 .0260019
739.299 .0259910
740.024 .0259804
740.750 .0259703
741.474 .0259607
742.199 .0259510
742.924 .0259413
743.648 .0259313
744.372 .0259206
745.096 .0259098
745.819 .0258987
746.543 .0258875
747.266 .0258768
747.989 .0258675
748.711 .0258588
749.434 .0258512
750.156 .0258450
750.878 .0258397
751.599 .0258353
752.321 .0258320
753.042 .0258294
753.763 .0258280
754.484 .0258276
755.205 .0258277
755.925 .0258284
756.645 .0258297
757.365 .0258303
758.085 .0258303
758.804 .0258294
759.523 .0258272
760.242 .0258235
760.961 .0258185
761.679 .0258124
762.397 .0258049
763.115 .0257962
763.833 .0257856
764.551 .0257732
765.268 .0257594
765.985 .0257434
766.702 .0257257
767.418 .0257067
768.134 .0256865
768.850 .0256654
769.566 .0256437
770.282 .0256220
770.997 .0256008
771.712 .0255805
772.427 .0255610
773.142 .0255423
773.856 .0255242
774.570 .0255067
775.284 .0254891
775.998 .0254712
776.711 .0254532
777.424 .0254345
778.137 .0254153
778.849 .0253959
779.562 .0253764
780.274 .0253572
780.986 .0253383
781.697 .0253204
782.409 .0253033
783.120 .0252870
783.831 .0252716
784.541 .0252568
785.252 .0252432
785.962 .0252305
786.671 .0252184
787.381 .0252073
788.090 .0251972
788.799 .0251878
789.508 .0251792
790.217 .0251713
790.925 .0251635
791.633 .0251559
792.341 .0251475
793.048 .0251383
793.755 .0251279
794.462 .0251162
795.169 .0251028
795.875 .0250881
796.581 .0250724
797.287 .0250555
797.993 .0250378
798.698 .0250202
799.403 .0250026
800.108 .0249857
800.812 .0249693
801.517 .0249535
802.221 .0249389
802.924 .0249255
803.628 .0249127
804.331 .0249016
805.034 .0248912
805.736 .0248813
806.439 .0248718
807.141 .0248622
807.843 .0248524
808.544 .0248423
809.245 .0248316
809.946 .0248204
810.647 .0248088
811.347 .0247970
812.047 .0247844
812.747 .0247717
813.447 .0247585
814.146 .0247446
814.845 .0247301
815.543 .0247152
816.242 .0247000
816.940 .0246844
817.638 .0246689
818.335 .0246539
819.032 .0246394
819.729 .0246256
820.426 .0246122
821.122 .0245993
821.818 .0245864
822.514 .0245734
823.209 .0245601
823.905 .0245465
824.599 .0245325
825.294 .0245181
825.988 .0245029
826.682 .0244876
827.376 .0244719
828.069 .0244562
828.762 .0244409
829.455 .0244257
830.147 .0244113
830.840 .0243978
831.531 .0243853
832.223 .0243738
832.914 .0243625
833.605 .0243515
834.296 .0243402
834.986 .0243284
835.676 .0243162
836.366 .0243034
837.055 .0242907
837.744 .0242778
838.433 .0242648
839.121 .0242515
839.809 .0242380
840.497 .0242243
841.185 .0242105
841.872 .0241963
842.559 .0241823
843.245 .0241685
843.932 .0241556
844.617 .0241439
845.303 .0241333
845.988 .0241239
846.673 .0241156
847.358 .0241081
848.042 .0241013
848.726 .0240943
849.410 .0240879
850.093 .0240814
850.776 .0240750
851.459 .0240684
852.141 .0240618
852.823 .0240549
853.505 .0240474
854.186 .0240391
854.867 .0240293
855.548 .0240181
856.228 .0240055
856.908 .0239917
857.588 .0239771
858.267 .0239626
858.946 .0239486
859.625 .0239354
860.303 .0239237
860.981 .0239138
861.659 .0239060
862.336 .0239003
863.013 .0238967
863.690 .0238952
864.366 .0238949
865.042 .0238960
865.718 .0238973
866.393 .0238991
867.068 .0239008
867.743 .0239027
868.417 .0239046
869.091 .0239062
869.765 .0239073
870.438 .0239080
871.111 .0239079
871.783 .0239073
872.456 .0239053
873.127 .0239020
873.799 .0238975
874.470 .0238918
875.141 .0238848
875.811 .0238774
876.481 .0238694
877.151 .0238614
877.820 .0238537
878.489 .0238464
879.158 .0238393
879.826 .0238329
880.494 .0238275
881.162 .0238226
881.829 .0238178
882.496 .0238130
883.163 .0238079
883.829 .0238033
884.495 .0237987
885.160 .0237939
885.825 .0237895
886.490 .0237858
887.154 .0237832
887.818 .0237818
888.482 .0237818
889.145 .0237835
889.808 .0237862
890.471 .0237895
891.133 .0237928
891.795 .0237957
892.456 .0237980
893.117 .0237996
893.778 .0238006
894.439 .0238012
895.099 .0238010
895.758 .0238008
896.417 .0238009
897.076 .0238011
897.735 .0238008
898.393 .0237998
899.051 .0237983
899.708 .0237957
900.365 .0237917
901.022 .0237872
901.678 .0237822
902.334 .0237769
902.990 .0237713
903.645 .0237658
904.300 .0237608
904.954 .0237563
905.608 .0237524
906.262 .0237492
906.915 .0237462
907.568 .0237434
908.221 .0237406
908.873 .0237378
909.525 .0237344
910.176 .0237301
910.828 .0237250
911.478 .0237190
912.129 .0237116
912.778 .0237034
913.428 .0236957
914.077 .0236884
914.726 .0236815
915.375 .0236754
916.023 .0236706
916.670 .0236665
917.318 .0236627
917.964 .0236588
918.611 .0236545
919.257 .0236499
919.903 .0236441
920.548 .0236377
921.193 .0236317
921.838 .0236265
922.482 .0236220
923.126 .0236189
923.770 .0236171
924.413 .0236160
925.056 .0236151
925.698 .0236147
926.340 .0236140
926.982 .0236125
927.623 .0236102
928.264 .0236074
928.904 .0236040
929.544 .0235999
930.184 .0235951
930.823 .0235900
931.462 .0235841
932.101 .0235769
932.739 .0235682
933.377 .0235581
934.014 .0235465
934.651 .0235333
935.288 .0235186
935.924 .0235029
936.560 .0234863
937.196 .0234693
937.831 .0234522
938.466 .0234353
939.100 .0234185
939.734 .0234020
940.368 .0233858
941.001 .0233696
941.634 .0233538
942.266 .0233393
942.899 .0233252
943.530 .0233118
944.162 .0232987
944.793 .0232857
945.423 .0232725
946.053 .0232587
946.683 .0232444
947.313 .0232293
947.942 .0232137
948.571 .0231969
949.199 .0231789
949.827 .0231603
950.455 .0231407
951.082 .0231206
951.709 .0231004
952.335 .0230803
952.961 .0230602
953.587 .0230409
954.212 .0230219
954.837 .0230034
955.462 .0229853
956.086 .0229680
956.710 .0229514
957.334 .0229353
957.957 .0229196
958.579 .0229045
959.202 .0228899
959.824 .0228756
960.445 .0228610
961.067 .0228466
961.688 .0228318
962.308 .0228168
962.928 .0228013
963.548 .0227857
964.168 .0227705
964.787 .0227558
965.406 .0227415
966.024 .0227280
966.642 .0227147
967.260 .0227018
967.877 .0226893
968.494 .0226765
969.110 .0226631
969.727 .0226489
970.342 .0226341
970.958 .0226188
971.573 .0226032
972.188 .0225882
972.802 .0225741
973.416 .0225612
974.030 .0225492
974.643 .0225370
975.256 .0225253
975.869 .0225132
976.481 .0225003
977.093 .0224864
977.705 .0224722
978.316 .0224576
978.927 .0224435
979.538 .0224299
980.148 .0224172
980.758 .0224051
981.367 .0223942
981.977 .0223832
982.586 .0223717
983.194 .0223598
983.802 .0223472
984.410 .0223333
985.018 .0223191
985.625 .0223044
986.232 .0222905
986.838 .0222772
987.445 .0222653
988.050 .0222536
988.656 .0222425
989.261 .0222318
989.866 .0222206
990.471 .0222096
991.075 .0221992
991.679 .0221887
992.282 .0221792
992.886 .0221704
993.489 .0221622
994.091 .0221543
994.694 .0221471
995.296 .0221397
995.897 .0221323
996.499 .0221245
997.100 .0221163
997.701 .0221084
998.301 .0221016
998.901 .0220949
999.501 .0220887
1000.101 .0220830
1000.700 .0220773
1001.299 .0220712
1001.898 .0220648
1002.496 .0220578
1003.094 .0220509
1003.692 .0220437
1004.289 .0220355
1004.887 .0220270
1005.484 .0220184
1006.080 .0220090
1006.677 .0219988
1007.273 .0219882
1007.868 .0219768
1008.464 .0219650
1009.059 .0219539
1009.654 .0219435
1010.249 .0219349
1010.843 .0219286
1011.437 .0219237
1012.031 .0219207
1012.625 .0219190
1013.218 .0219178
1013.811 .0219171
1014.404 .0219175
1014.997 .0219188
1015.589 .0219207
1016.181 .0219242
1016.773 .0219293
1017.365 .0219364
1017.956 .0219451
1018.547 .0219548
1019.138 .0219650
1019.728 .0219745
1020.319 .0219827
1020.909 .0219888
1021.499 .0219928
1022.088 .0219940
1022.678 .0219929
1023.267 .0219903
1023.856 .0219860
1024.445 .0219813
1025.033 .0219761
1025.621 .0219713
1026.209 .0219664
1026.797 .0219603
1027.385 .0219533
1027.972 .0219453
1028.560 .0219367
1029.147 .0219277
1029.734 .0219191
1030.320 .0219118
1030.907 .0219056
1031.493 .0219012
1032.079 .0218985
1032.665 .0218972
1033.250 .0218964
1033.836 .0218966
1034.421 .0218972
1035.006 .0218981
1035.591 .0218993
1036.176 .0219009
1036.761 .0219031
1037.345 .0219057
1037.929 .0219079
1038.514 .0219095
1039.097 .0219105
1039.681 .0219115
1040.265 .0219115
1040.848 .0219110
1041.432 .0219108
1042.015 .0219109
1042.598 .0219117
1043.181 .0219132
1043.764 .0219150
1044.346 .0219176
1044.929 .0219209
1045.511 .0219246
1046.094 .0219281
1046.676 .0219320
1047.258 .0219352
1047.840 .0219372
1048.422 .0219382
1049.003 .0219383
1049.585 .0219366
1050.166 .0219348
1050.748 .0219334
1051.329 .0219326
1051.910 .0219339
1052.491 .0219373
1053.072 .0219423
1053.653 .0219502
1054.234 .0219583
1054.815 .0219655
1055.396 .0219708
1055.976 .0219748
1056.557 .0219760
1057.138 .0219755
1057.718 .0219744
1058.298 .0219722
1058.879 .0219699
1059.459 .0219690
1060.039 .0219681
1060.620 .0219677
1061.200 .0219671
1061.780 .0219650
1062.360 .0219603
1062.940 .0219542
1063.520 .0219458
1064.101 .0219369
1064.681 .0219285
1065.261 .0219219
1065.841 .0219165
1066.421 .0219140
1067.001 .0219145
1067.581 .0219156
1068.161 .0219182
1068.741 .0219222
1069.321 .0219250
1069.901 .0219266
1070.482 .0219270
1071.062 .0219258
1071.642 .0219239
1072.222 .0219225
1072.803 .0219199
1073.383 .0219169
1073.963 .0219146
1074.544 .0219113
1075.124 .0219063
1075.705 .0219016
1076.286 .0218967
1076.866 .0218906
1077.447 .0218853
1078.028 .0218793
1078.609 .0218721
1079.190 .0218655
1079.771 .0218597
1080.352 .0218546
1080.934 .0218513
1081.515 .0218503
1082.097 .0218515
1082.679 .0218547
1083.260 .0218604
1083.842 .0218668
1084.424 .0218743
1085.007 .0218837
1085.589 .0218928
1086.172 .0219018
1086.754 .0219117
1087.337 .0219235
1087.920 .0219382
1088.503 .0219547
1089.087 .0219733
1089.670 .0219907
1090.254 .0220066
1090.838 .0220201
1091.422 .0220297
1092.006 .0220366
1092.590 .0220418
1093.175 .0220454
1093.760 .0220468
1094.345 .0220484
1094.930 .0220503
1095.516 .0220531
1096.102 .0220567
1096.688 .0220608
1097.274 .0220654
1097.860 .0220692
1098.447 .0220732
1099.034 .0220751
1099.622 .0220781
1100.209 .0220819
1100.797 .0220842
1101.385 .0220860
1101.973 .0220882
1102.562 .0220908
1103.151 .0220927
1103.740 .0220965
1104.330 .0221026
1104.920 .0221075
1105.510 .0221113
1106.101 .0221124
1106.691 .0221088
1107.283 .0221011
1107.874 .0220897
1108.466 .0220753
1109.058 .0220622
1109.651 .0220529
1110.244 .0220487
1110.837 .0220517
1111.431 .0220625
1112.025 .0220785
1112.620 .0220991
1113.215 .0221235
1113.810 .0221478
1114.406 .0221720
1115.002 .0221966
1115.599 .0222212
1116.196 .0222463
1116.793 .0222746
1117.391 .0223057
1117.989 .0223398
1118.588 .0223769
1119.187 .0224140
1119.787 .0224495
1120.387 .0224832
1120.988 .0225116
1121.589 .0225344
1122.190 .0225504
1122.793 .0225563
1123.395 .0225518
1123.998 .0225396
1124.602 .0225197
1125.206 .0224939
1125.811 .0224669
1126.416 .0224427
1127.022 .0224200
1127.628 .0224019
1128.235 .0223890
1128.843 .0223817
1129.451 .0223817
1130.059 .0223848
1130.669 .0223886
1131.278 .0223970
1131.889 .0224083
1132.500 .0224241
1133.112 .0224478
1133.724 .0224853
1134.337 .0225371
1134.950 .0225986
1135.564 .0226712
1136.179 .0227524
1136.795 .0228384
1137.411 .0229279
1138.028 .0230132
1138.645 .0230949
1139.263 .0231705
1139.882 .0232405
1140.502 .0233084
1141.122 .0233679
1141.743 .0234246
1142.365 .0234624
1142.987 .0235459
1143.611 .0237151
1144.235 .0235602
1144.859 .0235697
1145.485 .0232520
