Measurement Sequence started on: 10-20-44-796
Integration time: 35
Scans to Average: 2 
>>>>>Begin Spectral Data<<<<<
432.953 .0247601
433.882 .0358433
434.810 .0348569
435.737 .0365592
436.662 .0342495
437.586 .0347713
438.509 .0351513
439.431 .0351653
440.351 .0352115
441.269 .0352150
442.187 .0352633
443.103 .0352873
444.018 .0353066
444.932 .0353156
445.844 .0353481
446.756 .0354052
447.666 .0354860
448.575 .0355496
449.482 .0355949
450.388 .0356114
451.294 .0355935
452.198 .0355512
453.100 .0354889
454.002 .0354229
454.902 .0353760
455.801 .0353462
456.699 .0353416
457.596 .0353577
458.492 .0353884
459.387 .0354154
460.280 .0354392
461.172 .0354512
462.064 .0354463
462.954 .0354317
463.843 .0354155
464.730 .0353974
465.617 .0353872
466.503 .0353809
467.387 .0353846
468.271 .0353927
469.153 .0354027
470.035 .0354067
470.915 .0354107
471.794 .0354132
472.673 .0354138
473.550 .0354096
474.426 .0354051
475.301 .0353959
476.175 .0353860
477.048 .0353723
477.920 .0353559
478.791 .0353370
479.661 .0353197
480.530 .0353030
481.398 .0352913
482.266 .0352821
483.132 .0352829
483.997 .0352846
484.861 .0352848
485.724 .0352793
486.587 .0352646
487.448 .0352389
488.308 .0352057
489.168 .0351659
490.026 .0351246
490.884 .0350844
491.741 .0350482
492.597 .0350147
493.452 .0349901
494.306 .0349664
495.159 .0349421
496.011 .0349170
496.862 .0348879
497.713 .0348486
498.562 .0348035
499.411 .0347510
500.259 .0346923
501.106 .0346274
501.952 .0345557
502.798 .0344816
503.642 .0344040
504.486 .0343220
505.329 .0342352
506.171 .0341454
507.012 .0340536
507.852 .0339550
508.692 .0338520
509.531 .0337373
510.369 .0336087
511.206 .0334698
512.043 .0333152
512.878 .0331534
513.713 .0329897
514.547 .0328281
515.381 .0326736
516.213 .0325298
517.045 .0323917
517.876 .0322611
518.706 .0321346
519.536 .0320073
520.365 .0318772
521.193 .0317423
522.020 .0315956
522.847 .0314443
523.673 .0313020
524.498 .0311682
525.323 .0310415
526.146 .0309333
526.969 .0308366
527.792 .0307464
528.614 .0306525
529.435 .0305475
530.255 .0304370
531.075 .0303211
531.894 .0302016
532.712 .0300797
533.530 .0299613
534.347 .0298598
535.163 .0297633
535.979 .0296870
536.794 .0296191
537.608 .0295536
538.422 .0294893
539.235 .0294192
540.048 .0293405
540.860 .0292518
541.671 .0291620
542.481 .0290773
543.292 .0289937
544.101 .0289185
544.910 .0288454
545.718 .0287866
546.526 .0287420
547.333 .0287108
548.139 .0286833
548.945 .0286657
549.750 .0286486
550.555 .0286397
551.359 .0286384
552.162 .0286479
552.965 .0286696
553.768 .0287010
554.569 .0287390
555.371 .0287785
556.171 .0288120
556.972 .0288490
557.771 .0288756
558.570 .0288961
559.369 .0289057
560.167 .0289129
560.964 .0289208
561.761 .0289374
562.558 .0289667
563.354 .0290181
564.149 .0290844
564.944 .0291679
565.738 .0292566
566.532 .0293474
567.325 .0294379
568.118 .0295234
568.910 .0296032
569.702 .0296854
570.494 .0297693
571.285 .0298608
572.075 .0299595
572.865 .0300699
573.654 .0301817
574.443 .0302935
575.232 .0303992
576.020 .0304913
576.807 .0305697
577.594 .0306376
578.381 .0306935
579.167 .0307502
579.952 .0308061
580.738 .0308654
581.522 .0309294
582.307 .0310002
583.091 .0310724
583.874 .0311413
584.657 .0312037
585.440 .0312569
586.222 .0312977
587.004 .0313288
587.785 .0313504
588.566 .0313662
589.346 .0313772
590.126 .0313862
590.906 .0313934
591.685 .0314010
592.464 .0314067
593.242 .0314123
594.020 .0314158
594.797 .0314175
595.575 .0314165
596.351 .0314137
597.128 .0314102
597.904 .0314060
598.679 .0314021
599.454 .0313996
600.229 .0313984
601.004 .0313979
601.778 .0313967
602.551 .0313952
603.325 .0313920
604.097 .0313870
604.870 .0313787
605.642 .0313694
606.414 .0313580
607.185 .0313452
607.956 .0313309
608.727 .0313148
609.497 .0312958
610.267 .0312737
611.037 .0312484
611.806 .0312205
612.575 .0311901
613.344 .0311591
614.112 .0311283
614.880 .0310985
615.647 .0310696
616.414 .0310415
617.181 .0310138
617.948 .0309862
618.714 .0309562
619.480 .0309247
620.245 .0308916
621.011 .0308579
621.775 .0308245
622.540 .0307926
623.304 .0307638
624.068 .0307387
624.832 .0307157
625.595 .0306944
626.358 .0306743
627.120 .0306541
627.883 .0306324
628.645 .0306099
629.406 .0305856
630.168 .0305592
630.929 .0305322
631.689 .0305046
632.450 .0304763
633.210 .0304488
633.970 .0304214
634.729 .0303936
635.489 .0303665
636.248 .0303394
637.006 .0303119
637.765 .0302851
638.523 .0302594
639.280 .0302325
640.038 .0302060
640.795 .0301809
641.552 .0301568
642.309 .0301346
643.065 .0301145
643.821 .0300961
644.577 .0300789
645.332 .0300622
646.088 .0300449
646.843 .0300266
647.597 .0300084
648.352 .0299891
649.106 .0299695
649.860 .0299508
650.613 .0299333
651.367 .0299170
652.120 .0299034
652.872 .0298911
653.625 .0298791
654.377 .0298667
655.129 .0298535
655.881 .0298388
656.632 .0298234
657.384 .0298078
658.135 .0297931
658.885 .0297798
659.636 .0297684
660.386 .0297575
661.136 .0297483
661.885 .0297396
662.635 .0297303
663.384 .0297193
664.133 .0297068
664.881 .0296922
665.630 .0296768
666.378 .0296609
667.126 .0296459
667.874 .0296321
668.621 .0296205
669.368 .0296097
670.115 .0296003
670.862 .0295915
671.608 .0295836
672.354 .0295763
673.100 .0295695
673.846 .0295626
674.591 .0295556
675.337 .0295490
676.082 .0295427
676.826 .0295362
677.571 .0295294
678.315 .0295213
679.059 .0295122
679.803 .0295014
680.547 .0294895
681.290 .0294759
682.033 .0294611
682.776 .0294451
683.518 .0294279
684.261 .0294086
685.003 .0293882
685.745 .0293666
686.487 .0293444
687.228 .0293214
687.969 .0292974
688.710 .0292730
689.451 .0292489
690.192 .0292250
690.932 .0292017
691.672 .0291787
692.412 .0291575
693.152 .0291370
693.891 .0291173
694.630 .0290984
695.369 .0290796
696.108 .0290606
696.846 .0290412
697.585 .0290204
698.323 .0289991
699.061 .0289767
699.798 .0289537
700.536 .0289300
701.273 .0289063
702.010 .0288826
702.746 .0288588
703.483 .0288357
704.219 .0288131
704.955 .0287907
705.691 .0287691
706.427 .0287481
707.162 .0287283
707.897 .0287098
708.632 .0286927
709.367 .0286761
710.101 .0286605
710.835 .0286448
711.569 .0286299
712.303 .0286149
713.037 .0285999
713.770 .0285847
714.503 .0285683
715.236 .0285510
715.969 .0285325
716.702 .0285129
717.434 .0284922
718.166 .0284700
718.898 .0284464
719.629 .0284214
720.361 .0283958
721.092 .0283691
721.823 .0283426
722.554 .0283163
723.284 .0282899
724.014 .0282622
724.744 .0282342
725.474 .0282059
726.204 .0281775
726.933 .0281498
727.662 .0281226
728.391 .0280965
729.120 .0280718
729.849 .0280480
730.577 .0280254
731.305 .0280044
732.033 .0279846
732.760 .0279653
733.488 .0279473
734.215 .0279305
734.942 .0279150
735.669 .0279012
736.395 .0278892
737.122 .0278781
737.848 .0278670
738.573 .0278554
739.299 .0278419
740.024 .0278273
740.750 .0278112
741.474 .0277935
742.199 .0277753
742.924 .0277570
743.648 .0277385
744.372 .0277200
745.096 .0277018
745.819 .0276831
746.543 .0276635
747.266 .0276437
747.989 .0276228
748.711 .0276022
749.434 .0275830
750.156 .0275665
750.878 .0275535
751.599 .0275451
752.321 .0275403
753.042 .0275383
753.763 .0275383
754.484 .0275388
755.205 .0275382
755.925 .0275365
756.645 .0275328
757.365 .0275275
758.085 .0275214
758.804 .0275143
759.523 .0275064
760.242 .0274984
760.961 .0274894
761.679 .0274794
762.397 .0274679
763.115 .0274551
763.833 .0274408
764.551 .0274255
765.268 .0274093
765.985 .0273921
766.702 .0273749
767.418 .0273576
768.134 .0273396
768.850 .0273220
769.566 .0273043
770.282 .0272868
770.997 .0272711
771.712 .0272568
772.427 .0272444
773.142 .0272339
773.856 .0272251
774.570 .0272170
775.284 .0272091
775.998 .0272012
776.711 .0271924
777.424 .0271828
778.137 .0271729
778.849 .0271620
779.562 .0271518
780.274 .0271423
780.986 .0271343
781.697 .0271277
782.409 .0271223
783.120 .0271174
783.831 .0271128
784.541 .0271077
785.252 .0271026
785.962 .0270969
786.671 .0270908
787.381 .0270843
788.090 .0270777
788.799 .0270705
789.508 .0270630
790.217 .0270552
790.925 .0270466
791.633 .0270367
792.341 .0270261
793.048 .0270141
793.755 .0270011
794.462 .0269873
795.169 .0269724
795.875 .0269565
796.581 .0269404
797.287 .0269237
797.993 .0269063
798.698 .0268893
799.403 .0268722
800.108 .0268554
800.812 .0268395
801.517 .0268247
802.221 .0268110
802.924 .0267989
803.628 .0267882
804.331 .0267786
805.034 .0267696
805.736 .0267612
806.439 .0267528
807.141 .0267444
807.843 .0267362
808.544 .0267279
809.245 .0267195
809.946 .0267110
810.647 .0267019
811.347 .0266923
812.047 .0266815
812.747 .0266700
813.447 .0266572
814.146 .0266439
814.845 .0266306
815.543 .0266175
816.242 .0266052
816.940 .0265942
817.638 .0265847
818.335 .0265762
819.032 .0265677
819.729 .0265588
820.426 .0265487
821.122 .0265370
821.818 .0265226
822.514 .0265055
823.209 .0264863
823.905 .0264659
824.599 .0264442
825.294 .0264221
825.988 .0263997
826.682 .0263777
827.376 .0263556
828.069 .0263327
828.762 .0263089
829.455 .0262840
830.147 .0262583
830.840 .0262326
831.531 .0262070
832.223 .0261827
832.914 .0261601
833.605 .0261397
834.296 .0261214
834.986 .0261048
835.676 .0260893
836.366 .0260747
837.055 .0260606
837.744 .0260463
838.433 .0260306
839.121 .0260148
839.809 .0259982
840.497 .0259814
841.185 .0259640
841.872 .0259467
842.559 .0259292
843.245 .0259121
843.932 .0258941
844.617 .0258752
845.303 .0258559
845.988 .0258363
846.673 .0258167
847.358 .0257978
848.042 .0257798
848.726 .0257631
849.410 .0257474
850.093 .0257330
850.776 .0257188
851.459 .0257048
852.141 .0256899
852.823 .0256744
853.505 .0256581
854.186 .0256413
854.867 .0256246
855.548 .0256086
856.228 .0255936
856.908 .0255797
857.588 .0255671
858.267 .0255556
858.946 .0255444
859.625 .0255334
860.303 .0255216
860.981 .0255091
861.659 .0254956
862.336 .0254809
863.013 .0254653
863.690 .0254492
864.366 .0254329
865.042 .0254164
865.718 .0254000
866.393 .0253836
867.068 .0253670
867.743 .0253503
868.417 .0253329
869.091 .0253147
869.765 .0252959
870.438 .0252762
871.111 .0252564
871.783 .0252362
872.456 .0252161
873.127 .0251970
873.799 .0251789
874.470 .0251619
875.141 .0251460
875.811 .0251315
876.481 .0251178
877.151 .0251053
877.820 .0250934
878.489 .0250823
879.158 .0250721
879.826 .0250631
880.494 .0250550
881.162 .0250479
881.829 .0250416
882.496 .0250348
883.163 .0250277
883.829 .0250205
884.495 .0250119
885.160 .0250028
885.825 .0249934
886.490 .0249846
887.154 .0249762
887.818 .0249684
888.482 .0249611
889.145 .0249544
889.808 .0249484
890.471 .0249421
891.133 .0249346
891.795 .0249266
892.456 .0249177
893.117 .0249080
893.778 .0248987
894.439 .0248904
895.099 .0248831
895.758 .0248773
896.417 .0248731
897.076 .0248700
897.735 .0248675
898.393 .0248651
899.051 .0248626
899.708 .0248594
900.365 .0248554
901.022 .0248501
901.678 .0248445
902.334 .0248395
902.990 .0248347
903.645 .0248297
904.300 .0248253
904.954 .0248205
905.608 .0248152
906.262 .0248091
906.915 .0248029
907.568 .0247961
908.221 .0247890
908.873 .0247819
909.525 .0247748
910.176 .0247685
910.828 .0247632
911.478 .0247584
912.129 .0247547
912.778 .0247517
913.428 .0247492
914.077 .0247470
914.726 .0247461
915.375 .0247462
916.023 .0247469
916.670 .0247486
917.318 .0247508
917.964 .0247532
918.611 .0247557
919.257 .0247582
919.903 .0247598
920.548 .0247606
921.193 .0247602
921.838 .0247588
922.482 .0247567
923.126 .0247542
923.770 .0247516
924.413 .0247492
925.056 .0247472
925.698 .0247461
926.340 .0247459
926.982 .0247464
927.623 .0247473
928.264 .0247486
928.904 .0247493
929.544 .0247496
930.184 .0247493
930.823 .0247485
931.462 .0247478
932.101 .0247468
932.739 .0247456
933.377 .0247443
934.014 .0247427
934.651 .0247407
935.288 .0247373
935.924 .0247332
936.560 .0247275
937.196 .0247207
937.831 .0247130
938.466 .0247045
939.100 .0246956
939.734 .0246865
940.368 .0246770
941.001 .0246671
941.634 .0246572
942.266 .0246473
942.899 .0246371
943.530 .0246267
944.162 .0246154
944.793 .0246040
945.423 .0245913
946.053 .0245777
946.683 .0245628
947.313 .0245464
947.942 .0245276
948.571 .0245074
949.199 .0244859
949.827 .0244638
950.455 .0244416
951.082 .0244206
951.709 .0244011
952.335 .0243836
952.961 .0243679
953.587 .0243537
954.212 .0243408
954.837 .0243296
955.462 .0243180
956.086 .0243075
956.710 .0242985
957.334 .0242907
957.957 .0242844
958.579 .0242804
959.202 .0242776
959.824 .0242756
960.445 .0242741
961.067 .0242727
961.688 .0242703
962.308 .0242675
962.928 .0242635
963.548 .0242578
964.168 .0242519
964.787 .0242451
965.406 .0242374
966.024 .0242303
966.642 .0242230
967.260 .0242149
967.877 .0242066
968.494 .0241985
969.110 .0241896
969.727 .0241806
970.342 .0241716
970.958 .0241625
971.573 .0241534
972.188 .0241448
972.802 .0241359
973.416 .0241279
974.030 .0241203
974.643 .0241116
975.256 .0241021
975.869 .0240924
976.481 .0240816
977.093 .0240702
977.705 .0240587
978.316 .0240476
978.927 .0240368
979.538 .0240270
980.148 .0240174
980.758 .0240085
981.367 .0239999
981.977 .0239909
982.586 .0239813
983.194 .0239712
983.802 .0239602
984.410 .0239488
985.018 .0239382
985.625 .0239278
986.232 .0239174
986.838 .0239074
987.445 .0238985
988.050 .0238898
988.656 .0238820
989.261 .0238744
989.866 .0238673
990.471 .0238615
991.075 .0238562
991.679 .0238507
992.282 .0238461
992.886 .0238418
993.489 .0238372
994.091 .0238325
994.694 .0238280
995.296 .0238237
995.897 .0238208
996.499 .0238185
997.100 .0238172
997.701 .0238161
998.301 .0238160
998.901 .0238150
999.501 .0238141
1000.101 .0238126
1000.700 .0238096
1001.299 .0238050
1001.898 .0237997
1002.496 .0237928
1003.094 .0237853
1003.692 .0237768
1004.289 .0237674
1004.887 .0237572
1005.484 .0237468
1006.080 .0237351
1006.677 .0237238
1007.273 .0237124
1007.868 .0237012
1008.464 .0236887
1009.059 .0236767
1009.654 .0236642
1010.249 .0236512
1010.843 .0236387
1011.437 .0236266
1012.031 .0236150
1012.625 .0236047
1013.218 .0235946
1013.811 .0235863
1014.404 .0235790
1014.997 .0235721
1015.589 .0235647
1016.181 .0235573
1016.773 .0235499
1017.365 .0235424
1017.956 .0235357
1018.547 .0235297
1019.138 .0235244
1019.728 .0235197
1020.319 .0235140
1020.909 .0235074
1021.499 .0234998
1022.088 .0234907
1022.678 .0234796
1023.267 .0234676
1023.856 .0234545
1024.445 .0234414
1025.033 .0234301
1025.621 .0234200
1026.209 .0234115
1026.797 .0234033
1027.385 .0233955
1027.972 .0233868
1028.560 .0233783
1029.147 .0233692
1029.734 .0233601
1030.320 .0233518
1030.907 .0233440
1031.493 .0233375
1032.079 .0233328
1032.665 .0233304
1033.250 .0233304
1033.836 .0233315
1034.421 .0233339
1035.006 .0233356
1035.591 .0233373
1036.176 .0233368
1036.761 .0233346
1037.345 .0233297
1037.929 .0233215
1038.514 .0233110
1039.097 .0232981
1039.681 .0232846
1040.265 .0232721
1040.848 .0232611
1041.432 .0232516
1042.015 .0232427
1042.598 .0232350
1043.181 .0232268
1043.764 .0232185
1044.346 .0232102
1044.929 .0232007
1045.511 .0231913
1046.094 .0231829
1046.676 .0231755
1047.258 .0231697
1047.840 .0231664
1048.422 .0231632
1049.003 .0231598
1049.585 .0231555
1050.166 .0231492
1050.748 .0231411
1051.329 .0231333
1051.910 .0231249
1052.491 .0231155
1053.072 .0231073
1053.653 .0231000
1054.234 .0230913
1054.815 .0230834
1055.396 .0230738
1055.976 .0230634
1056.557 .0230514
1057.138 .0230389
1057.718 .0230253
1058.298 .0230134
1058.879 .0230035
1059.459 .0229935
1060.039 .0229853
1060.620 .0229786
1061.200 .0229709
1061.780 .0229648
1062.360 .0229594
1062.940 .0229558
1063.520 .0229527
1064.101 .0229515
1064.681 .0229492
1065.261 .0229460
1065.841 .0229425
1066.421 .0229370
1067.001 .0229296
1067.581 .0229213
1068.161 .0229121
1068.741 .0229039
1069.321 .0228977
1069.901 .0228929
1070.482 .0228884
1071.062 .0228839
1071.642 .0228774
1072.222 .0228677
1072.803 .0228547
1073.383 .0228402
1073.963 .0228255
1074.544 .0228118
1075.124 .0228012
1075.705 .0227933
1076.286 .0227899
1076.866 .0227896
1077.447 .0227905
1078.028 .0227885
1078.609 .0227837
1079.190 .0227743
1079.771 .0227625
1080.352 .0227471
1080.934 .0227312
1081.515 .0227170
1082.097 .0227070
1082.679 .0227016
1083.260 .0227002
1083.842 .0227013
1084.424 .0227048
1085.007 .0227070
1085.589 .0227086
1086.172 .0227056
1086.754 .0227022
1087.337 .0226989
1087.920 .0226990
1088.503 .0227014
1089.087 .0227084
1089.670 .0227196
1090.254 .0227361
1090.838 .0227546
1091.422 .0227741
1092.006 .0227929
1092.590 .0228088
1093.175 .0228200
1093.760 .0228256
1094.345 .0228280
1094.930 .0228271
1095.516 .0228209
1096.102 .0228146
1096.688 .0228044
1097.274 .0227914
1097.860 .0227747
1098.447 .0227560
1099.034 .0227361
1099.622 .0227126
1100.209 .0226855
1100.797 .0226572
1101.385 .0226287
1101.973 .0226024
1102.562 .0225763
1103.151 .0225562
1103.740 .0225436
1104.330 .0225349
1104.920 .0225307
1105.510 .0225326
1106.101 .0225409
1106.691 .0225543
1107.283 .0225682
1107.874 .0225841
1108.466 .0225983
1109.058 .0226097
1109.651 .0226183
1110.244 .0226258
1110.837 .0226334
1111.431 .0226399
1112.025 .0226453
1112.620 .0226525
1113.215 .0226605
1113.810 .0226696
1114.406 .0226811
1115.002 .0226942
1115.599 .0227089
1116.196 .0227202
1116.793 .0227291
1117.391 .0227419
1117.989 .0227552
1118.588 .0227704
1119.187 .0227875
1119.787 .0228076
1120.387 .0228278
1120.988 .0228448
1121.589 .0228601
1122.190 .0228724
1122.793 .0228818
1123.395 .0228871
1123.998 .0228853
1124.602 .0228861
1125.206 .0228901
1125.811 .0228960
1126.416 .0229068
1127.022 .0229232
1127.628 .0229411
1128.235 .0229598
1128.843 .0229839
1129.451 .0230165
1130.059 .0230582
1130.669 .0231127
1131.278 .0231770
1131.889 .0232543
1132.500 .0233412
1133.112 .0234339
1133.724 .0235262
1134.337 .0236203
1134.950 .0237035
1135.564 .0237785
1136.179 .0238464
1136.795 .0239109
1137.411 .0239746
1138.028 .0240394
1138.645 .0241026
1139.263 .0241639
1139.882 .0242249
1140.502 .0242758
1141.122 .0243159
1141.743 .0243555
1142.365 .0243822
1142.987 .0244751
1143.611 .0243020
1144.235 .0243870
1144.859 .0245716
1145.485 .0244595
