Measurement Sequence started on: 10-20-44-796
Integration time: 35
Scans to Average: 2 
>>>>>Begin Spectral Data<<<<<
432.953 .0425972
433.882 .0384989
434.810 .0330235
435.737 .0330033
436.662 .0328942
437.586 .0339812
438.509 .0335136
439.431 .0332893
440.351 .0332385
441.269 .0331726
442.187 .0331059
443.103 .0330219
444.018 .0329669
444.932 .0329171
445.844 .0328667
446.756 .0328098
447.666 .0327377
448.575 .0326566
449.482 .0325686
450.388 .0324793
451.294 .0324025
452.198 .0323331
453.100 .0322726
454.002 .0322222
454.902 .0321832
455.801 .0321522
456.699 .0321219
457.596 .0321012
458.492 .0320884
459.387 .0320755
460.280 .0320682
461.172 .0320564
462.064 .0320439
462.954 .0320240
463.843 .0319965
464.730 .0319656
465.617 .0319329
466.503 .0319019
467.387 .0318723
468.271 .0318464
469.153 .0318310
470.035 .0318168
470.915 .0318068
471.794 .0317952
472.673 .0317801
473.550 .0317593
474.426 .0317342
475.301 .0317074
476.175 .0316834
477.048 .0316642
477.920 .0316496
478.791 .0316387
479.661 .0316314
480.530 .0316246
481.398 .0316144
482.266 .0316021
483.132 .0315881
483.997 .0315680
484.861 .0315469
485.724 .0315255
486.587 .0315079
487.448 .0314935
488.308 .0314819
489.168 .0314740
490.026 .0314668
490.884 .0314593
491.741 .0314477
492.597 .0314332
493.452 .0314167
494.306 .0313963
495.159 .0313724
496.011 .0313455
496.862 .0313160
497.713 .0312799
498.562 .0312368
499.411 .0311851
500.259 .0311255
501.106 .0310553
501.952 .0309782
502.798 .0308965
503.642 .0308101
504.486 .0307209
505.329 .0306304
506.171 .0305385
507.012 .0304438
507.852 .0303464
508.692 .0302432
509.531 .0301349
510.369 .0300244
511.206 .0299125
512.043 .0298027
512.878 .0296946
513.713 .0295899
514.547 .0294841
515.381 .0293799
516.213 .0292700
517.045 .0291472
517.876 .0290123
518.706 .0288627
519.536 .0286979
520.365 .0285222
521.193 .0283438
522.020 .0281676
522.847 .0279957
523.673 .0278239
524.498 .0276500
525.323 .0274706
526.146 .0272843
526.969 .0270940
527.792 .0269000
528.614 .0267092
529.435 .0265259
530.255 .0263585
531.075 .0262115
531.894 .0260838
532.712 .0259775
533.530 .0258874
534.347 .0258123
535.163 .0257516
535.979 .0257033
536.794 .0256743
537.608 .0256630
538.422 .0256728
539.235 .0256950
540.048 .0257244
540.860 .0257588
541.671 .0257909
542.481 .0258177
543.292 .0258393
544.101 .0258527
544.910 .0258691
545.718 .0258900
546.526 .0259172
547.333 .0259480
548.139 .0259802
548.945 .0260112
549.750 .0260338
550.555 .0260488
551.359 .0260576
552.162 .0260604
552.965 .0260673
553.768 .0260776
554.569 .0260975
555.371 .0261287
556.171 .0261678
556.972 .0262153
557.771 .0262641
558.570 .0263140
559.369 .0263679
560.167 .0264282
560.964 .0264969
561.761 .0265745
562.558 .0266603
563.354 .0267529
564.149 .0268478
564.944 .0269438
565.738 .0270367
566.532 .0271269
567.325 .0272119
568.118 .0272930
568.910 .0273724
569.702 .0274561
570.494 .0275417
571.285 .0276314
572.075 .0277230
572.865 .0278129
573.654 .0278960
574.443 .0279722
575.232 .0280417
576.020 .0281064
576.807 .0281669
577.594 .0282253
578.381 .0282836
579.167 .0283435
579.952 .0284051
580.738 .0284701
581.522 .0285372
582.307 .0286050
583.091 .0286696
583.874 .0287302
584.657 .0287870
585.440 .0288390
586.222 .0288856
587.004 .0289269
587.785 .0289643
588.566 .0289980
589.346 .0290276
590.126 .0290541
590.906 .0290785
591.685 .0291000
592.464 .0291181
593.242 .0291318
594.020 .0291424
594.797 .0291513
595.575 .0291593
596.351 .0291668
597.128 .0291749
597.904 .0291833
598.679 .0291920
599.454 .0291990
600.229 .0292051
601.004 .0292095
601.778 .0292119
602.551 .0292126
603.325 .0292108
604.097 .0292072
604.870 .0292016
605.642 .0291948
606.414 .0291868
607.185 .0291773
607.956 .0291664
608.727 .0291534
609.497 .0291388
610.267 .0291225
611.037 .0291043
611.806 .0290850
612.575 .0290652
613.344 .0290449
614.112 .0290241
614.880 .0290028
615.647 .0289812
616.414 .0289600
617.181 .0289385
617.948 .0289175
618.714 .0288968
619.480 .0288772
620.245 .0288577
621.011 .0288380
621.775 .0288176
622.540 .0287965
623.304 .0287745
624.068 .0287522
624.832 .0287296
625.595 .0287075
626.358 .0286858
627.120 .0286647
627.883 .0286440
628.645 .0286244
629.406 .0286044
630.168 .0285846
630.929 .0285644
631.689 .0285443
632.450 .0285243
633.210 .0285057
633.970 .0284876
634.729 .0284712
635.489 .0284558
636.248 .0284406
637.006 .0284247
637.765 .0284082
638.523 .0283899
639.280 .0283703
640.038 .0283497
640.795 .0283283
641.552 .0283053
642.309 .0282837
643.065 .0282624
643.821 .0282423
644.577 .0282223
645.332 .0282028
646.088 .0281830
646.843 .0281632
647.597 .0281429
648.352 .0281227
649.106 .0281042
649.860 .0280878
650.613 .0280720
651.367 .0280588
652.120 .0280478
652.872 .0280388
653.625 .0280313
654.377 .0280256
655.129 .0280198
655.881 .0280145
656.632 .0280085
657.384 .0280020
658.135 .0279949
658.885 .0279869
659.636 .0279773
660.386 .0279670
661.136 .0279556
661.885 .0279423
662.635 .0279278
663.384 .0279140
664.133 .0278998
664.881 .0278856
665.630 .0278714
666.378 .0278578
667.126 .0278447
667.874 .0278318
668.621 .0278185
669.368 .0278051
670.115 .0277916
670.862 .0277775
671.608 .0277635
672.354 .0277507
673.100 .0277388
673.846 .0277283
674.591 .0277192
675.337 .0277110
676.082 .0277031
676.826 .0276957
677.571 .0276887
678.315 .0276821
679.059 .0276757
679.803 .0276694
680.547 .0276635
681.290 .0276580
682.033 .0276522
682.776 .0276455
683.518 .0276381
684.261 .0276294
685.003 .0276192
685.745 .0276080
686.487 .0275965
687.228 .0275850
687.969 .0275738
688.710 .0275627
689.451 .0275512
690.192 .0275392
690.932 .0275260
691.672 .0275111
692.412 .0274950
693.152 .0274776
693.891 .0274601
694.630 .0274429
695.369 .0274271
696.108 .0274127
696.846 .0273995
697.585 .0273871
698.323 .0273747
699.061 .0273621
699.798 .0273491
700.536 .0273352
701.273 .0273211
702.010 .0273067
702.746 .0272920
703.483 .0272775
704.219 .0272631
704.955 .0272485
705.691 .0272337
706.427 .0272182
707.162 .0272021
707.897 .0271855
708.632 .0271689
709.367 .0271523
710.101 .0271354
710.835 .0271185
711.569 .0271007
712.303 .0270819
713.037 .0270624
713.770 .0270421
714.503 .0270216
715.236 .0270013
715.969 .0269811
716.702 .0269614
717.434 .0269417
718.166 .0269222
718.898 .0269024
719.629 .0268821
720.361 .0268612
721.092 .0268397
721.823 .0268180
722.554 .0267962
723.284 .0267752
724.014 .0267554
724.744 .0267363
725.474 .0267182
726.204 .0267002
726.933 .0266816
727.662 .0266620
728.391 .0266416
729.120 .0266204
729.849 .0265987
730.577 .0265768
731.305 .0265551
732.033 .0265344
732.760 .0265150
733.488 .0264963
734.215 .0264788
734.942 .0264623
735.669 .0264453
736.395 .0264276
737.122 .0264091
737.848 .0263898
738.573 .0263697
739.299 .0263495
740.024 .0263292
740.750 .0263095
741.474 .0262909
742.199 .0262735
742.924 .0262570
743.648 .0262414
744.372 .0262260
745.096 .0262103
745.819 .0261939
746.543 .0261766
747.266 .0261589
747.989 .0261415
748.711 .0261249
749.434 .0261097
750.156 .0260960
750.878 .0260848
751.599 .0260761
752.321 .0260696
753.042 .0260648
753.763 .0260614
754.484 .0260590
755.205 .0260567
755.925 .0260545
756.645 .0260516
757.365 .0260479
758.085 .0260433
758.804 .0260378
759.523 .0260308
760.242 .0260228
760.961 .0260136
761.679 .0260034
762.397 .0259919
763.115 .0259792
763.833 .0259649
764.551 .0259495
765.268 .0259329
765.985 .0259150
766.702 .0258958
767.418 .0258763
768.134 .0258559
768.850 .0258361
769.566 .0258166
770.282 .0257982
770.997 .0257811
771.712 .0257657
772.427 .0257516
773.142 .0257391
773.856 .0257276
774.570 .0257171
775.284 .0257067
775.998 .0256968
776.711 .0256865
777.424 .0256761
778.137 .0256659
778.849 .0256559
779.562 .0256463
780.274 .0256375
780.986 .0256288
781.697 .0256205
782.409 .0256125
783.120 .0256044
783.831 .0255961
784.541 .0255880
785.252 .0255801
785.962 .0255721
786.671 .0255646
787.381 .0255574
788.090 .0255507
788.799 .0255443
789.508 .0255375
790.217 .0255300
790.925 .0255223
791.633 .0255142
792.341 .0255054
793.048 .0254964
793.755 .0254874
794.462 .0254778
795.169 .0254680
795.875 .0254575
796.581 .0254461
797.287 .0254343
797.993 .0254218
798.698 .0254084
799.403 .0253951
800.108 .0253816
800.812 .0253681
801.517 .0253548
802.221 .0253419
802.924 .0253290
803.628 .0253164
804.331 .0253048
805.034 .0252937
805.736 .0252834
806.439 .0252747
807.141 .0252669
807.843 .0252611
808.544 .0252563
809.245 .0252518
809.946 .0252475
810.647 .0252434
811.347 .0252386
812.047 .0252335
812.747 .0252279
813.447 .0252220
814.146 .0252158
814.845 .0252093
815.543 .0252021
816.242 .0251939
816.940 .0251851
817.638 .0251745
818.335 .0251623
819.032 .0251487
819.729 .0251334
820.426 .0251170
821.122 .0250998
821.818 .0250817
822.514 .0250629
823.209 .0250442
823.905 .0250257
824.599 .0250072
825.294 .0249897
825.988 .0249724
826.682 .0249558
827.376 .0249397
828.069 .0249244
828.762 .0249089
829.455 .0248942
830.147 .0248799
830.840 .0248655
831.531 .0248514
832.223 .0248378
832.914 .0248245
833.605 .0248120
834.296 .0247998
834.986 .0247876
835.676 .0247751
836.366 .0247628
837.055 .0247498
837.744 .0247366
838.433 .0247229
839.121 .0247088
839.809 .0246941
840.497 .0246795
841.185 .0246649
841.872 .0246503
842.559 .0246367
843.245 .0246237
843.932 .0246112
844.617 .0245994
845.303 .0245881
845.988 .0245773
846.673 .0245666
847.358 .0245561
848.042 .0245456
848.726 .0245350
849.410 .0245243
850.093 .0245134
850.776 .0245026
851.459 .0244917
852.141 .0244805
852.823 .0244689
853.505 .0244573
854.186 .0244452
854.867 .0244326
855.548 .0244194
856.228 .0244060
856.908 .0243924
857.588 .0243787
858.267 .0243652
858.946 .0243522
859.625 .0243395
860.303 .0243276
860.981 .0243161
861.659 .0243052
862.336 .0242946
863.013 .0242843
863.690 .0242745
864.366 .0242650
865.042 .0242556
865.718 .0242464
866.393 .0242377
867.068 .0242299
867.743 .0242221
868.417 .0242144
869.091 .0242064
869.765 .0241975
870.438 .0241872
871.111 .0241752
871.783 .0241618
872.456 .0241470
873.127 .0241314
873.799 .0241156
874.470 .0241000
875.141 .0240852
875.811 .0240716
876.481 .0240591
877.151 .0240472
877.820 .0240355
878.489 .0240230
879.158 .0240100
879.826 .0239965
880.494 .0239829
881.162 .0239696
881.829 .0239575
882.496 .0239468
883.163 .0239367
883.829 .0239280
884.495 .0239201
885.160 .0239128
885.825 .0239057
886.490 .0238984
887.154 .0238910
887.818 .0238836
888.482 .0238764
889.145 .0238694
889.808 .0238632
890.471 .0238576
891.133 .0238518
891.795 .0238460
892.456 .0238401
893.117 .0238337
893.778 .0238270
894.439 .0238204
895.099 .0238135
895.758 .0238069
896.417 .0237999
897.076 .0237928
897.735 .0237855
898.393 .0237778
899.051 .0237696
899.708 .0237608
900.365 .0237519
901.022 .0237430
901.678 .0237342
902.334 .0237266
902.990 .0237197
903.645 .0237132
904.300 .0237071
904.954 .0237010
905.608 .0236945
906.262 .0236878
906.915 .0236808
907.568 .0236743
908.221 .0236683
908.873 .0236630
909.525 .0236584
910.176 .0236545
910.828 .0236510
911.478 .0236468
912.129 .0236419
912.778 .0236360
913.428 .0236284
914.077 .0236201
914.726 .0236109
915.375 .0236022
916.023 .0235945
916.670 .0235880
917.318 .0235828
917.964 .0235787
918.611 .0235750
919.257 .0235714
919.903 .0235673
920.548 .0235629
921.193 .0235576
921.838 .0235528
922.482 .0235483
923.126 .0235446
923.770 .0235423
924.413 .0235414
925.056 .0235416
925.698 .0235428
926.340 .0235439
926.982 .0235452
927.623 .0235463
928.264 .0235474
928.904 .0235477
929.544 .0235476
930.184 .0235470
930.823 .0235454
931.462 .0235427
932.101 .0235386
932.739 .0235326
933.377 .0235252
934.014 .0235161
934.651 .0235053
935.288 .0234932
935.924 .0234806
936.560 .0234677
937.196 .0234546
937.831 .0234413
938.466 .0234282
939.100 .0234148
939.734 .0234017
940.368 .0233883
941.001 .0233748
941.634 .0233619
942.266 .0233498
942.899 .0233383
943.530 .0233273
944.162 .0233165
944.793 .0233054
945.423 .0232936
946.053 .0232805
946.683 .0232658
947.313 .0232502
947.942 .0232337
948.571 .0232166
949.199 .0231990
949.827 .0231811
950.455 .0231629
951.082 .0231447
951.709 .0231264
952.335 .0231075
952.961 .0230888
953.587 .0230704
954.212 .0230525
954.837 .0230361
955.462 .0230211
956.086 .0230084
956.710 .0229976
957.334 .0229881
957.957 .0229794
958.579 .0229709
959.202 .0229619
959.824 .0229523
960.445 .0229421
961.067 .0229318
961.688 .0229216
962.308 .0229114
962.928 .0229019
963.548 .0228928
964.168 .0228840
964.787 .0228748
965.406 .0228653
966.024 .0228558
966.642 .0228457
967.260 .0228359
967.877 .0228270
968.494 .0228189
969.110 .0228119
969.727 .0228052
970.342 .0227992
970.958 .0227934
971.573 .0227875
972.188 .0227812
972.802 .0227752
973.416 .0227697
974.030 .0227643
974.643 .0227589
975.256 .0227543
975.869 .0227498
976.481 .0227451
977.093 .0227400
977.705 .0227350
978.316 .0227298
978.927 .0227246
979.538 .0227192
980.148 .0227145
980.758 .0227100
981.367 .0227059
981.977 .0227020
982.586 .0226985
983.194 .0226950
983.802 .0226908
984.410 .0226862
985.018 .0226813
985.625 .0226758
986.232 .0226698
986.838 .0226636
987.445 .0226581
988.050 .0226527
988.656 .0226473
989.261 .0226420
989.866 .0226371
990.471 .0226318
991.075 .0226261
991.679 .0226199
992.282 .0226131
992.886 .0226059
993.489 .0225988
994.091 .0225919
994.694 .0225855
995.296 .0225800
995.897 .0225745
996.499 .0225688
997.100 .0225625
997.701 .0225545
998.301 .0225457
998.901 .0225364
999.501 .0225270
1000.101 .0225176
1000.700 .0225098
1001.299 .0225037
1001.898 .0224993
1002.496 .0224966
1003.094 .0224949
1003.692 .0224938
1004.289 .0224928
1004.887 .0224911
1005.484 .0224890
1006.080 .0224875
1006.677 .0224866
1007.273 .0224866
1007.868 .0224877
1008.464 .0224893
1009.059 .0224910
1009.654 .0224920
1010.249 .0224921
1010.843 .0224906
1011.437 .0224881
1012.031 .0224843
1012.625 .0224799
1013.218 .0224757
1013.811 .0224718
1014.404 .0224687
1014.997 .0224674
1015.589 .0224668
1016.181 .0224673
1016.773 .0224685
1017.365 .0224706
1017.956 .0224728
1018.547 .0224758
1019.138 .0224787
1019.728 .0224823
1020.319 .0224855
1020.909 .0224882
1021.499 .0224900
1022.088 .0224910
1022.678 .0224901
1023.267 .0224880
1023.856 .0224839
1024.445 .0224783
1025.033 .0224714
1025.621 .0224637
1026.209 .0224550
1026.797 .0224463
1027.385 .0224372
1027.972 .0224284
1028.560 .0224205
1029.147 .0224134
1029.734 .0224074
1030.320 .0224034
1030.907 .0224010
1031.493 .0223999
1032.079 .0223999
1032.665 .0224009
1033.250 .0224015
1033.836 .0224020
1034.421 .0224014
1035.006 .0223989
1035.591 .0223953
1036.176 .0223900
1036.761 .0223827
1037.345 .0223743
1037.929 .0223648
1038.514 .0223536
1039.097 .0223418
1039.681 .0223297
1040.265 .0223161
1040.848 .0223023
1041.432 .0222885
1042.015 .0222752
1042.598 .0222627
1043.181 .0222520
1043.764 .0222430
1044.346 .0222369
1044.929 .0222341
1045.511 .0222335
1046.094 .0222352
1046.676 .0222398
1047.258 .0222455
1047.840 .0222522
1048.422 .0222593
1049.003 .0222666
1049.585 .0222726
1050.166 .0222786
1050.748 .0222834
1051.329 .0222864
1051.910 .0222881
1052.491 .0222889
1053.072 .0222882
1053.653 .0222866
1054.234 .0222833
1054.815 .0222786
1055.396 .0222734
1055.976 .0222677
1056.557 .0222600
1057.138 .0222533
1057.718 .0222474
1058.298 .0222424
1058.879 .0222376
1059.459 .0222348
1060.039 .0222333
1060.620 .0222326
1061.200 .0222319
1061.780 .0222305
1062.360 .0222278
1062.940 .0222244
1063.520 .0222186
1064.101 .0222119
1064.681 .0222045
1065.261 .0221966
1065.841 .0221873
1066.421 .0221792
1067.001 .0221699
1067.581 .0221596
1068.161 .0221481
1068.741 .0221368
1069.321 .0221240
1069.901 .0221110
1070.482 .0220976
1071.062 .0220841
1071.642 .0220713
1072.222 .0220599
1072.803 .0220483
1073.383 .0220399
1073.963 .0220332
1074.544 .0220284
1075.124 .0220251
1075.705 .0220245
1076.286 .0220254
1076.866 .0220280
1077.447 .0220321
1078.028 .0220380
1078.609 .0220444
1079.190 .0220525
1079.771 .0220594
1080.352 .0220657
1080.934 .0220720
1081.515 .0220770
1082.097 .0220806
1082.679 .0220850
1083.260 .0220903
1083.842 .0220978
1084.424 .0221067
1085.007 .0221173
1085.589 .0221283
1086.172 .0221388
1086.754 .0221461
1087.337 .0221490
1087.920 .0221477
1088.503 .0221422
1089.087 .0221326
1089.670 .0221214
1090.254 .0221096
1090.838 .0220992
1091.422 .0220916
1092.006 .0220855
1092.590 .0220803
1093.175 .0220771
1093.760 .0220722
1094.345 .0220646
1094.930 .0220536
1095.516 .0220404
1096.102 .0220247
1096.688 .0220107
1097.274 .0219985
1097.860 .0219888
1098.447 .0219839
1099.034 .0219830
1099.622 .0219832
1100.209 .0219864
1100.797 .0219909
1101.385 .0219929
1101.973 .0219942
1102.562 .0219958
1103.151 .0219936
1103.740 .0219917
1104.330 .0219910
1104.920 .0219899
1105.510 .0219893
1106.101 .0219899
1106.691 .0219887
1107.283 .0219873
1107.874 .0219856
1108.466 .0219799
1109.058 .0219727
1109.651 .0219661
1110.244 .0219582
1110.837 .0219510
1111.431 .0219480
1112.025 .0219477
1112.620 .0219509
1113.215 .0219580
1113.810 .0219687
1114.406 .0219831
1115.002 .0220001
1115.599 .0220164
1116.196 .0220307
1116.793 .0220432
1117.391 .0220519
1117.989 .0220543
1118.588 .0220528
1119.187 .0220454
1119.787 .0220339
1120.387 .0220179
1120.988 .0219990
1121.589 .0219805
1122.190 .0219631
1122.793 .0219472
1123.395 .0219337
1123.998 .0219213
1124.602 .0219131
1125.206 .0219084
1125.811 .0219084
1126.416 .0219136
1127.022 .0219230
1127.628 .0219346
1128.235 .0219495
1128.843 .0219714
1129.451 .0219993
1130.059 .0220315
1130.669 .0220686
1131.278 .0221079
1131.889 .0221440
1132.500 .0221754
1133.112 .0221989
1133.724 .0222129
1134.337 .0222166
1134.950 .0222076
1135.564 .0221896
1136.179 .0221679
1136.795 .0221489
1137.411 .0221387
1138.028 .0221403
1138.645 .0221540
1139.263 .0221781
1139.882 .0222110
1140.502 .0222581
1141.122 .0223175
1141.743 .0223992
1142.365 .0225223
1142.987 .0224028
1143.611 .0226719
1144.235 .0228085
1144.859 .0232345
1145.485 .0240049
