Measurement Sequence started on: 10-20-44-796
Integration time: 35
Scans to Average: 2 
>>>>>Begin Spectral Data<<<<<
432.953 .0499418
433.882 .0423315
434.810 .0376593
435.737 .0360294
436.662 .0359336
437.586 .0379387
438.509 .0374593
439.431 .0373563
440.351 .0374134
441.269 .0374777
442.187 .0375146
443.103 .0375139
444.018 .0375056
444.932 .0375204
445.844 .0375174
446.756 .0375094
447.666 .0374725
448.575 .0373940
449.482 .0372903
450.388 .0371648
451.294 .0370492
452.198 .0369566
453.100 .0369025
454.002 .0368876
454.902 .0369107
455.801 .0369644
456.699 .0370355
457.596 .0371177
458.492 .0371986
459.387 .0372648
460.280 .0373207
461.172 .0373628
462.064 .0373859
462.954 .0373955
463.843 .0373928
464.730 .0373865
465.617 .0373833
466.503 .0373723
467.387 .0373681
468.271 .0373637
469.153 .0373575
470.035 .0373399
470.915 .0373161
471.794 .0372810
472.673 .0372340
473.550 .0371841
474.426 .0371310
475.301 .0370811
476.175 .0370408
477.048 .0370065
477.920 .0369781
478.791 .0369508
479.661 .0369194
480.530 .0368741
481.398 .0368158
482.266 .0367407
483.132 .0366521
483.997 .0365604
484.861 .0364749
485.724 .0363985
486.587 .0363359
487.448 .0362878
488.308 .0362470
489.168 .0362126
490.026 .0361821
490.884 .0361521
491.741 .0361204
492.597 .0360904
493.452 .0360659
494.306 .0360444
495.159 .0360328
496.011 .0360327
496.862 .0360345
497.713 .0360327
498.562 .0360178
499.411 .0359849
500.259 .0359317
501.106 .0358578
501.952 .0357642
502.798 .0356537
503.642 .0355306
504.486 .0353923
505.329 .0352478
506.171 .0351071
507.012 .0349685
507.852 .0348302
508.692 .0346963
509.531 .0345641
510.369 .0344292
511.206 .0342950
512.043 .0341606
512.878 .0340318
513.713 .0339073
514.547 .0337921
515.381 .0336916
516.213 .0336097
517.045 .0335462
517.876 .0335004
518.706 .0334691
519.536 .0334415
520.365 .0333992
521.193 .0333425
522.020 .0332701
522.847 .0331767
523.673 .0330579
524.498 .0329300
525.323 .0327968
526.146 .0326752
526.969 .0325542
527.792 .0324390
528.614 .0323231
529.435 .0322103
530.255 .0320846
531.075 .0319442
531.894 .0317936
532.712 .0316327
533.530 .0314582
534.347 .0312883
535.163 .0311177
535.979 .0309616
536.794 .0308215
537.608 .0307065
538.422 .0306041
539.235 .0305243
540.048 .0304593
540.860 .0304127
541.671 .0303807
542.481 .0303523
543.292 .0303122
544.101 .0302733
544.910 .0302353
545.718 .0302017
546.526 .0301769
547.333 .0301694
548.139 .0301775
548.945 .0302030
549.750 .0302378
550.555 .0302864
551.359 .0303442
552.162 .0304135
552.965 .0304808
553.768 .0305458
554.569 .0306055
555.371 .0306581
556.171 .0307022
556.972 .0307376
557.771 .0307596
558.570 .0307759
559.369 .0307807
560.167 .0307900
560.964 .0308001
561.761 .0308200
562.558 .0308499
563.354 .0308901
564.149 .0309343
564.944 .0309871
565.738 .0310412
566.532 .0311013
567.325 .0311688
568.118 .0312437
568.910 .0313234
569.702 .0314128
570.494 .0315077
571.285 .0316062
572.075 .0317034
572.865 .0318023
573.654 .0318922
574.443 .0319798
575.232 .0320578
576.020 .0321269
576.807 .0321952
577.594 .0322632
578.381 .0323259
579.167 .0323859
579.952 .0324442
580.738 .0324958
581.522 .0325409
582.307 .0325816
583.091 .0326151
583.874 .0326468
584.657 .0326779
585.440 .0327062
586.222 .0327323
587.004 .0327599
587.785 .0327850
588.566 .0328058
589.346 .0328217
590.126 .0328278
590.906 .0328252
591.685 .0328182
592.464 .0328046
593.242 .0327863
594.020 .0327696
594.797 .0327558
595.575 .0327446
596.351 .0327373
597.128 .0327341
597.904 .0327327
598.679 .0327333
599.454 .0327336
600.229 .0327320
601.004 .0327300
601.778 .0327257
602.551 .0327207
603.325 .0327163
604.097 .0327121
604.870 .0327079
605.642 .0327050
606.414 .0327029
607.185 .0326995
607.956 .0326956
608.727 .0326902
609.497 .0326834
610.267 .0326738
611.037 .0326609
611.806 .0326449
612.575 .0326256
613.344 .0326034
614.112 .0325781
614.880 .0325520
615.647 .0325255
616.414 .0324990
617.181 .0324741
617.948 .0324513
618.714 .0324304
619.480 .0324090
620.245 .0323869
621.011 .0323621
621.775 .0323336
622.540 .0323012
623.304 .0322659
624.068 .0322293
624.832 .0321934
625.595 .0321609
626.358 .0321311
627.120 .0321058
627.883 .0320853
628.645 .0320675
629.406 .0320517
630.168 .0320365
630.929 .0320200
631.689 .0320008
632.450 .0319799
633.210 .0319579
633.970 .0319357
634.729 .0319151
635.489 .0318959
636.248 .0318785
637.006 .0318634
637.765 .0318487
638.523 .0318333
639.280 .0318177
640.038 .0318013
640.795 .0317836
641.552 .0317645
642.309 .0317452
643.065 .0317264
643.821 .0317081
644.577 .0316904
645.332 .0316727
646.088 .0316544
646.843 .0316344
647.597 .0316131
648.352 .0315908
649.106 .0315685
649.860 .0315458
650.613 .0315235
651.367 .0315027
652.120 .0314830
652.872 .0314629
653.625 .0314423
654.377 .0314215
655.129 .0313995
655.881 .0313753
656.632 .0313507
657.384 .0313271
658.135 .0313066
658.885 .0312890
659.636 .0312751
660.386 .0312642
661.136 .0312562
661.885 .0312493
662.635 .0312423
663.384 .0312352
664.133 .0312268
664.881 .0312167
665.630 .0312051
666.378 .0311931
667.126 .0311806
667.874 .0311674
668.621 .0311544
669.368 .0311407
670.115 .0311261
670.862 .0311105
671.608 .0310944
672.354 .0310784
673.100 .0310628
673.846 .0310477
674.591 .0310325
675.337 .0310180
676.082 .0310044
676.826 .0309907
677.571 .0309783
678.315 .0309675
679.059 .0309575
679.803 .0309484
680.547 .0309398
681.290 .0309318
682.033 .0309230
682.776 .0309130
683.518 .0309007
684.261 .0308852
685.003 .0308672
685.745 .0308456
686.487 .0308214
687.228 .0307960
687.969 .0307698
688.710 .0307423
689.451 .0307142
690.192 .0306862
690.932 .0306569
691.672 .0306278
692.412 .0305993
693.152 .0305710
693.891 .0305433
694.630 .0305166
695.369 .0304912
696.108 .0304671
696.846 .0304448
697.585 .0304238
698.323 .0304049
699.061 .0303879
699.798 .0303722
700.536 .0303577
701.273 .0303447
702.010 .0303321
702.746 .0303187
703.483 .0303052
704.219 .0302901
704.955 .0302737
705.691 .0302563
706.427 .0302384
707.162 .0302206
707.897 .0302029
708.632 .0301849
709.367 .0301674
710.101 .0301493
710.835 .0301300
711.569 .0301089
712.303 .0300873
713.037 .0300649
713.770 .0300422
714.503 .0300204
715.236 .0300002
715.969 .0299807
716.702 .0299621
717.434 .0299433
718.166 .0299236
718.898 .0299023
719.629 .0298789
720.361 .0298537
721.092 .0298284
721.823 .0298030
722.554 .0297788
723.284 .0297572
724.014 .0297377
724.744 .0297195
725.474 .0297015
726.204 .0296834
726.933 .0296643
727.662 .0296428
728.391 .0296193
729.120 .0295940
729.849 .0295682
730.577 .0295424
731.305 .0295172
732.033 .0294943
732.760 .0294729
733.488 .0294533
734.215 .0294350
734.942 .0294169
735.669 .0293988
736.395 .0293804
737.122 .0293611
737.848 .0293413
738.573 .0293209
739.299 .0293005
740.024 .0292807
740.750 .0292629
741.474 .0292463
742.199 .0292315
742.924 .0292181
743.648 .0292057
744.372 .0291928
745.096 .0291801
745.819 .0291664
746.543 .0291515
747.266 .0291357
747.989 .0291194
748.711 .0291031
749.434 .0290880
750.156 .0290741
750.878 .0290625
751.599 .0290524
752.321 .0290440
753.042 .0290365
753.763 .0290302
754.484 .0290244
755.205 .0290184
755.925 .0290122
756.645 .0290060
757.365 .0289995
758.085 .0289925
758.804 .0289854
759.523 .0289778
760.242 .0289689
760.961 .0289582
761.679 .0289458
762.397 .0289312
763.115 .0289141
763.833 .0288949
764.551 .0288747
765.268 .0288533
765.985 .0288313
766.702 .0288091
767.418 .0287872
768.134 .0287661
768.850 .0287453
769.566 .0287245
770.282 .0287041
770.997 .0286842
771.712 .0286651
772.427 .0286465
773.142 .0286291
773.856 .0286129
774.570 .0285976
775.284 .0285832
775.998 .0285698
776.711 .0285568
777.424 .0285441
778.137 .0285318
778.849 .0285190
779.562 .0285061
780.274 .0284932
780.986 .0284811
781.697 .0284698
782.409 .0284596
783.120 .0284503
783.831 .0284420
784.541 .0284355
785.252 .0284301
785.962 .0284251
786.671 .0284214
787.381 .0284182
788.090 .0284154
788.799 .0284122
789.508 .0284089
790.217 .0284050
790.925 .0284010
791.633 .0283964
792.341 .0283911
793.048 .0283851
793.755 .0283785
794.462 .0283708
795.169 .0283620
795.875 .0283519
796.581 .0283406
797.287 .0283282
797.993 .0283155
798.698 .0283027
799.403 .0282906
800.108 .0282792
800.812 .0282691
801.517 .0282602
802.221 .0282519
802.924 .0282439
803.628 .0282367
804.331 .0282297
805.034 .0282228
805.736 .0282160
806.439 .0282097
807.141 .0282037
807.843 .0281987
808.544 .0281940
809.245 .0281893
809.946 .0281839
810.647 .0281782
811.347 .0281709
812.047 .0281624
812.747 .0281529
813.447 .0281423
814.146 .0281306
814.845 .0281186
815.543 .0281063
816.242 .0280938
816.940 .0280812
817.638 .0280691
818.335 .0280560
819.032 .0280426
819.729 .0280279
820.426 .0280119
821.122 .0279950
821.818 .0279772
822.514 .0279579
823.209 .0279391
823.905 .0279206
824.599 .0279029
825.294 .0278857
825.988 .0278700
826.682 .0278554
827.376 .0278411
828.069 .0278272
828.762 .0278128
829.455 .0277979
830.147 .0277828
830.840 .0277673
831.531 .0277526
832.223 .0277386
832.914 .0277259
833.605 .0277141
834.296 .0277032
834.986 .0276926
835.676 .0276820
836.366 .0276708
837.055 .0276595
837.744 .0276468
838.433 .0276322
839.121 .0276162
839.809 .0275993
840.497 .0275822
841.185 .0275648
841.872 .0275481
842.559 .0275328
843.245 .0275186
843.932 .0275060
844.617 .0274947
845.303 .0274850
845.988 .0274764
846.673 .0274684
847.358 .0274604
848.042 .0274522
848.726 .0274442
849.410 .0274364
850.093 .0274293
850.776 .0274235
851.459 .0274177
852.141 .0274117
852.823 .0274062
853.505 .0273998
854.186 .0273922
854.867 .0273835
855.548 .0273731
856.228 .0273612
856.908 .0273479
857.588 .0273343
858.267 .0273202
858.946 .0273071
859.625 .0272946
860.303 .0272827
860.981 .0272718
861.659 .0272614
862.336 .0272513
863.013 .0272418
863.690 .0272325
864.366 .0272223
865.042 .0272121
865.718 .0272019
866.393 .0271908
867.068 .0271796
867.743 .0271678
868.417 .0271555
869.091 .0271423
869.765 .0271280
870.438 .0271119
871.111 .0270946
871.783 .0270761
872.456 .0270561
873.127 .0270356
873.799 .0270155
874.470 .0269961
875.141 .0269788
875.811 .0269635
876.481 .0269501
877.151 .0269386
877.820 .0269290
878.489 .0269200
879.158 .0269114
879.826 .0269034
880.494 .0268957
881.162 .0268885
881.829 .0268823
882.496 .0268761
883.163 .0268709
883.829 .0268666
884.495 .0268624
885.160 .0268580
885.825 .0268536
886.490 .0268486
887.154 .0268426
887.818 .0268362
888.482 .0268292
889.145 .0268213
889.808 .0268133
890.471 .0268050
891.133 .0267963
891.795 .0267880
892.456 .0267798
893.117 .0267712
893.778 .0267634
894.439 .0267554
895.099 .0267472
895.758 .0267388
896.417 .0267304
897.076 .0267220
897.735 .0267136
898.393 .0267053
899.051 .0266969
899.708 .0266884
900.365 .0266802
901.022 .0266715
901.678 .0266631
902.334 .0266540
902.990 .0266443
903.645 .0266346
904.300 .0266249
904.954 .0266143
905.608 .0266038
906.262 .0265938
906.915 .0265842
907.568 .0265748
908.221 .0265656
908.873 .0265571
909.525 .0265495
910.176 .0265423
910.828 .0265355
911.478 .0265292
912.129 .0265232
912.778 .0265172
913.428 .0265113
914.077 .0265053
914.726 .0264984
915.375 .0264907
916.023 .0264829
916.670 .0264745
917.318 .0264658
917.964 .0264570
918.611 .0264481
919.257 .0264392
919.903 .0264292
920.548 .0264180
921.193 .0264066
921.838 .0263950
922.482 .0263832
923.126 .0263723
923.770 .0263624
924.413 .0263533
925.056 .0263448
925.698 .0263371
926.340 .0263291
926.982 .0263201
927.623 .0263100
928.264 .0262983
928.904 .0262850
929.544 .0262702
930.184 .0262542
930.823 .0262384
931.462 .0262228
932.101 .0262072
932.739 .0261915
933.377 .0261755
934.014 .0261578
934.651 .0261391
935.288 .0261195
935.924 .0260994
936.560 .0260788
937.196 .0260594
937.831 .0260417
938.466 .0260263
939.100 .0260134
939.734 .0260023
940.368 .0259926
941.001 .0259836
941.634 .0259734
942.266 .0259624
942.899 .0259502
943.530 .0259376
944.162 .0259244
944.793 .0259115
945.423 .0258992
946.053 .0258869
946.683 .0258751
947.313 .0258633
947.942 .0258508
948.571 .0258377
949.199 .0258230
949.827 .0258072
950.455 .0257902
951.082 .0257731
951.709 .0257560
952.335 .0257393
952.961 .0257237
953.587 .0257088
954.212 .0256942
954.837 .0256799
955.462 .0256653
956.086 .0256504
956.710 .0256355
957.334 .0256200
957.957 .0256043
958.579 .0255891
959.202 .0255740
959.824 .0255596
960.445 .0255455
961.067 .0255321
961.688 .0255183
962.308 .0255045
962.928 .0254903
963.548 .0254747
964.168 .0254582
964.787 .0254413
965.406 .0254242
966.024 .0254082
966.642 .0253931
967.260 .0253796
967.877 .0253672
968.494 .0253560
969.110 .0253448
969.727 .0253326
970.342 .0253197
970.958 .0253051
971.573 .0252889
972.188 .0252728
972.802 .0252565
973.416 .0252411
974.030 .0252282
974.643 .0252182
975.256 .0252103
975.869 .0252040
976.481 .0251991
977.093 .0251949
977.705 .0251910
978.316 .0251869
978.927 .0251827
979.538 .0251791
980.148 .0251762
980.758 .0251727
981.367 .0251705
981.977 .0251698
982.586 .0251699
983.194 .0251712
983.802 .0251740
984.410 .0251776
985.018 .0251815
985.625 .0251859
986.232 .0251905
986.838 .0251945
987.445 .0251975
988.050 .0251984
988.656 .0251986
989.261 .0251971
989.866 .0251928
990.471 .0251861
991.075 .0251787
991.679 .0251702
992.282 .0251609
992.886 .0251510
993.489 .0251407
994.091 .0251301
994.694 .0251181
995.296 .0251041
995.897 .0250885
996.499 .0250717
997.100 .0250537
997.701 .0250360
998.301 .0250198
998.901 .0250059
999.501 .0249969
1000.101 .0249934
1000.700 .0249954
1001.299 .0250011
1001.898 .0250091
1002.496 .0250190
1003.094 .0250298
1003.692 .0250402
1004.289 .0250490
1004.887 .0250575
1005.484 .0250657
1006.080 .0250725
1006.677 .0250785
1007.273 .0250835
1007.868 .0250875
1008.464 .0250898
1009.059 .0250891
1009.654 .0250840
1010.249 .0250763
1010.843 .0250669
1011.437 .0250568
1012.031 .0250472
1012.625 .0250393
1013.218 .0250324
1013.811 .0250273
1014.404 .0250237
1014.997 .0250204
1015.589 .0250165
1016.181 .0250126
1016.773 .0250071
1017.365 .0250007
1017.956 .0249937
1018.547 .0249872
1019.138 .0249825
1019.728 .0249802
1020.319 .0249795
1020.909 .0249803
1021.499 .0249826
1022.088 .0249853
1022.678 .0249870
1023.267 .0249882
1023.856 .0249880
1024.445 .0249863
1025.033 .0249833
1025.621 .0249799
1026.209 .0249767
1026.797 .0249740
1027.385 .0249718
1027.972 .0249699
1028.560 .0249696
1029.147 .0249695
1029.734 .0249699
1030.320 .0249710
1030.907 .0249716
1031.493 .0249708
1032.079 .0249677
1032.665 .0249616
1033.250 .0249526
1033.836 .0249413
1034.421 .0249287
1035.006 .0249166
1035.591 .0249068
1036.176 .0248992
1036.761 .0248953
1037.345 .0248959
1037.929 .0248991
1038.514 .0249028
1039.097 .0249066
1039.681 .0249099
1040.265 .0249112
1040.848 .0249111
1041.432 .0249108
1042.015 .0249107
1042.598 .0249126
1043.181 .0249173
1043.764 .0249247
1044.346 .0249357
1044.929 .0249494
1045.511 .0249645
1046.094 .0249802
1046.676 .0249960
1047.258 .0250094
1047.840 .0250207
1048.422 .0250302
1049.003 .0250379
1049.585 .0250439
1050.166 .0250497
1050.748 .0250553
1051.329 .0250614
1051.910 .0250684
1052.491 .0250745
1053.072 .0250782
1053.653 .0250795
1054.234 .0250769
1054.815 .0250698
1055.396 .0250586
1055.976 .0250439
1056.557 .0250278
1057.138 .0250133
1057.718 .0249999
1058.298 .0249891
1058.879 .0249803
1059.459 .0249711
1060.039 .0249611
1060.620 .0249486
1061.200 .0249339
1061.780 .0249173
1062.360 .0249009
1062.940 .0248861
1063.520 .0248739
1064.101 .0248662
1064.681 .0248611
1065.261 .0248582
1065.841 .0248566
1066.421 .0248523
1067.001 .0248445
1067.581 .0248345
1068.161 .0248223
1068.741 .0248104
1069.321 .0248007
1069.901 .0247943
1070.482 .0247925
1071.062 .0247940
1071.642 .0247974
1072.222 .0248010
1072.803 .0248039
1073.383 .0248047
1073.963 .0248019
1074.544 .0247976
1075.124 .0247915
1075.705 .0247847
1076.286 .0247804
1076.866 .0247779
1077.447 .0247781
1078.028 .0247805
1078.609 .0247822
1079.190 .0247822
1079.771 .0247823
1080.352 .0247796
1080.934 .0247745
1081.515 .0247687
1082.097 .0247631
1082.679 .0247574
1083.260 .0247546
1083.842 .0247559
1084.424 .0247608
1085.007 .0247699
1085.589 .0247819
1086.172 .0247928
1086.754 .0248039
1087.337 .0248122
1087.920 .0248156
1088.503 .0248155
1089.087 .0248105
1089.670 .0247994
1090.254 .0247845
1090.838 .0247698
1091.422 .0247571
1092.006 .0247462
1092.590 .0247402
1093.175 .0247372
1093.760 .0247349
1094.345 .0247328
1094.930 .0247286
1095.516 .0247236
1096.102 .0247165
1096.688 .0247067
1097.274 .0246954
1097.860 .0246838
1098.447 .0246730
1099.034 .0246623
1099.622 .0246499
1100.209 .0246366
1100.797 .0246168
1101.385 .0245859
1101.973 .0245461
1102.562 .0244986
1103.151 .0244462
1103.740 .0243914
1104.330 .0243385
1104.920 .0242906
1105.510 .0242508
1106.101 .0242207
1106.691 .0241985
1107.283 .0241857
1107.874 .0241799
1108.466 .0241792
1109.058 .0241847
1109.651 .0241989
1110.244 .0242208
1110.837 .0242519
1111.431 .0242967
1112.025 .0243517
1112.620 .0244121
1113.215 .0244711
1113.810 .0245298
1114.406 .0245864
1115.002 .0246331
1115.599 .0246701
1116.196 .0246990
1116.793 .0247212
1117.391 .0247362
1117.989 .0247458
1118.588 .0247516
1119.187 .0247571
1119.787 .0247597
1120.387 .0247592
1120.988 .0247599
1121.589 .0247622
1122.190 .0247646
1122.793 .0247717
1123.395 .0247896
1123.998 .0248099
1124.602 .0248295
1125.206 .0248551
1125.811 .0248805
1126.416 .0249030
1127.022 .0249216
1127.628 .0249382
1128.235 .0249582
1128.843 .0249854
1129.451 .0250164
1130.059 .0250543
1130.669 .0251026
1131.278 .0251544
1131.889 .0252036
1132.500 .0252542
1133.112 .0253020
1133.724 .0253437
1134.337 .0253882
1134.950 .0254359
1135.564 .0254864
1136.179 .0255432
1136.795 .0256074
1137.411 .0256779
1138.028 .0257489
1138.645 .0258132
1139.263 .0258740
1139.882 .0259309
1140.502 .0259861
1141.122 .0260323
1141.743 .0260744
1142.365 .0261179
1142.987 .0261768
1143.611 .0263089
1144.235 .0262293
1144.859 .0261769
1145.485 .0263271
