Measurement Sequence started on: 10-20-44-796
Integration time: 35
Scans to Average: 2 
>>>>>Begin Spectral Data<<<<<
432.953 .0371207
433.882 .0332069
434.810 .0343264
435.737 .0331880
436.662 .0328913
437.586 .0328064
438.509 .0324603
439.431 .0322746
440.351 .0321073
441.269 .0320150
442.187 .0319527
443.103 .0319109
444.018 .0318805
444.932 .0318557
445.844 .0318298
446.756 .0317950
447.666 .0317691
448.575 .0317555
449.482 .0317672
450.388 .0317971
451.294 .0318436
452.198 .0319041
453.100 .0319656
454.002 .0320344
454.902 .0320983
455.801 .0321554
456.699 .0322128
457.596 .0322671
458.492 .0323192
459.387 .0323654
460.280 .0324085
461.172 .0324472
462.064 .0324789
462.954 .0324974
463.843 .0325040
464.730 .0324960
465.617 .0324747
466.503 .0324401
467.387 .0323938
468.271 .0323442
469.153 .0322899
470.035 .0322358
470.915 .0321864
471.794 .0321391
472.673 .0320960
473.550 .0320549
474.426 .0320214
475.301 .0319929
476.175 .0319685
477.048 .0319509
477.920 .0319395
478.791 .0319352
479.661 .0319376
480.530 .0319452
481.398 .0319602
482.266 .0319805
483.132 .0319991
483.997 .0320143
484.861 .0320239
485.724 .0320268
486.587 .0320265
487.448 .0320208
488.308 .0320131
489.168 .0320014
490.026 .0319873
490.884 .0319692
491.741 .0319453
492.597 .0319151
493.452 .0318773
494.306 .0318328
495.159 .0317837
496.011 .0317291
496.862 .0316741
497.713 .0316227
498.562 .0315738
499.411 .0315267
500.259 .0314809
501.106 .0314347
501.952 .0313892
502.798 .0313424
503.642 .0312939
504.486 .0312421
505.329 .0311863
506.171 .0311264
507.012 .0310612
507.852 .0309938
508.692 .0309225
509.531 .0308470
510.369 .0307668
511.206 .0306808
512.043 .0305837
512.878 .0304803
513.713 .0303697
514.547 .0302500
515.381 .0301195
516.213 .0299776
517.045 .0298226
517.876 .0296629
518.706 .0294931
519.536 .0293201
520.365 .0291471
521.193 .0289790
522.020 .0288126
522.847 .0286461
523.673 .0284790
524.498 .0283088
525.323 .0281244
526.146 .0279319
526.969 .0277278
527.792 .0275231
528.614 .0273193
529.435 .0271236
530.255 .0269466
531.075 .0267845
531.894 .0266338
532.712 .0264989
533.530 .0263676
534.347 .0262448
535.163 .0261201
535.979 .0259927
536.794 .0258711
537.608 .0257594
538.422 .0256622
539.235 .0255889
540.048 .0255430
540.860 .0255251
541.671 .0255229
542.481 .0255370
543.292 .0255572
544.101 .0255765
544.910 .0255967
545.718 .0256110
546.526 .0256260
547.333 .0256491
548.139 .0256784
548.945 .0257241
549.750 .0257863
550.555 .0258609
551.359 .0259419
552.162 .0260216
552.965 .0260988
553.768 .0261708
554.569 .0262371
555.371 .0262997
556.171 .0263615
556.972 .0264248
557.771 .0264905
558.570 .0265565
559.369 .0266244
560.167 .0266927
560.964 .0267624
561.761 .0268321
562.558 .0269001
563.354 .0269720
564.149 .0270448
564.944 .0271244
565.738 .0272132
566.532 .0273095
567.325 .0274116
568.118 .0275191
568.910 .0276291
569.702 .0277381
570.494 .0278468
571.285 .0279524
572.075 .0280570
572.865 .0281589
573.654 .0282552
574.443 .0283457
575.232 .0284308
576.020 .0285114
576.807 .0285852
577.594 .0286556
578.381 .0287202
579.167 .0287810
579.952 .0288399
580.738 .0288978
581.522 .0289570
582.307 .0290154
583.091 .0290748
583.874 .0291333
584.657 .0291907
585.440 .0292445
586.222 .0292960
587.004 .0293456
587.785 .0293921
588.566 .0294367
589.346 .0294778
590.126 .0295159
590.906 .0295502
591.685 .0295815
592.464 .0296087
593.242 .0296320
594.020 .0296518
594.797 .0296666
595.575 .0296788
596.351 .0296870
597.128 .0296917
597.904 .0296932
598.679 .0296927
599.454 .0296899
600.229 .0296849
601.004 .0296788
601.778 .0296715
602.551 .0296631
603.325 .0296536
604.097 .0296426
604.870 .0296300
605.642 .0296160
606.414 .0296010
607.185 .0295845
607.956 .0295686
608.727 .0295523
609.497 .0295366
610.267 .0295214
611.037 .0295059
611.806 .0294896
612.575 .0294724
613.344 .0294544
614.112 .0294344
614.880 .0294128
615.647 .0293906
616.414 .0293684
617.181 .0293477
617.948 .0293285
618.714 .0293113
619.480 .0292964
620.245 .0292826
621.011 .0292689
621.775 .0292554
622.540 .0292421
623.304 .0292284
624.068 .0292152
624.832 .0292024
625.595 .0291902
626.358 .0291793
627.120 .0291703
627.883 .0291625
628.645 .0291555
629.406 .0291488
630.168 .0291412
630.929 .0291330
631.689 .0291227
632.450 .0291099
633.210 .0290962
633.970 .0290807
634.729 .0290639
635.489 .0290455
636.248 .0290262
637.006 .0290066
637.765 .0289866
638.523 .0289662
639.280 .0289455
640.038 .0289251
640.795 .0289049
641.552 .0288852
642.309 .0288668
643.065 .0288497
643.821 .0288341
644.577 .0288207
645.332 .0288087
646.088 .0287979
646.843 .0287880
647.597 .0287777
648.352 .0287669
649.106 .0287557
649.860 .0287432
650.613 .0287303
651.367 .0287176
652.120 .0287052
652.872 .0286931
653.625 .0286823
654.377 .0286721
655.129 .0286621
655.881 .0286521
656.632 .0286414
657.384 .0286291
658.135 .0286164
658.885 .0286027
659.636 .0285885
660.386 .0285743
661.136 .0285606
661.885 .0285470
662.635 .0285345
663.384 .0285231
664.133 .0285127
664.881 .0285030
665.630 .0284940
666.378 .0284852
667.126 .0284762
667.874 .0284671
668.621 .0284569
669.368 .0284460
670.115 .0284351
670.862 .0284236
671.608 .0284121
672.354 .0284014
673.100 .0283919
673.846 .0283834
674.591 .0283761
675.337 .0283700
676.082 .0283643
676.826 .0283594
677.571 .0283540
678.315 .0283477
679.059 .0283410
679.803 .0283334
680.547 .0283245
681.290 .0283148
682.033 .0283040
682.776 .0282921
683.518 .0282795
684.261 .0282659
685.003 .0282513
685.745 .0282364
686.487 .0282209
687.228 .0282045
687.969 .0281874
688.710 .0281693
689.451 .0281495
690.192 .0281287
690.932 .0281068
691.672 .0280836
692.412 .0280604
693.152 .0280374
693.891 .0280154
694.630 .0279946
695.369 .0279754
696.108 .0279576
696.846 .0279410
697.585 .0279250
698.323 .0279083
699.061 .0278913
699.798 .0278744
700.536 .0278571
701.273 .0278397
702.010 .0278232
702.746 .0278075
703.483 .0277924
704.219 .0277776
704.955 .0277623
705.691 .0277465
706.427 .0277293
707.162 .0277105
707.897 .0276901
708.632 .0276687
709.367 .0276472
710.101 .0276257
710.835 .0276052
711.569 .0275856
712.303 .0275666
713.037 .0275481
713.770 .0275293
714.503 .0275095
715.236 .0274891
715.969 .0274681
716.702 .0274469
717.434 .0274263
718.166 .0274064
718.898 .0273882
719.629 .0273716
720.361 .0273570
721.092 .0273433
721.823 .0273306
722.554 .0273181
723.284 .0273053
724.014 .0272917
724.744 .0272775
725.474 .0272622
726.204 .0272465
726.933 .0272304
727.662 .0272138
728.391 .0271974
729.120 .0271816
729.849 .0271659
730.577 .0271508
731.305 .0271351
732.033 .0271192
732.760 .0271020
733.488 .0270837
734.215 .0270642
734.942 .0270440
735.669 .0270240
736.395 .0270048
737.122 .0269868
737.848 .0269710
738.573 .0269571
739.299 .0269452
740.024 .0269344
740.750 .0269241
741.474 .0269135
742.199 .0269025
742.924 .0268905
743.648 .0268782
744.372 .0268658
745.096 .0268543
745.819 .0268435
746.543 .0268337
747.266 .0268251
747.989 .0268171
748.711 .0268100
749.434 .0268031
750.156 .0267960
750.878 .0267892
751.599 .0267822
752.321 .0267758
753.042 .0267701
753.763 .0267655
754.484 .0267621
755.205 .0267598
755.925 .0267584
756.645 .0267572
757.365 .0267558
758.085 .0267540
758.804 .0267506
759.523 .0267454
760.242 .0267382
760.961 .0267285
761.679 .0267170
762.397 .0267036
763.115 .0266889
763.833 .0266729
764.551 .0266561
765.268 .0266383
765.985 .0266195
766.702 .0265998
767.418 .0265794
768.134 .0265582
768.850 .0265366
769.566 .0265151
770.282 .0264936
770.997 .0264726
771.712 .0264529
772.427 .0264338
773.142 .0264156
773.856 .0263979
774.570 .0263808
775.284 .0263636
775.998 .0263464
776.711 .0263290
777.424 .0263115
778.137 .0262941
778.849 .0262766
779.562 .0262589
780.274 .0262420
780.986 .0262258
781.697 .0262101
782.409 .0261955
783.120 .0261820
783.831 .0261695
784.541 .0261582
785.252 .0261477
785.962 .0261380
786.671 .0261287
787.381 .0261197
788.090 .0261108
788.799 .0261019
789.508 .0260929
790.217 .0260836
790.925 .0260745
791.633 .0260655
792.341 .0260558
793.048 .0260452
793.755 .0260335
794.462 .0260202
795.169 .0260052
795.875 .0259885
796.581 .0259703
797.287 .0259514
797.993 .0259315
798.698 .0259113
799.403 .0258914
800.108 .0258720
800.812 .0258535
801.517 .0258358
802.221 .0258193
802.924 .0258038
803.628 .0257891
804.331 .0257758
805.034 .0257637
805.736 .0257527
806.439 .0257426
807.141 .0257335
807.843 .0257249
808.544 .0257167
809.245 .0257082
809.946 .0256995
810.647 .0256900
811.347 .0256799
812.047 .0256688
812.747 .0256570
813.447 .0256447
814.146 .0256315
814.845 .0256181
815.543 .0256044
816.242 .0255900
816.940 .0255751
817.638 .0255594
818.335 .0255431
819.032 .0255264
819.729 .0255098
820.426 .0254935
821.122 .0254779
821.818 .0254633
822.514 .0254498
823.209 .0254369
823.905 .0254246
824.599 .0254119
825.294 .0253983
825.988 .0253838
826.682 .0253678
827.376 .0253509
828.069 .0253337
828.762 .0253168
829.455 .0253002
830.147 .0252840
830.840 .0252686
831.531 .0252526
832.223 .0252361
832.914 .0252184
833.605 .0251993
834.296 .0251790
834.986 .0251584
835.676 .0251379
836.366 .0251182
837.055 .0250999
837.744 .0250827
838.433 .0250662
839.121 .0250505
839.809 .0250347
840.497 .0250190
841.185 .0250032
841.872 .0249878
842.559 .0249730
843.245 .0249595
843.932 .0249475
844.617 .0249376
845.303 .0249293
845.988 .0249227
846.673 .0249165
847.358 .0249107
848.042 .0249048
848.726 .0248984
849.410 .0248915
850.093 .0248845
850.776 .0248772
851.459 .0248695
852.141 .0248613
852.823 .0248530
853.505 .0248444
854.186 .0248356
854.867 .0248266
855.548 .0248172
856.228 .0248075
856.908 .0247980
857.588 .0247883
858.267 .0247792
858.946 .0247701
859.625 .0247612
860.303 .0247524
860.981 .0247440
861.659 .0247356
862.336 .0247272
863.013 .0247194
863.690 .0247123
864.366 .0247059
865.042 .0247001
865.718 .0246948
866.393 .0246903
867.068 .0246864
867.743 .0246828
868.417 .0246791
869.091 .0246755
869.765 .0246721
870.438 .0246686
871.111 .0246654
871.783 .0246624
872.456 .0246597
873.127 .0246574
873.799 .0246550
874.470 .0246517
875.141 .0246475
875.811 .0246424
876.481 .0246360
877.151 .0246287
877.820 .0246206
878.489 .0246118
879.158 .0246029
879.826 .0245940
880.494 .0245846
881.162 .0245752
881.829 .0245664
882.496 .0245574
883.163 .0245487
883.829 .0245402
884.495 .0245322
885.160 .0245248
885.825 .0245186
886.490 .0245132
887.154 .0245086
887.818 .0245051
888.482 .0245021
889.145 .0244992
889.808 .0244969
890.471 .0244948
891.133 .0244928
891.795 .0244909
892.456 .0244890
893.117 .0244867
893.778 .0244841
894.439 .0244813
895.099 .0244775
895.758 .0244732
896.417 .0244685
897.076 .0244630
897.735 .0244571
898.393 .0244512
899.051 .0244451
899.708 .0244387
900.365 .0244323
901.022 .0244258
901.678 .0244186
902.334 .0244116
902.990 .0244043
903.645 .0243972
904.300 .0243903
904.954 .0243837
905.608 .0243773
906.262 .0243717
906.915 .0243666
907.568 .0243618
908.221 .0243579
908.873 .0243554
909.525 .0243534
910.176 .0243522
910.828 .0243513
911.478 .0243504
912.129 .0243485
912.778 .0243453
913.428 .0243400
914.077 .0243328
914.726 .0243233
915.375 .0243119
916.023 .0242995
916.670 .0242870
917.318 .0242743
917.964 .0242623
918.611 .0242506
919.257 .0242391
919.903 .0242271
920.548 .0242146
921.193 .0242016
921.838 .0241886
922.482 .0241757
923.126 .0241637
923.770 .0241534
924.413 .0241448
925.056 .0241378
925.698 .0241323
926.340 .0241276
926.982 .0241227
927.623 .0241172
928.264 .0241108
928.904 .0241034
929.544 .0240950
930.184 .0240856
930.823 .0240751
931.462 .0240640
932.101 .0240519
932.739 .0240388
933.377 .0240248
934.014 .0240103
934.651 .0239953
935.288 .0239802
935.924 .0239647
936.560 .0239496
937.196 .0239349
937.831 .0239203
938.466 .0239053
939.100 .0238900
939.734 .0238740
940.368 .0238573
941.001 .0238401
941.634 .0238223
942.266 .0238042
942.899 .0237859
943.530 .0237668
944.162 .0237466
944.793 .0237253
945.423 .0237025
946.053 .0236784
946.683 .0236538
947.313 .0236285
947.942 .0236031
948.571 .0235779
949.199 .0235534
949.827 .0235293
950.455 .0235055
951.082 .0234824
951.709 .0234595
952.335 .0234370
952.961 .0234144
953.587 .0233921
954.212 .0233704
954.837 .0233494
955.462 .0233287
956.086 .0233085
956.710 .0232891
957.334 .0232705
957.957 .0232526
958.579 .0232351
959.202 .0232178
959.824 .0232005
960.445 .0231827
961.067 .0231642
961.688 .0231449
962.308 .0231251
962.928 .0231053
963.548 .0230858
964.168 .0230668
964.787 .0230488
965.406 .0230320
966.024 .0230163
966.642 .0230014
967.260 .0229870
967.877 .0229727
968.494 .0229583
969.110 .0229440
969.727 .0229297
970.342 .0229162
970.958 .0229038
971.573 .0228927
972.188 .0228832
972.802 .0228750
973.416 .0228675
974.030 .0228603
974.643 .0228529
975.256 .0228447
975.869 .0228356
976.481 .0228260
977.093 .0228161
977.705 .0228062
978.316 .0227969
978.927 .0227884
979.538 .0227799
980.148 .0227717
980.758 .0227632
981.367 .0227539
981.977 .0227444
982.586 .0227345
983.194 .0227244
983.802 .0227145
984.410 .0227052
985.018 .0226965
985.625 .0226886
986.232 .0226818
986.838 .0226754
987.445 .0226694
988.050 .0226639
988.656 .0226579
989.261 .0226519
989.866 .0226457
990.471 .0226399
991.075 .0226344
991.679 .0226290
992.282 .0226238
992.886 .0226188
993.489 .0226141
994.091 .0226099
994.694 .0226063
995.296 .0226035
995.897 .0226012
996.499 .0225994
997.100 .0225974
997.701 .0225956
998.301 .0225935
998.901 .0225915
999.501 .0225892
1000.101 .0225873
1000.700 .0225852
1001.299 .0225828
1001.898 .0225808
1002.496 .0225791
1003.094 .0225773
1003.692 .0225755
1004.289 .0225735
1004.887 .0225719
1005.484 .0225699
1006.080 .0225689
1006.677 .0225682
1007.273 .0225683
1007.868 .0225690
1008.464 .0225702
1009.059 .0225716
1009.654 .0225736
1010.249 .0225759
1010.843 .0225789
1011.437 .0225826
1012.031 .0225865
1012.625 .0225907
1013.218 .0225960
1013.811 .0226024
1014.404 .0226095
1014.997 .0226174
1015.589 .0226262
1016.181 .0226352
1016.773 .0226448
1017.365 .0226547
1017.956 .0226642
1018.547 .0226740
1019.138 .0226833
1019.728 .0226919
1020.319 .0227001
1020.909 .0227082
1021.499 .0227160
1022.088 .0227238
1022.678 .0227308
1023.267 .0227366
1023.856 .0227406
1024.445 .0227432
1025.033 .0227436
1025.621 .0227416
1026.209 .0227380
1026.797 .0227328
1027.385 .0227268
1027.972 .0227213
1028.560 .0227169
1029.147 .0227143
1029.734 .0227137
1030.320 .0227151
1030.907 .0227171
1031.493 .0227192
1032.079 .0227213
1032.665 .0227233
1033.250 .0227257
1033.836 .0227281
1034.421 .0227308
1035.006 .0227343
1035.591 .0227401
1036.176 .0227468
1036.761 .0227547
1037.345 .0227636
1037.929 .0227722
1038.514 .0227796
1039.097 .0227854
1039.681 .0227893
1040.265 .0227920
1040.848 .0227940
1041.432 .0227960
1042.015 .0227982
1042.598 .0228019
1043.181 .0228065
1043.764 .0228126
1044.346 .0228205
1044.929 .0228285
1045.511 .0228350
1046.094 .0228412
1046.676 .0228458
1047.258 .0228496
1047.840 .0228528
1048.422 .0228560
1049.003 .0228600
1049.585 .0228654
1050.166 .0228715
1050.748 .0228782
1051.329 .0228863
1051.910 .0228947
1052.491 .0229015
1053.072 .0229074
1053.653 .0229119
1054.234 .0229149
1054.815 .0229179
1055.396 .0229212
1055.976 .0229246
1056.557 .0229289
1057.138 .0229334
1057.718 .0229377
1058.298 .0229411
1058.879 .0229435
1059.459 .0229444
1060.039 .0229434
1060.620 .0229407
1061.200 .0229358
1061.780 .0229308
1062.360 .0229258
1062.940 .0229205
1063.520 .0229155
1064.101 .0229104
1064.681 .0229051
1065.261 .0228993
1065.841 .0228922
1066.421 .0228852
1067.001 .0228782
1067.581 .0228718
1068.161 .0228657
1068.741 .0228616
1069.321 .0228588
1069.901 .0228577
1070.482 .0228602
1071.062 .0228659
1071.642 .0228732
1072.222 .0228839
1072.803 .0228965
1073.383 .0229117
1073.963 .0229267
1074.544 .0229413
1075.124 .0229542
1075.705 .0229661
1076.286 .0229734
1076.866 .0229760
1077.447 .0229746
1078.028 .0229713
1078.609 .0229650
1079.190 .0229586
1079.771 .0229523
1080.352 .0229467
1080.934 .0229415
1081.515 .0229372
1082.097 .0229332
1082.679 .0229313
1083.260 .0229281
1083.842 .0229274
1084.424 .0229269
1085.007 .0229272
1085.589 .0229272
1086.172 .0229284
1086.754 .0229308
1087.337 .0229331
1087.920 .0229352
1088.503 .0229362
1089.087 .0229355
1089.670 .0229356
1090.254 .0229331
1090.838 .0229290
1091.422 .0229236
1092.006 .0229166
1092.590 .0229071
1093.175 .0228963
1093.760 .0228846
1094.345 .0228723
1094.930 .0228625
1095.516 .0228554
1096.102 .0228507
1096.688 .0228500
1097.274 .0228545
1097.860 .0228613
1098.447 .0228707
1099.034 .0228826
1099.622 .0228927
1100.209 .0229020
1100.797 .0229107
1101.385 .0229165
1101.973 .0229206
1102.562 .0229246
1103.151 .0229288
1103.740 .0229300
1104.330 .0229317
1104.920 .0229313
1105.510 .0229288
1106.101 .0229254
1106.691 .0229184
1107.283 .0229077
1107.874 .0228964
1108.466 .0228829
1109.058 .0228671
1109.651 .0228509
1110.244 .0228363
1110.837 .0228197
1111.431 .0228034
1112.025 .0227866
1112.620 .0227701
1113.215 .0227549
1113.810 .0227439
1114.406 .0227368
1115.002 .0227354
1115.599 .0227383
1116.196 .0227421
1116.793 .0227480
1117.391 .0227527
1117.989 .0227535
1118.588 .0227512
1119.187 .0227454
1119.787 .0227368
1120.387 .0227264
1120.988 .0227200
1121.589 .0227183
1122.190 .0227224
1122.793 .0227309
1123.395 .0227402
1123.998 .0227492
1124.602 .0227591
1125.206 .0227659
1125.811 .0227713
1126.416 .0227782
1127.022 .0227873
1127.628 .0227994
1128.235 .0228181
1128.843 .0228458
1129.451 .0228828
1130.059 .0229263
1130.669 .0229735
1131.278 .0230177
1131.889 .0230582
1132.500 .0230917
1133.112 .0231149
1133.724 .0231305
1134.337 .0231394
1134.950 .0231368
1135.564 .0231299
1136.179 .0231241
1136.795 .0231243
1137.411 .0231308
1138.028 .0231459
1138.645 .0231651
1139.263 .0231891
1139.882 .0232137
1140.502 .0232398
1141.122 .0232693
1141.743 .0233256
1142.365 .0233935
1142.987 .0232696
1143.611 .0234129
1144.235 .0235534
1144.859 .0241511
1145.485 .0241018
