Measurement Sequence started on: 10-20-44-796
Integration time: 35
Scans to Average: 2 
>>>>>Begin Spectral Data<<<<<
432.953 .0548749
433.882 .0410518
434.810 .0379637
435.737 .0379906
436.662 .0386572
437.586 .0389325
438.509 .0381250
439.431 .0378232
440.351 .0375985
441.269 .0373669
442.187 .0371512
443.103 .0369838
444.018 .0368685
444.932 .0367955
445.844 .0367295
446.756 .0366702
447.666 .0365899
448.575 .0364851
449.482 .0363832
450.388 .0362907
451.294 .0362302
452.198 .0361993
453.100 .0361995
454.002 .0362294
454.902 .0362673
455.801 .0362989
456.699 .0363131
457.596 .0363017
458.492 .0362720
459.387 .0362263
460.280 .0361822
461.172 .0361418
462.064 .0361120
462.954 .0360929
463.843 .0360801
464.730 .0360694
465.617 .0360634
466.503 .0360477
467.387 .0360280
468.271 .0359983
469.153 .0359653
470.035 .0359309
470.915 .0359014
471.794 .0358803
472.673 .0358652
473.550 .0358591
474.426 .0358604
475.301 .0358596
476.175 .0358656
477.048 .0358680
477.920 .0358672
478.791 .0358597
479.661 .0358443
480.530 .0358195
481.398 .0357864
482.266 .0357489
483.132 .0357090
483.997 .0356655
484.861 .0356256
485.724 .0355848
486.587 .0355489
487.448 .0355189
488.308 .0354885
489.168 .0354556
490.026 .0354211
490.884 .0353798
491.741 .0353302
492.597 .0352702
493.452 .0352070
494.306 .0351373
495.159 .0350651
496.011 .0349931
496.862 .0349206
497.713 .0348502
498.562 .0347832
499.411 .0347135
500.259 .0346459
501.106 .0345721
501.952 .0344927
502.798 .0344032
503.642 .0343073
504.486 .0342024
505.329 .0340896
506.171 .0339765
507.012 .0338680
507.852 .0337590
508.692 .0336547
509.531 .0335482
510.369 .0334418
511.206 .0333340
512.043 .0332216
512.878 .0331001
513.713 .0329730
514.547 .0328410
515.381 .0327043
516.213 .0325600
517.045 .0324184
517.876 .0322735
518.706 .0321283
519.536 .0319784
520.365 .0318226
521.193 .0316637
522.020 .0315087
522.847 .0313600
523.673 .0312241
524.498 .0310967
525.323 .0309757
526.146 .0308576
526.969 .0307425
527.792 .0306201
528.614 .0304888
529.435 .0303514
530.255 .0302123
531.075 .0300671
531.894 .0299246
532.712 .0297869
533.530 .0296595
534.347 .0295386
535.163 .0294121
535.979 .0292835
536.794 .0291550
537.608 .0290204
538.422 .0288941
539.235 .0287744
540.048 .0286731
540.860 .0285883
541.671 .0285205
542.481 .0284707
543.292 .0284403
544.101 .0284262
544.910 .0284300
545.718 .0284503
546.526 .0284929
547.333 .0285504
548.139 .0286288
548.945 .0287258
549.750 .0288335
550.555 .0289518
551.359 .0290716
552.162 .0291777
552.965 .0292757
553.768 .0293561
554.569 .0294227
555.371 .0294801
556.171 .0295305
556.972 .0295822
557.771 .0296368
558.570 .0296928
559.369 .0297491
560.167 .0298054
560.964 .0298603
561.761 .0299086
562.558 .0299530
563.354 .0299980
564.149 .0300401
564.944 .0300864
565.738 .0301423
566.532 .0302021
567.325 .0302688
568.118 .0303359
568.910 .0303990
569.702 .0304581
570.494 .0305086
571.285 .0305516
572.075 .0305898
572.865 .0306253
573.654 .0306567
574.443 .0306830
575.232 .0307114
576.020 .0307420
576.807 .0307725
577.594 .0308046
578.381 .0308381
579.167 .0308710
579.952 .0309057
580.738 .0309400
581.522 .0309770
582.307 .0310170
583.091 .0310607
583.874 .0311062
584.657 .0311515
585.440 .0311989
586.222 .0312466
587.004 .0312925
587.785 .0313385
588.566 .0313798
589.346 .0314167
590.126 .0314502
590.906 .0314811
591.685 .0315078
592.464 .0315308
593.242 .0315519
594.020 .0315700
594.797 .0315842
595.575 .0315954
596.351 .0316008
597.128 .0316015
597.904 .0315981
598.679 .0315903
599.454 .0315776
600.229 .0315629
601.004 .0315452
601.778 .0315263
602.551 .0315057
603.325 .0314836
604.097 .0314588
604.870 .0314331
605.642 .0314056
606.414 .0313768
607.185 .0313471
607.956 .0313187
608.727 .0312921
609.497 .0312681
610.267 .0312457
611.037 .0312253
611.806 .0312057
612.575 .0311875
613.344 .0311689
614.112 .0311512
614.880 .0311327
615.647 .0311152
616.414 .0310981
617.181 .0310823
617.948 .0310673
618.714 .0310533
619.480 .0310398
620.245 .0310258
621.011 .0310105
621.775 .0309934
622.540 .0309752
623.304 .0309571
624.068 .0309386
624.832 .0309198
625.595 .0309006
626.358 .0308813
627.120 .0308609
627.883 .0308400
628.645 .0308182
629.406 .0307950
630.168 .0307700
630.929 .0307433
631.689 .0307152
632.450 .0306853
633.210 .0306545
633.970 .0306229
634.729 .0305903
635.489 .0305561
636.248 .0305196
637.006 .0304816
637.765 .0304429
638.523 .0304046
639.280 .0303673
640.038 .0303322
640.795 .0303001
641.552 .0302706
642.309 .0302438
643.065 .0302205
643.821 .0301991
644.577 .0301787
645.332 .0301587
646.088 .0301388
646.843 .0301185
647.597 .0300982
648.352 .0300795
649.106 .0300630
649.860 .0300489
650.613 .0300370
651.367 .0300260
652.120 .0300164
652.872 .0300068
653.625 .0299954
654.377 .0299830
655.129 .0299687
655.881 .0299525
656.632 .0299346
657.384 .0299166
658.135 .0298991
658.885 .0298823
659.636 .0298666
660.386 .0298515
661.136 .0298356
661.885 .0298199
662.635 .0298028
663.384 .0297853
664.133 .0297677
664.881 .0297497
665.630 .0297317
666.378 .0297136
667.126 .0296954
667.874 .0296777
668.621 .0296600
669.368 .0296434
670.115 .0296272
670.862 .0296119
671.608 .0295990
672.354 .0295882
673.100 .0295792
673.846 .0295722
674.591 .0295663
675.337 .0295609
676.082 .0295554
676.826 .0295498
677.571 .0295433
678.315 .0295362
679.059 .0295298
679.803 .0295228
680.547 .0295154
681.290 .0295074
682.033 .0294981
682.776 .0294871
683.518 .0294740
684.261 .0294586
685.003 .0294408
685.745 .0294220
686.487 .0294033
687.228 .0293844
687.969 .0293672
688.710 .0293513
689.451 .0293367
690.192 .0293228
690.932 .0293089
691.672 .0292939
692.412 .0292777
693.152 .0292604
693.891 .0292421
694.630 .0292226
695.369 .0292033
696.108 .0291840
696.846 .0291643
697.585 .0291444
698.323 .0291241
699.061 .0291035
699.798 .0290823
700.536 .0290601
701.273 .0290378
702.010 .0290149
702.746 .0289925
703.483 .0289706
704.219 .0289497
704.955 .0289301
705.691 .0289108
706.427 .0288920
707.162 .0288741
707.897 .0288564
708.632 .0288394
709.367 .0288228
710.101 .0288062
710.835 .0287889
711.569 .0287701
712.303 .0287495
713.037 .0287277
713.770 .0287040
714.503 .0286785
715.236 .0286510
715.969 .0286224
716.702 .0285929
717.434 .0285632
718.166 .0285338
718.898 .0285045
719.629 .0284756
720.361 .0284475
721.092 .0284193
721.823 .0283918
722.554 .0283650
723.284 .0283395
724.014 .0283145
724.744 .0282893
725.474 .0282639
726.204 .0282383
726.933 .0282126
727.662 .0281870
728.391 .0281612
729.120 .0281355
729.849 .0281103
730.577 .0280857
731.305 .0280623
732.033 .0280391
732.760 .0280160
733.488 .0279936
734.215 .0279711
734.942 .0279487
735.669 .0279262
736.395 .0279041
737.122 .0278834
737.848 .0278640
738.573 .0278454
739.299 .0278278
740.024 .0278116
740.750 .0277963
741.474 .0277809
742.199 .0277654
742.924 .0277497
743.648 .0277334
744.372 .0277173
745.096 .0277016
745.819 .0276867
746.543 .0276729
747.266 .0276606
747.989 .0276500
748.711 .0276407
749.434 .0276325
750.156 .0276245
750.878 .0276172
751.599 .0276102
752.321 .0276030
753.042 .0275955
753.763 .0275891
754.484 .0275844
755.205 .0275810
755.925 .0275790
756.645 .0275781
757.365 .0275777
758.085 .0275776
758.804 .0275760
759.523 .0275726
760.242 .0275671
760.961 .0275593
761.679 .0275488
762.397 .0275367
763.115 .0275227
763.833 .0275080
764.551 .0274924
765.268 .0274764
765.985 .0274594
766.702 .0274413
767.418 .0274222
768.134 .0274025
768.850 .0273823
769.566 .0273616
770.282 .0273409
770.997 .0273212
771.712 .0273021
772.427 .0272843
773.142 .0272678
773.856 .0272528
774.570 .0272389
775.284 .0272262
775.998 .0272144
776.711 .0272035
777.424 .0271938
778.137 .0271849
778.849 .0271762
779.562 .0271681
780.274 .0271601
780.986 .0271518
781.697 .0271433
782.409 .0271344
783.120 .0271257
783.831 .0271170
784.541 .0271091
785.252 .0271023
785.962 .0270969
786.671 .0270933
787.381 .0270904
788.090 .0270876
788.799 .0270852
789.508 .0270819
790.217 .0270777
790.925 .0270723
791.633 .0270667
792.341 .0270607
793.048 .0270547
793.755 .0270490
794.462 .0270431
795.169 .0270367
795.875 .0270303
796.581 .0270230
797.287 .0270155
797.993 .0270071
798.698 .0269984
799.403 .0269897
800.108 .0269816
800.812 .0269736
801.517 .0269661
802.221 .0269598
802.924 .0269547
803.628 .0269496
804.331 .0269454
805.034 .0269417
805.736 .0269386
806.439 .0269349
807.141 .0269309
807.843 .0269261
808.544 .0269201
809.245 .0269126
809.946 .0269037
810.647 .0268935
811.347 .0268825
812.047 .0268707
812.747 .0268587
813.447 .0268461
814.146 .0268327
814.845 .0268191
815.543 .0268051
816.242 .0267909
816.940 .0267764
817.638 .0267614
818.335 .0267472
819.032 .0267337
819.729 .0267208
820.426 .0267089
821.122 .0266973
821.818 .0266861
822.514 .0266741
823.209 .0266612
823.905 .0266472
824.599 .0266319
825.294 .0266162
825.988 .0265995
826.682 .0265825
827.376 .0265656
828.069 .0265484
828.762 .0265318
829.455 .0265154
830.147 .0264991
830.840 .0264834
831.531 .0264679
832.223 .0264526
832.914 .0264378
833.605 .0264232
834.296 .0264083
834.986 .0263937
835.676 .0263792
836.366 .0263648
837.055 .0263505
837.744 .0263368
838.433 .0263227
839.121 .0263087
839.809 .0262946
840.497 .0262798
841.185 .0262646
841.872 .0262491
842.559 .0262329
843.245 .0262168
843.932 .0262009
844.617 .0261850
845.303 .0261694
845.988 .0261549
846.673 .0261401
847.358 .0261254
848.042 .0261111
848.726 .0260969
849.410 .0260832
850.093 .0260705
850.776 .0260583
851.459 .0260464
852.141 .0260345
852.823 .0260225
853.505 .0260094
854.186 .0259951
854.867 .0259795
855.548 .0259627
856.228 .0259449
856.908 .0259265
857.588 .0259080
858.267 .0258909
858.946 .0258750
859.625 .0258598
860.303 .0258456
860.981 .0258317
861.659 .0258175
862.336 .0258021
863.013 .0257859
863.690 .0257689
864.366 .0257508
865.042 .0257325
865.718 .0257144
866.393 .0256967
867.068 .0256799
867.743 .0256638
868.417 .0256486
869.091 .0256337
869.765 .0256183
870.438 .0256013
871.111 .0255833
871.783 .0255640
872.456 .0255430
873.127 .0255211
873.799 .0254990
874.470 .0254770
875.141 .0254557
875.811 .0254357
876.481 .0254168
877.151 .0253993
877.820 .0253828
878.489 .0253663
879.158 .0253498
879.826 .0253327
880.494 .0253152
881.162 .0252977
881.829 .0252810
882.496 .0252646
883.163 .0252496
883.829 .0252364
884.495 .0252248
885.160 .0252154
885.825 .0252077
886.490 .0252015
887.154 .0251958
887.818 .0251902
888.482 .0251841
889.145 .0251772
889.808 .0251702
890.471 .0251629
891.133 .0251561
891.795 .0251501
892.456 .0251448
893.117 .0251409
893.778 .0251380
894.439 .0251353
895.099 .0251325
895.758 .0251300
896.417 .0251265
897.076 .0251226
897.735 .0251182
898.393 .0251138
899.051 .0251101
899.708 .0251065
900.365 .0251031
901.022 .0250999
901.678 .0250969
902.334 .0250930
902.990 .0250882
903.645 .0250829
904.300 .0250772
904.954 .0250711
905.608 .0250653
906.262 .0250597
906.915 .0250545
907.568 .0250497
908.221 .0250450
908.873 .0250402
909.525 .0250348
910.176 .0250284
910.828 .0250217
911.478 .0250145
912.129 .0250070
912.778 .0249989
913.428 .0249906
914.077 .0249818
914.726 .0249718
915.375 .0249606
916.023 .0249485
916.670 .0249360
917.318 .0249238
917.964 .0249118
918.611 .0249001
919.257 .0248895
919.903 .0248802
920.548 .0248724
921.193 .0248664
921.838 .0248621
922.482 .0248598
923.126 .0248595
923.770 .0248611
924.413 .0248648
925.056 .0248700
925.698 .0248770
926.340 .0248846
926.982 .0248928
927.623 .0249009
928.264 .0249082
928.904 .0249148
929.544 .0249198
930.184 .0249234
930.823 .0249248
931.462 .0249243
932.101 .0249220
932.739 .0249179
933.377 .0249121
934.014 .0249046
934.651 .0248965
935.288 .0248878
935.924 .0248790
936.560 .0248708
937.196 .0248634
937.831 .0248567
938.466 .0248505
939.100 .0248445
939.734 .0248377
940.368 .0248299
941.001 .0248211
941.634 .0248115
942.266 .0248018
942.899 .0247916
943.530 .0247821
944.162 .0247729
944.793 .0247646
945.423 .0247562
946.053 .0247476
946.683 .0247386
947.313 .0247287
947.942 .0247176
948.571 .0247050
949.199 .0246916
949.827 .0246780
950.455 .0246644
951.082 .0246521
951.709 .0246411
952.335 .0246316
952.961 .0246227
953.587 .0246147
954.212 .0246064
954.837 .0245979
955.462 .0245887
956.086 .0245792
956.710 .0245702
957.334 .0245616
957.957 .0245541
958.579 .0245480
959.202 .0245432
959.824 .0245391
960.445 .0245348
961.067 .0245303
961.688 .0245247
962.308 .0245180
962.928 .0245099
963.548 .0245011
964.168 .0244917
964.787 .0244824
965.406 .0244730
966.024 .0244642
966.642 .0244561
967.260 .0244484
967.877 .0244418
968.494 .0244351
969.110 .0244288
969.727 .0244229
970.342 .0244163
970.958 .0244097
971.573 .0244030
972.188 .0243973
972.802 .0243921
973.416 .0243874
974.030 .0243832
974.643 .0243792
975.256 .0243753
975.869 .0243710
976.481 .0243662
977.093 .0243606
977.705 .0243547
978.316 .0243477
978.927 .0243407
979.538 .0243334
980.148 .0243255
980.758 .0243179
981.367 .0243099
981.977 .0243020
982.586 .0242933
983.194 .0242843
983.802 .0242764
984.410 .0242687
985.018 .0242618
985.625 .0242548
986.232 .0242489
986.838 .0242435
987.445 .0242385
988.050 .0242340
988.656 .0242297
989.261 .0242252
989.866 .0242199
990.471 .0242135
991.075 .0242065
991.679 .0241991
992.282 .0241918
992.886 .0241854
993.489 .0241803
994.091 .0241771
994.694 .0241762
995.296 .0241772
995.897 .0241801
996.499 .0241829
997.100 .0241849
997.701 .0241852
998.301 .0241834
998.901 .0241803
999.501 .0241762
1000.101 .0241720
1000.700 .0241685
1001.299 .0241659
1001.898 .0241646
1002.496 .0241640
1003.094 .0241627
1003.692 .0241601
1004.289 .0241551
1004.887 .0241480
1005.484 .0241382
1006.080 .0241265
1006.677 .0241141
1007.273 .0241017
1007.868 .0240898
1008.464 .0240780
1009.059 .0240668
1009.654 .0240558
1010.249 .0240448
1010.843 .0240347
1011.437 .0240248
1012.031 .0240151
1012.625 .0240065
1013.218 .0239994
1013.811 .0239933
1014.404 .0239891
1014.997 .0239858
1015.589 .0239834
1016.181 .0239821
1016.773 .0239805
1017.365 .0239783
1017.956 .0239762
1018.547 .0239750
1019.138 .0239729
1019.728 .0239710
1020.319 .0239692
1020.909 .0239670
1021.499 .0239647
1022.088 .0239616
1022.678 .0239569
1023.267 .0239511
1023.856 .0239440
1024.445 .0239354
1025.033 .0239249
1025.621 .0239134
1026.209 .0239003
1026.797 .0238862
1027.385 .0238713
1027.972 .0238555
1028.560 .0238379
1029.147 .0238205
1029.734 .0238027
1030.320 .0237854
1030.907 .0237684
1031.493 .0237521
1032.079 .0237372
1032.665 .0237237
1033.250 .0237107
1033.836 .0236996
1034.421 .0236889
1035.006 .0236798
1035.591 .0236705
1036.176 .0236623
1036.761 .0236550
1037.345 .0236488
1037.929 .0236434
1038.514 .0236392
1039.097 .0236359
1039.681 .0236343
1040.265 .0236319
1040.848 .0236303
1041.432 .0236276
1042.015 .0236238
1042.598 .0236185
1043.181 .0236122
1043.764 .0236037
1044.346 .0235945
1044.929 .0235836
1045.511 .0235735
1046.094 .0235625
1046.676 .0235525
1047.258 .0235423
1047.840 .0235328
1048.422 .0235234
1049.003 .0235120
1049.585 .0234989
1050.166 .0234855
1050.748 .0234701
1051.329 .0234550
1051.910 .0234393
1052.491 .0234253
1053.072 .0234130
1053.653 .0234041
1054.234 .0233973
1054.815 .0233934
1055.396 .0233917
1055.976 .0233922
1056.557 .0233918
1057.138 .0233917
1057.718 .0233907
1058.298 .0233874
1058.879 .0233842
1059.459 .0233795
1060.039 .0233732
1060.620 .0233669
1061.200 .0233595
1061.780 .0233524
1062.360 .0233438
1062.940 .0233346
1063.520 .0233220
1064.101 .0233068
1064.681 .0232897
1065.261 .0232690
1065.841 .0232459
1066.421 .0232226
1067.001 .0231998
1067.581 .0231785
1068.161 .0231621
1068.741 .0231504
1069.321 .0231434
1069.901 .0231410
1070.482 .0231411
1071.062 .0231430
1071.642 .0231433
1072.222 .0231434
1072.803 .0231410
1073.383 .0231387
1073.963 .0231379
1074.544 .0231376
1075.124 .0231397
1075.705 .0231456
1076.286 .0231555
1076.866 .0231671
1077.447 .0231790
1078.028 .0231867
1078.609 .0231889
1079.190 .0231860
1079.771 .0231755
1080.352 .0231594
1080.934 .0231397
1081.515 .0231214
1082.097 .0231040
1082.679 .0230893
1083.260 .0230774
1083.842 .0230664
1084.424 .0230592
1085.007 .0230506
1085.589 .0230396
1086.172 .0230271
1086.754 .0230128
1087.337 .0229982
1087.920 .0229856
1088.503 .0229761
1089.087 .0229683
1089.670 .0229630
1090.254 .0229590
1090.838 .0229517
1091.422 .0229418
1092.006 .0229299
1092.590 .0229165
1093.175 .0229018
1093.760 .0228897
1094.345 .0228793
1094.930 .0228733
1095.516 .0228723
1096.102 .0228746
1096.688 .0228787
1097.274 .0228831
1097.860 .0228863
1098.447 .0228869
1099.034 .0228872
1099.622 .0228898
1100.209 .0228943
1100.797 .0229058
1101.385 .0229228
1101.973 .0229428
1102.562 .0229626
1103.151 .0229819
1103.740 .0229947
1104.330 .0230002
1104.920 .0229986
1105.510 .0229915
1106.101 .0229813
1106.691 .0229732
1107.283 .0229691
1107.874 .0229740
1108.466 .0229881
1109.058 .0230099
1109.651 .0230349
1110.244 .0230628
1110.837 .0230861
1111.431 .0231037
1112.025 .0231150
1112.620 .0231201
1113.215 .0231203
1113.810 .0231196
1114.406 .0231204
1115.002 .0231247
1115.599 .0231332
1116.196 .0231443
1116.793 .0231550
1117.391 .0231665
1117.989 .0231741
1118.588 .0231781
1119.187 .0231782
1119.787 .0231763
1120.387 .0231740
1120.988 .0231789
1121.589 .0231892
1122.190 .0232059
1122.793 .0232306
1123.395 .0232616
1123.998 .0232950
1124.602 .0233295
1125.206 .0233623
1125.811 .0233954
1126.416 .0234257
1127.022 .0234565
1127.628 .0234838
1128.235 .0235121
1128.843 .0235383
1129.451 .0235661
1130.059 .0235944
1130.669 .0236234
1131.278 .0236501
1131.889 .0236797
1132.500 .0237083
1133.112 .0237433
1133.724 .0237808
1134.337 .0238251
1134.950 .0238746
1135.564 .0239331
1136.179 .0239917
1136.795 .0240559
1137.411 .0241247
1138.028 .0241952
1138.645 .0242687
1139.263 .0243454
1139.882 .0244230
1140.502 .0245108
1141.122 .0245981
1141.743 .0246909
1142.365 .0247940
1142.987 .0248942
1143.611 .0251306
1144.235 .0249823
1144.859 .0251122
1145.485 .0255055
