Measurement Sequence started on: 10-20-44-796
Integration time: 35
Scans to Average: 2 
>>>>>Begin Spectral Data<<<<<
432.953 .0382419
433.882 .0419310
434.810 .0406490
435.737 .0399384
436.662 .0399486
437.586 .0398003
438.509 .0397301
439.431 .0395832
440.351 .0395116
441.269 .0394879
442.187 .0394678
443.103 .0394631
444.018 .0394329
444.932 .0394140
445.844 .0393646
446.756 .0392857
447.666 .0391862
448.575 .0390627
449.482 .0389353
450.388 .0388023
451.294 .0386650
452.198 .0385433
453.100 .0384258
454.002 .0383261
454.902 .0382275
455.801 .0381340
456.699 .0380475
457.596 .0379634
458.492 .0378852
459.387 .0378065
460.280 .0377375
461.172 .0376743
462.064 .0376201
462.954 .0375704
463.843 .0375159
464.730 .0374597
465.617 .0374005
466.503 .0373355
467.387 .0372637
468.271 .0371876
469.153 .0371083
470.035 .0370248
470.915 .0369417
471.794 .0368516
472.673 .0367621
473.550 .0366725
474.426 .0365868
475.301 .0365030
476.175 .0364271
477.048 .0363572
477.920 .0362920
478.791 .0362384
479.661 .0361915
480.530 .0361494
481.398 .0361166
482.266 .0360902
483.132 .0360719
483.997 .0360575
484.861 .0360496
485.724 .0360456
486.587 .0360451
487.448 .0360438
488.308 .0360367
489.168 .0360287
490.026 .0360160
490.884 .0360004
491.741 .0359816
492.597 .0359622
493.452 .0359406
494.306 .0359190
495.159 .0358967
496.011 .0358726
496.862 .0358445
497.713 .0358076
498.562 .0357593
499.411 .0357036
500.259 .0356362
501.106 .0355621
501.952 .0354823
502.798 .0354047
503.642 .0353261
504.486 .0352517
505.329 .0351787
506.171 .0351060
507.012 .0350332
507.852 .0349549
508.692 .0348648
509.531 .0347610
510.369 .0346414
511.206 .0345109
512.043 .0343740
512.878 .0342345
513.713 .0340922
514.547 .0339560
515.381 .0338261
516.213 .0337024
517.045 .0335767
517.876 .0334478
518.706 .0333158
519.536 .0331763
520.365 .0330314
521.193 .0328806
522.020 .0327316
522.847 .0325900
523.673 .0324531
524.498 .0323227
525.323 .0321922
526.146 .0320591
526.969 .0319238
527.792 .0317830
528.614 .0316285
529.435 .0314635
530.255 .0312891
531.075 .0311055
531.894 .0309176
532.712 .0307238
533.530 .0305281
534.347 .0303373
535.163 .0301508
535.979 .0299787
536.794 .0298274
537.608 .0297120
538.422 .0296248
539.235 .0295722
540.048 .0295501
540.860 .0295469
541.671 .0295595
542.481 .0295822
543.292 .0296124
544.101 .0296533
544.910 .0297022
545.718 .0297579
546.526 .0298279
547.333 .0299153
548.139 .0300102
548.945 .0301114
549.750 .0302067
550.555 .0302877
551.359 .0303471
552.162 .0303840
552.965 .0304052
553.768 .0304100
554.569 .0304175
555.371 .0304210
556.171 .0304327
556.972 .0304537
557.771 .0304809
558.570 .0305158
559.369 .0305571
560.167 .0306016
560.964 .0306453
561.761 .0306909
562.558 .0307433
563.354 .0308022
564.149 .0308713
564.944 .0309464
565.738 .0310269
566.532 .0311082
567.325 .0311903
568.118 .0312669
568.910 .0313412
569.702 .0314124
570.494 .0314832
571.285 .0315545
572.075 .0316252
572.865 .0316975
573.654 .0317661
574.443 .0318325
575.232 .0318944
576.020 .0319480
576.807 .0319962
577.594 .0320388
578.381 .0320771
579.167 .0321124
579.952 .0321482
580.738 .0321873
581.522 .0322263
582.307 .0322675
583.091 .0323097
583.874 .0323501
584.657 .0323882
585.440 .0324236
586.222 .0324537
587.004 .0324821
587.785 .0325063
588.566 .0325267
589.346 .0325445
590.126 .0325592
590.906 .0325711
591.685 .0325803
592.464 .0325866
593.242 .0325903
594.020 .0325904
594.797 .0325893
595.575 .0325864
596.351 .0325826
597.128 .0325789
597.904 .0325747
598.679 .0325704
599.454 .0325647
600.229 .0325573
601.004 .0325483
601.778 .0325370
602.551 .0325240
603.325 .0325099
604.097 .0324940
604.870 .0324771
605.642 .0324588
606.414 .0324396
607.185 .0324189
607.956 .0323968
608.727 .0323731
609.497 .0323489
610.267 .0323236
611.037 .0322979
611.806 .0322724
612.575 .0322479
613.344 .0322238
614.112 .0322001
614.880 .0321770
615.647 .0321547
616.414 .0321332
617.181 .0321131
617.948 .0320942
618.714 .0320777
619.480 .0320625
620.245 .0320491
621.011 .0320367
621.775 .0320251
622.540 .0320137
623.304 .0320017
624.068 .0319893
624.832 .0319762
625.595 .0319622
626.358 .0319473
627.120 .0319318
627.883 .0319159
628.645 .0318984
629.406 .0318797
630.168 .0318594
630.929 .0318379
631.689 .0318155
632.450 .0317922
633.210 .0317684
633.970 .0317445
634.729 .0317206
635.489 .0316955
636.248 .0316692
637.006 .0316415
637.765 .0316118
638.523 .0315802
639.280 .0315471
640.038 .0315127
640.795 .0314773
641.552 .0314426
642.309 .0314082
643.065 .0313748
643.821 .0313422
644.577 .0313105
645.332 .0312790
646.088 .0312482
646.843 .0312178
647.597 .0311878
648.352 .0311587
649.106 .0311317
649.860 .0311055
650.613 .0310810
651.367 .0310586
652.120 .0310379
652.872 .0310188
653.625 .0310017
654.377 .0309859
655.129 .0309718
655.881 .0309591
656.632 .0309477
657.384 .0309369
658.135 .0309275
658.885 .0309180
659.636 .0309084
660.386 .0308985
661.136 .0308887
661.885 .0308789
662.635 .0308697
663.384 .0308613
664.133 .0308536
664.881 .0308460
665.630 .0308385
666.378 .0308300
667.126 .0308207
667.874 .0308092
668.621 .0307959
669.368 .0307801
670.115 .0307617
670.862 .0307413
671.608 .0307199
672.354 .0306980
673.100 .0306762
673.846 .0306546
674.591 .0306325
675.337 .0306109
676.082 .0305893
676.826 .0305675
677.571 .0305461
678.315 .0305257
679.059 .0305061
679.803 .0304876
680.547 .0304713
681.290 .0304569
682.033 .0304441
682.776 .0304333
683.518 .0304228
684.261 .0304121
685.003 .0304010
685.745 .0303890
686.487 .0303767
687.228 .0303644
687.969 .0303516
688.710 .0303380
689.451 .0303240
690.192 .0303095
690.932 .0302940
691.672 .0302774
692.412 .0302595
693.152 .0302394
693.891 .0302179
694.630 .0301948
695.369 .0301709
696.108 .0301464
696.846 .0301225
697.585 .0300992
698.323 .0300763
699.061 .0300537
699.798 .0300313
700.536 .0300089
701.273 .0299866
702.010 .0299639
702.746 .0299406
703.483 .0299174
704.219 .0298949
704.955 .0298726
705.691 .0298520
706.427 .0298330
707.162 .0298158
707.897 .0298004
708.632 .0297864
709.367 .0297733
710.101 .0297604
710.835 .0297478
711.569 .0297345
712.303 .0297204
713.037 .0297057
713.770 .0296904
714.503 .0296752
715.236 .0296602
715.969 .0296452
716.702 .0296303
717.434 .0296155
718.166 .0295994
718.898 .0295816
719.629 .0295617
720.361 .0295396
721.092 .0295152
721.823 .0294885
722.554 .0294605
723.284 .0294319
724.014 .0294030
724.744 .0293743
725.474 .0293463
726.204 .0293199
726.933 .0292943
727.662 .0292698
728.391 .0292460
729.120 .0292229
729.849 .0292008
730.577 .0291803
731.305 .0291610
732.033 .0291441
732.760 .0291287
733.488 .0291153
734.215 .0291031
734.942 .0290922
735.669 .0290815
736.395 .0290710
737.122 .0290603
737.848 .0290490
738.573 .0290364
739.299 .0290229
740.024 .0290083
740.750 .0289933
741.474 .0289775
742.199 .0289611
742.924 .0289438
743.648 .0289264
744.372 .0289086
745.096 .0288911
745.819 .0288741
746.543 .0288576
747.266 .0288413
747.989 .0288253
748.711 .0288095
749.434 .0287940
750.156 .0287794
750.878 .0287655
751.599 .0287527
752.321 .0287415
753.042 .0287319
753.763 .0287242
754.484 .0287185
755.205 .0287136
755.925 .0287093
756.645 .0287050
757.365 .0286997
758.085 .0286933
758.804 .0286861
759.523 .0286776
760.242 .0286676
760.961 .0286571
761.679 .0286456
762.397 .0286326
763.115 .0286191
763.833 .0286040
764.551 .0285876
765.268 .0285696
765.985 .0285495
766.702 .0285278
767.418 .0285049
768.134 .0284816
768.850 .0284578
769.566 .0284343
770.282 .0284116
770.997 .0283898
771.712 .0283693
772.427 .0283502
773.142 .0283323
773.856 .0283153
774.570 .0282987
775.284 .0282822
775.998 .0282658
776.711 .0282496
777.424 .0282334
778.137 .0282173
778.849 .0282010
779.562 .0281850
780.274 .0281688
780.986 .0281529
781.697 .0281374
782.409 .0281223
783.120 .0281079
783.831 .0280943
784.541 .0280819
785.252 .0280707
785.962 .0280605
786.671 .0280512
787.381 .0280421
788.090 .0280334
788.799 .0280242
789.508 .0280144
790.217 .0280043
790.925 .0279940
791.633 .0279836
792.341 .0279733
793.048 .0279623
793.755 .0279506
794.462 .0279380
795.169 .0279240
795.875 .0279083
796.581 .0278910
797.287 .0278724
797.993 .0278528
798.698 .0278331
799.403 .0278140
800.108 .0277954
800.812 .0277785
801.517 .0277631
802.221 .0277489
802.924 .0277359
803.628 .0277242
804.331 .0277135
805.034 .0277042
805.736 .0276960
806.439 .0276888
807.141 .0276827
807.843 .0276777
808.544 .0276734
809.245 .0276690
809.946 .0276641
810.647 .0276582
811.347 .0276508
812.047 .0276420
812.747 .0276315
813.447 .0276196
814.146 .0276066
814.845 .0275934
815.543 .0275798
816.242 .0275665
816.940 .0275536
817.638 .0275412
818.335 .0275291
819.032 .0275170
819.729 .0275043
820.426 .0274910
821.122 .0274773
821.818 .0274636
822.514 .0274499
823.209 .0274366
823.905 .0274243
824.599 .0274121
825.294 .0274001
825.988 .0273881
826.682 .0273751
827.376 .0273614
828.069 .0273467
828.762 .0273310
829.455 .0273141
830.147 .0272969
830.840 .0272798
831.531 .0272632
832.223 .0272477
832.914 .0272326
833.605 .0272183
834.296 .0272054
834.986 .0271930
835.676 .0271814
836.366 .0271705
837.055 .0271604
837.744 .0271504
838.433 .0271408
839.121 .0271311
839.809 .0271215
840.497 .0271123
841.185 .0271034
841.872 .0270940
842.559 .0270850
843.245 .0270755
843.932 .0270656
844.617 .0270551
845.303 .0270442
845.988 .0270322
846.673 .0270198
847.358 .0270068
848.042 .0269939
848.726 .0269806
849.410 .0269678
850.093 .0269553
850.776 .0269431
851.459 .0269309
852.141 .0269178
852.823 .0269039
853.505 .0268896
854.186 .0268743
854.867 .0268593
855.548 .0268445
856.228 .0268311
856.908 .0268191
857.588 .0268082
858.267 .0267979
858.946 .0267885
859.625 .0267792
860.303 .0267696
860.981 .0267595
861.659 .0267487
862.336 .0267373
863.013 .0267261
863.690 .0267152
864.366 .0267046
865.042 .0266947
865.718 .0266852
866.393 .0266752
867.068 .0266648
867.743 .0266531
868.417 .0266399
869.091 .0266251
869.765 .0266098
870.438 .0265935
871.111 .0265773
871.783 .0265616
872.456 .0265468
873.127 .0265331
873.799 .0265199
874.470 .0265068
875.141 .0264935
875.811 .0264801
876.481 .0264663
877.151 .0264525
877.820 .0264402
878.489 .0264294
879.158 .0264206
879.826 .0264133
880.494 .0264073
881.162 .0264019
881.829 .0263962
882.496 .0263894
883.163 .0263815
883.829 .0263726
884.495 .0263626
885.160 .0263528
885.825 .0263440
886.490 .0263371
887.154 .0263315
887.818 .0263271
888.482 .0263230
889.145 .0263184
889.808 .0263126
890.471 .0263053
891.133 .0262970
891.795 .0262883
892.456 .0262797
893.117 .0262719
893.778 .0262651
894.439 .0262597
895.099 .0262550
895.758 .0262510
896.417 .0262468
897.076 .0262418
897.735 .0262358
898.393 .0262293
899.051 .0262228
899.708 .0262162
900.365 .0262098
901.022 .0262039
901.678 .0261982
902.334 .0261926
902.990 .0261868
903.645 .0261810
904.300 .0261755
904.954 .0261702
905.608 .0261649
906.262 .0261597
906.915 .0261547
907.568 .0261496
908.221 .0261435
908.873 .0261365
909.525 .0261283
910.176 .0261189
910.828 .0261091
911.478 .0260991
912.129 .0260891
912.778 .0260797
913.428 .0260708
914.077 .0260630
914.726 .0260553
915.375 .0260473
916.023 .0260389
916.670 .0260303
917.318 .0260215
917.964 .0260118
918.611 .0260019
919.257 .0259923
919.903 .0259823
920.548 .0259722
921.193 .0259619
921.838 .0259513
922.482 .0259408
923.126 .0259300
923.770 .0259190
924.413 .0259080
925.056 .0258966
925.698 .0258847
926.340 .0258721
926.982 .0258591
927.623 .0258453
928.264 .0258307
928.904 .0258163
929.544 .0258015
930.184 .0257871
930.823 .0257735
931.462 .0257607
932.101 .0257489
932.739 .0257375
933.377 .0257255
934.014 .0257129
934.651 .0256996
935.288 .0256852
935.924 .0256701
936.560 .0256550
937.196 .0256402
937.831 .0256257
938.466 .0256117
939.100 .0255983
939.734 .0255848
940.368 .0255714
941.001 .0255574
941.634 .0255428
942.266 .0255273
942.899 .0255111
943.530 .0254940
944.162 .0254766
944.793 .0254591
945.423 .0254409
946.053 .0254226
946.683 .0254041
947.313 .0253855
947.942 .0253665
948.571 .0253471
949.199 .0253273
949.827 .0253069
950.455 .0252864
951.082 .0252656
951.709 .0252453
952.335 .0252255
952.961 .0252070
953.587 .0251900
954.212 .0251749
954.837 .0251616
955.462 .0251497
956.086 .0251397
956.710 .0251306
957.334 .0251221
957.957 .0251141
958.579 .0251065
959.202 .0250992
959.824 .0250917
960.445 .0250842
961.067 .0250768
961.688 .0250701
962.308 .0250636
962.928 .0250572
963.548 .0250512
964.168 .0250440
964.787 .0250357
965.406 .0250260
966.024 .0250149
966.642 .0250022
967.260 .0249886
967.877 .0249747
968.494 .0249608
969.110 .0249470
969.727 .0249335
970.342 .0249205
970.958 .0249087
971.573 .0248971
972.188 .0248857
972.802 .0248747
973.416 .0248639
974.030 .0248528
974.643 .0248414
975.256 .0248295
975.869 .0248177
976.481 .0248058
977.093 .0247941
977.705 .0247832
978.316 .0247738
978.927 .0247660
979.538 .0247596
980.148 .0247546
980.758 .0247506
981.367 .0247470
981.977 .0247431
982.586 .0247386
983.194 .0247334
983.802 .0247282
984.410 .0247225
985.018 .0247174
985.625 .0247135
986.232 .0247108
986.838 .0247093
987.445 .0247086
988.050 .0247078
988.656 .0247066
989.261 .0247035
989.866 .0246981
990.471 .0246903
991.075 .0246812
991.679 .0246705
992.282 .0246598
992.886 .0246493
993.489 .0246393
994.091 .0246298
994.694 .0246210
995.296 .0246123
995.897 .0246032
996.499 .0245937
997.100 .0245839
997.701 .0245742
998.301 .0245658
998.901 .0245587
999.501 .0245539
1000.101 .0245522
1000.700 .0245533
1001.299 .0245559
1001.898 .0245599
1002.496 .0245646
1003.094 .0245691
1003.692 .0245727
1004.289 .0245747
1004.887 .0245758
1005.484 .0245763
1006.080 .0245768
1006.677 .0245773
1007.273 .0245774
1007.868 .0245779
1008.464 .0245781
1009.059 .0245770
1009.654 .0245748
1010.249 .0245719
1010.843 .0245679
1011.437 .0245634
1012.031 .0245586
1012.625 .0245540
1013.218 .0245495
1013.811 .0245463
1014.404 .0245443
1014.997 .0245428
1015.589 .0245421
1016.181 .0245414
1016.773 .0245409
1017.365 .0245413
1017.956 .0245406
1018.547 .0245391
1019.138 .0245371
1019.728 .0245342
1020.319 .0245300
1020.909 .0245250
1021.499 .0245195
1022.088 .0245136
1022.678 .0245068
1023.267 .0245006
1023.856 .0244942
1024.445 .0244886
1025.033 .0244835
1025.621 .0244791
1026.209 .0244756
1026.797 .0244719
1027.385 .0244674
1027.972 .0244630
1028.560 .0244586
1029.147 .0244541
1029.734 .0244491
1030.320 .0244446
1030.907 .0244407
1031.493 .0244378
1032.079 .0244356
1032.665 .0244348
1033.250 .0244353
1033.836 .0244366
1034.421 .0244387
1035.006 .0244417
1035.591 .0244460
1036.176 .0244507
1036.761 .0244561
1037.345 .0244624
1037.929 .0244692
1038.514 .0244755
1039.097 .0244817
1039.681 .0244883
1040.265 .0244950
1040.848 .0245009
1041.432 .0245063
1042.015 .0245118
1042.598 .0245172
1043.181 .0245214
1043.764 .0245247
1044.346 .0245265
1044.929 .0245269
1045.511 .0245246
1046.094 .0245196
1046.676 .0245138
1047.258 .0245064
1047.840 .0244986
1048.422 .0244913
1049.003 .0244854
1049.585 .0244803
1050.166 .0244752
1050.748 .0244710
1051.329 .0244668
1051.910 .0244624
1052.491 .0244581
1053.072 .0244542
1053.653 .0244507
1054.234 .0244486
1054.815 .0244466
1055.396 .0244459
1055.976 .0244456
1056.557 .0244439
1057.138 .0244413
1057.718 .0244377
1058.298 .0244326
1058.879 .0244253
1059.459 .0244175
1060.039 .0244106
1060.620 .0244032
1061.200 .0243974
1061.780 .0243911
1062.360 .0243847
1062.940 .0243781
1063.520 .0243702
1064.101 .0243593
1064.681 .0243470
1065.261 .0243326
1065.841 .0243166
1066.421 .0243004
1067.001 .0242846
1067.581 .0242690
1068.161 .0242552
1068.741 .0242444
1069.321 .0242354
1069.901 .0242281
1070.482 .0242240
1071.062 .0242196
1071.642 .0242156
1072.222 .0242109
1072.803 .0242039
1073.383 .0241961
1073.963 .0241881
1074.544 .0241813
1075.124 .0241755
1075.705 .0241714
1076.286 .0241707
1076.866 .0241718
1077.447 .0241746
1078.028 .0241768
1078.609 .0241755
1079.190 .0241719
1079.771 .0241654
1080.352 .0241556
1080.934 .0241448
1081.515 .0241352
1082.097 .0241277
1082.679 .0241213
1083.260 .0241164
1083.842 .0241133
1084.424 .0241102
1085.007 .0241073
1085.589 .0241053
1086.172 .0241016
1086.754 .0240993
1087.337 .0240986
1087.920 .0241006
1088.503 .0241079
1089.087 .0241192
1089.670 .0241336
1090.254 .0241497
1090.838 .0241651
1091.422 .0241782
1092.006 .0241862
1092.590 .0241922
1093.175 .0241945
1093.760 .0241928
1094.345 .0241885
1094.930 .0241818
1095.516 .0241753
1096.102 .0241709
1096.688 .0241673
1097.274 .0241662
1097.860 .0241661
1098.447 .0241669
1099.034 .0241670
1099.622 .0241657
1100.209 .0241635
1100.797 .0241594
1101.385 .0241508
1101.973 .0241388
1102.562 .0241236
1103.151 .0241081
1103.740 .0240935
1104.330 .0240827
1104.920 .0240769
1105.510 .0240762
1106.101 .0240784
1106.691 .0240825
1107.283 .0240868
1107.874 .0240913
1108.466 .0240932
1109.058 .0240929
1109.651 .0240923
1110.244 .0240931
1110.837 .0240979
1111.431 .0241090
1112.025 .0241281
1112.620 .0241548
1113.215 .0241860
1113.810 .0242207
1114.406 .0242555
1115.002 .0242883
1115.599 .0243169
1116.196 .0243395
1116.793 .0243568
1117.391 .0243681
1117.989 .0243725
1118.588 .0243737
1119.187 .0243711
1119.787 .0243654
1120.387 .0243557
1120.988 .0243435
1121.589 .0243303
1122.190 .0243163
1122.793 .0243056
1123.395 .0242957
1123.998 .0242921
1124.602 .0242928
1125.206 .0242957
1125.811 .0243030
1126.416 .0243134
1127.022 .0243242
1127.628 .0243370
1128.235 .0243519
1128.843 .0243674
1129.451 .0243839
1130.059 .0244048
1130.669 .0244303
1131.278 .0244649
1131.889 .0245061
1132.500 .0245526
1133.112 .0246032
1133.724 .0246567
1134.337 .0247064
1134.950 .0247511
1135.564 .0247914
1136.179 .0248251
1136.795 .0248558
1137.411 .0248869
1138.028 .0249208
1138.645 .0249632
1139.263 .0250143
1139.882 .0250623
1140.502 .0251134
1141.122 .0251654
1141.743 .0252189
1142.365 .0252754
1142.987 .0251433
1143.611 .0253060
1144.235 .0254376
1144.859 .0256092
1145.485 .0256967
