Measurement Sequence started on: 10-20-44-796
Integration time: 35
Scans to Average: 2 
>>>>>Begin Spectral Data<<<<<
432.953 .0358814
433.882 .0373549
434.810 .0341069
435.737 .0331942
436.662 .0327998
437.586 .0334980
438.509 .0332724
439.431 .0330786
440.351 .0330077
441.269 .0329504
442.187 .0328840
443.103 .0327979
444.018 .0327004
444.932 .0325940
445.844 .0324909
446.756 .0323934
447.666 .0322889
448.575 .0321744
449.482 .0320570
450.388 .0319380
451.294 .0318151
452.198 .0317046
453.100 .0316153
454.002 .0315541
454.902 .0315144
455.801 .0314932
456.699 .0314868
457.596 .0314960
458.492 .0315114
459.387 .0315281
460.280 .0315460
461.172 .0315743
462.064 .0316062
462.954 .0316428
463.843 .0316831
464.730 .0317268
465.617 .0317656
466.503 .0317986
467.387 .0318171
468.271 .0318113
469.153 .0317854
470.035 .0317405
470.915 .0316870
471.794 .0316271
472.673 .0315645
473.550 .0315021
474.426 .0314483
475.301 .0314014
476.175 .0313554
477.048 .0313114
477.920 .0312740
478.791 .0312355
479.661 .0311940
480.530 .0311543
481.398 .0311177
482.266 .0310901
483.132 .0310739
483.997 .0310631
484.861 .0310619
485.724 .0310639
486.587 .0310674
487.448 .0310688
488.308 .0310696
489.168 .0310673
490.026 .0310598
490.884 .0310528
491.741 .0310444
492.597 .0310329
493.452 .0310215
494.306 .0310078
495.159 .0309884
496.011 .0309579
496.862 .0309124
497.713 .0308496
498.562 .0307740
499.411 .0306860
500.259 .0305915
501.106 .0304976
501.952 .0304110
502.798 .0303333
503.642 .0302672
504.486 .0302133
505.329 .0301655
506.171 .0301196
507.012 .0300742
507.852 .0300224
508.692 .0299668
509.531 .0299082
510.369 .0298537
511.206 .0298041
512.043 .0297655
512.878 .0297314
513.713 .0297007
514.547 .0296663
515.381 .0296210
516.213 .0295550
517.045 .0294635
517.876 .0293439
518.706 .0291986
519.536 .0290313
520.365 .0288517
521.193 .0286584
522.020 .0284613
522.847 .0282587
523.673 .0280508
524.498 .0278263
525.323 .0275889
526.146 .0273391
526.969 .0270855
527.792 .0268345
528.614 .0265888
529.435 .0263564
530.255 .0261503
531.075 .0259615
531.894 .0257784
532.712 .0256034
533.530 .0254368
534.347 .0252677
535.163 .0251103
535.979 .0249748
536.794 .0248684
537.608 .0248019
538.422 .0247860
539.235 .0248134
540.048 .0248786
540.860 .0249675
541.671 .0250610
542.481 .0251559
543.292 .0252459
544.101 .0253116
544.910 .0253686
545.718 .0254311
546.526 .0255035
547.333 .0255816
548.139 .0256754
548.945 .0257791
549.750 .0258860
550.555 .0259868
551.359 .0260736
552.162 .0261467
552.965 .0262141
553.768 .0262714
554.569 .0263310
555.371 .0263958
556.171 .0264682
556.972 .0265443
557.771 .0266320
558.570 .0267190
559.369 .0267980
560.167 .0268686
560.964 .0269315
561.761 .0269847
562.558 .0270264
563.354 .0270591
564.149 .0270877
564.944 .0271130
565.738 .0271397
566.532 .0271653
567.325 .0271977
568.118 .0272380
568.910 .0272827
569.702 .0273327
570.494 .0273868
571.285 .0274440
572.075 .0275085
572.865 .0275780
573.654 .0276498
574.443 .0277204
575.232 .0277896
576.020 .0278592
576.807 .0279246
577.594 .0279884
578.381 .0280512
579.167 .0281128
579.952 .0281746
580.738 .0282352
581.522 .0282952
582.307 .0283548
583.091 .0284110
583.874 .0284625
584.657 .0285059
585.440 .0285449
586.222 .0285813
587.004 .0286139
587.785 .0286463
588.566 .0286788
589.346 .0287090
590.126 .0287405
590.906 .0287707
591.685 .0287993
592.464 .0288248
593.242 .0288476
594.020 .0288661
594.797 .0288807
595.575 .0288932
596.351 .0289025
597.128 .0289114
597.904 .0289196
598.679 .0289254
599.454 .0289275
600.229 .0289274
601.004 .0289235
601.778 .0289158
602.551 .0289065
603.325 .0288958
604.097 .0288845
604.870 .0288740
605.642 .0288638
606.414 .0288549
607.185 .0288456
607.956 .0288371
608.727 .0288270
609.497 .0288172
610.267 .0288069
611.037 .0287976
611.806 .0287900
612.575 .0287855
613.344 .0287826
614.112 .0287816
614.880 .0287817
615.647 .0287819
616.414 .0287810
617.181 .0287793
617.948 .0287754
618.714 .0287705
619.480 .0287647
620.245 .0287585
621.011 .0287512
621.775 .0287438
622.540 .0287353
623.304 .0287255
624.068 .0287141
624.832 .0287008
625.595 .0286852
626.358 .0286684
627.120 .0286501
627.883 .0286307
628.645 .0286119
629.406 .0285942
630.168 .0285775
630.929 .0285626
631.689 .0285492
632.450 .0285360
633.210 .0285239
633.970 .0285129
634.729 .0285020
635.489 .0284908
636.248 .0284787
637.006 .0284650
637.765 .0284496
638.523 .0284326
639.280 .0284140
640.038 .0283938
640.795 .0283729
641.552 .0283498
642.309 .0283248
643.065 .0282988
643.821 .0282718
644.577 .0282439
645.332 .0282162
646.088 .0281884
646.843 .0281618
647.597 .0281366
648.352 .0281138
649.106 .0280934
649.860 .0280758
650.613 .0280605
651.367 .0280470
652.120 .0280351
652.872 .0280251
653.625 .0280155
654.377 .0280079
655.129 .0280011
655.881 .0279942
656.632 .0279871
657.384 .0279798
658.135 .0279718
658.885 .0279628
659.636 .0279516
660.386 .0279391
661.136 .0279246
661.885 .0279094
662.635 .0278930
663.384 .0278764
664.133 .0278602
664.881 .0278444
665.630 .0278287
666.378 .0278138
667.126 .0277991
667.874 .0277848
668.621 .0277706
669.368 .0277564
670.115 .0277424
670.862 .0277288
671.608 .0277167
672.354 .0277063
673.100 .0276971
673.846 .0276894
674.591 .0276822
675.337 .0276751
676.082 .0276672
676.826 .0276575
677.571 .0276460
678.315 .0276322
679.059 .0276168
679.803 .0275999
680.547 .0275827
681.290 .0275659
682.033 .0275492
682.776 .0275325
683.518 .0275155
684.261 .0274979
685.003 .0274792
685.745 .0274598
686.487 .0274400
687.228 .0274207
687.969 .0274027
688.710 .0273864
689.451 .0273722
690.192 .0273603
690.932 .0273502
691.672 .0273406
692.412 .0273303
693.152 .0273188
693.891 .0273051
694.630 .0272904
695.369 .0272746
696.108 .0272585
696.846 .0272422
697.585 .0272264
698.323 .0272104
699.061 .0271951
699.798 .0271795
700.536 .0271630
701.273 .0271458
702.010 .0271281
702.746 .0271092
703.483 .0270910
704.219 .0270737
704.955 .0270582
705.691 .0270446
706.427 .0270328
707.162 .0270220
707.897 .0270123
708.632 .0270030
709.367 .0269938
710.101 .0269849
710.835 .0269761
711.569 .0269670
712.303 .0269587
713.037 .0269510
713.770 .0269441
714.503 .0269378
715.236 .0269327
715.969 .0269277
716.702 .0269228
717.434 .0269175
718.166 .0269112
718.898 .0269040
719.629 .0268960
720.361 .0268864
721.092 .0268758
721.823 .0268635
722.554 .0268498
723.284 .0268343
724.014 .0268173
724.744 .0267979
725.474 .0267763
726.204 .0267527
726.933 .0267277
727.662 .0267007
728.391 .0266735
729.120 .0266474
729.849 .0266230
730.577 .0266008
731.305 .0265813
732.033 .0265639
732.760 .0265489
733.488 .0265352
734.215 .0265223
734.942 .0265097
735.669 .0264982
736.395 .0264865
737.122 .0264752
737.848 .0264652
738.573 .0264564
739.299 .0264481
740.024 .0264410
740.750 .0264337
741.474 .0264250
742.199 .0264148
742.924 .0264027
743.648 .0263883
744.372 .0263725
745.096 .0263555
745.819 .0263376
746.543 .0263196
747.266 .0263019
747.989 .0262847
748.711 .0262682
749.434 .0262530
750.156 .0262388
750.878 .0262249
751.599 .0262125
752.321 .0262010
753.042 .0261908
753.763 .0261821
754.484 .0261748
755.205 .0261680
755.925 .0261615
756.645 .0261547
757.365 .0261468
758.085 .0261381
758.804 .0261291
759.523 .0261186
760.242 .0261072
760.961 .0260951
761.679 .0260821
762.397 .0260676
763.115 .0260524
763.833 .0260352
764.551 .0260166
765.268 .0259965
765.985 .0259745
766.702 .0259514
767.418 .0259279
768.134 .0259046
768.850 .0258817
769.566 .0258599
770.282 .0258392
770.997 .0258186
771.712 .0257989
772.427 .0257794
773.142 .0257596
773.856 .0257387
774.570 .0257169
775.284 .0256946
775.998 .0256715
776.711 .0256480
777.424 .0256250
778.137 .0256033
778.849 .0255826
779.562 .0255629
780.274 .0255437
780.986 .0255245
781.697 .0255055
782.409 .0254860
783.120 .0254665
783.831 .0254475
784.541 .0254296
785.252 .0254137
785.962 .0254007
786.671 .0253900
787.381 .0253811
788.090 .0253738
788.799 .0253673
789.508 .0253597
790.217 .0253502
790.925 .0253391
791.633 .0253261
792.341 .0253122
793.048 .0252975
793.755 .0252823
794.462 .0252674
795.169 .0252528
795.875 .0252380
796.581 .0252232
797.287 .0252080
797.993 .0251925
798.698 .0251770
799.403 .0251620
800.108 .0251472
800.812 .0251330
801.517 .0251196
802.221 .0251069
802.924 .0250940
803.628 .0250815
804.331 .0250695
805.034 .0250579
805.736 .0250468
806.439 .0250360
807.141 .0250261
807.843 .0250162
808.544 .0250062
809.245 .0249954
809.946 .0249836
810.647 .0249709
811.347 .0249573
812.047 .0249432
812.747 .0249303
813.447 .0249181
814.146 .0249074
814.845 .0248986
815.543 .0248913
816.242 .0248846
816.940 .0248788
817.638 .0248732
818.335 .0248680
819.032 .0248623
819.729 .0248571
820.426 .0248522
821.122 .0248475
821.818 .0248421
822.514 .0248358
823.209 .0248290
823.905 .0248215
824.599 .0248118
825.294 .0248011
825.988 .0247894
826.682 .0247772
827.376 .0247644
828.069 .0247512
828.762 .0247382
829.455 .0247251
830.147 .0247123
830.840 .0247000
831.531 .0246885
832.223 .0246788
832.914 .0246709
833.605 .0246646
834.296 .0246601
834.986 .0246566
835.676 .0246536
836.366 .0246510
837.055 .0246482
837.744 .0246441
838.433 .0246386
839.121 .0246322
839.809 .0246250
840.497 .0246175
841.185 .0246100
841.872 .0246023
842.559 .0245950
843.245 .0245875
843.932 .0245790
844.617 .0245696
845.303 .0245600
845.988 .0245496
846.673 .0245386
847.358 .0245275
848.042 .0245166
848.726 .0245067
849.410 .0244982
850.093 .0244912
850.776 .0244857
851.459 .0244813
852.141 .0244774
852.823 .0244736
853.505 .0244696
854.186 .0244656
854.867 .0244615
855.548 .0244571
856.228 .0244529
856.908 .0244491
857.588 .0244456
858.267 .0244427
858.946 .0244399
859.625 .0244373
860.303 .0244341
860.981 .0244309
861.659 .0244270
862.336 .0244231
863.013 .0244195
863.690 .0244159
864.366 .0244127
865.042 .0244098
865.718 .0244065
866.393 .0244028
867.068 .0243986
867.743 .0243942
868.417 .0243887
869.091 .0243829
869.765 .0243767
870.438 .0243705
871.111 .0243645
871.783 .0243584
872.456 .0243521
873.127 .0243457
873.799 .0243387
874.470 .0243307
875.141 .0243219
875.811 .0243126
876.481 .0243028
877.151 .0242924
877.820 .0242819
878.489 .0242717
879.158 .0242619
879.826 .0242527
880.494 .0242438
881.162 .0242349
881.829 .0242261
882.496 .0242168
883.163 .0242070
883.829 .0241965
884.495 .0241855
885.160 .0241746
885.825 .0241639
886.490 .0241539
887.154 .0241451
887.818 .0241376
888.482 .0241306
889.145 .0241237
889.808 .0241166
890.471 .0241079
891.133 .0240987
891.795 .0240884
892.456 .0240775
893.117 .0240661
893.778 .0240550
894.439 .0240453
895.099 .0240364
895.758 .0240288
896.417 .0240218
897.076 .0240152
897.735 .0240094
898.393 .0240033
899.051 .0239971
899.708 .0239916
900.365 .0239870
901.022 .0239829
901.678 .0239797
902.334 .0239777
902.990 .0239771
903.645 .0239779
904.300 .0239796
904.954 .0239818
905.608 .0239830
906.262 .0239840
906.915 .0239840
907.568 .0239823
908.221 .0239795
908.873 .0239757
909.525 .0239709
910.176 .0239653
910.828 .0239591
911.478 .0239525
912.129 .0239451
912.778 .0239377
913.428 .0239288
914.077 .0239185
914.726 .0239069
915.375 .0238942
916.023 .0238806
916.670 .0238674
917.318 .0238538
917.964 .0238402
918.611 .0238271
919.257 .0238145
919.903 .0238016
920.548 .0237890
921.193 .0237765
921.838 .0237651
922.482 .0237539
923.126 .0237436
923.770 .0237335
924.413 .0237241
925.056 .0237153
925.698 .0237072
926.340 .0236992
926.982 .0236917
927.623 .0236844
928.264 .0236782
928.904 .0236717
929.544 .0236652
930.184 .0236583
930.823 .0236501
931.462 .0236399
932.101 .0236276
932.739 .0236125
933.377 .0235951
934.014 .0235763
934.651 .0235567
935.288 .0235362
935.924 .0235159
936.560 .0234953
937.196 .0234750
937.831 .0234545
938.466 .0234337
939.100 .0234115
939.734 .0233893
940.368 .0233670
941.001 .0233446
941.634 .0233229
942.266 .0233025
942.899 .0232832
943.530 .0232651
944.162 .0232479
944.793 .0232303
945.423 .0232111
946.053 .0231908
946.683 .0231681
947.313 .0231433
947.942 .0231164
948.571 .0230885
949.199 .0230600
949.827 .0230315
950.455 .0230040
951.082 .0229774
951.709 .0229522
952.335 .0229279
952.961 .0229044
953.587 .0228813
954.212 .0228583
954.837 .0228356
955.462 .0228133
956.086 .0227922
956.710 .0227724
957.334 .0227538
957.957 .0227362
958.579 .0227197
959.202 .0227035
959.824 .0226869
960.445 .0226706
961.067 .0226538
961.688 .0226367
962.308 .0226196
962.928 .0226029
963.548 .0225862
964.168 .0225694
964.787 .0225531
965.406 .0225363
966.024 .0225193
966.642 .0225026
967.260 .0224864
967.877 .0224715
968.494 .0224585
969.110 .0224472
969.727 .0224370
970.342 .0224279
970.958 .0224190
971.573 .0224101
972.188 .0224010
972.802 .0223919
973.416 .0223825
974.030 .0223731
974.643 .0223650
975.256 .0223569
975.869 .0223502
976.481 .0223442
977.093 .0223383
977.705 .0223322
978.316 .0223254
978.927 .0223182
979.538 .0223108
980.148 .0223035
980.758 .0222966
981.367 .0222900
981.977 .0222842
982.586 .0222781
983.194 .0222721
983.802 .0222661
984.410 .0222594
985.018 .0222516
985.625 .0222433
986.232 .0222341
986.838 .0222245
987.445 .0222156
988.050 .0222069
988.656 .0221991
989.261 .0221919
989.866 .0221846
990.471 .0221772
991.075 .0221695
991.679 .0221611
992.282 .0221516
992.886 .0221427
993.489 .0221339
994.091 .0221255
994.694 .0221192
995.296 .0221142
995.897 .0221112
996.499 .0221095
997.100 .0221089
997.701 .0221080
998.301 .0221075
998.901 .0221063
999.501 .0221041
1000.101 .0221022
1000.700 .0221000
1001.299 .0220977
1001.898 .0220960
1002.496 .0220941
1003.094 .0220922
1003.692 .0220897
1004.289 .0220873
1004.887 .0220834
1005.484 .0220795
1006.080 .0220754
1006.677 .0220717
1007.273 .0220686
1007.868 .0220669
1008.464 .0220670
1009.059 .0220692
1009.654 .0220733
1010.249 .0220783
1010.843 .0220844
1011.437 .0220913
1012.031 .0220973
1012.625 .0221026
1013.218 .0221068
1013.811 .0221113
1014.404 .0221147
1014.997 .0221184
1015.589 .0221221
1016.181 .0221266
1016.773 .0221308
1017.365 .0221351
1017.956 .0221387
1018.547 .0221422
1019.138 .0221447
1019.728 .0221470
1020.319 .0221496
1020.909 .0221530
1021.499 .0221566
1022.088 .0221621
1022.678 .0221689
1023.267 .0221776
1023.856 .0221854
1024.445 .0221941
1025.033 .0222016
1025.621 .0222086
1026.209 .0222141
1026.797 .0222187
1027.385 .0222219
1027.972 .0222245
1028.560 .0222252
1029.147 .0222251
1029.734 .0222246
1030.320 .0222233
1030.907 .0222207
1031.493 .0222184
1032.079 .0222158
1032.665 .0222133
1033.250 .0222110
1033.836 .0222095
1034.421 .0222081
1035.006 .0222078
1035.591 .0222068
1036.176 .0222055
1036.761 .0222057
1037.345 .0222063
1037.929 .0222079
1038.514 .0222105
1039.097 .0222139
1039.681 .0222174
1040.265 .0222210
1040.848 .0222245
1041.432 .0222270
1042.015 .0222297
1042.598 .0222320
1043.181 .0222351
1043.764 .0222399
1044.346 .0222463
1044.929 .0222548
1045.511 .0222647
1046.094 .0222748
1046.676 .0222839
1047.258 .0222913
1047.840 .0222973
1048.422 .0223027
1049.003 .0223084
1049.585 .0223134
1050.166 .0223201
1050.748 .0223295
1051.329 .0223405
1051.910 .0223529
1052.491 .0223652
1053.072 .0223741
1053.653 .0223793
1054.234 .0223802
1054.815 .0223767
1055.396 .0223704
1055.976 .0223638
1056.557 .0223567
1057.138 .0223508
1057.718 .0223469
1058.298 .0223437
1058.879 .0223392
1059.459 .0223339
1060.039 .0223258
1060.620 .0223136
1061.200 .0222998
1061.780 .0222852
1062.360 .0222727
1062.940 .0222663
1063.520 .0222655
1064.101 .0222705
1064.681 .0222800
1065.261 .0222942
1065.841 .0223086
1066.421 .0223218
1067.001 .0223350
1067.581 .0223461
1068.161 .0223560
1068.741 .0223663
1069.321 .0223776
1069.901 .0223916
1070.482 .0224075
1071.062 .0224248
1071.642 .0224416
1072.222 .0224568
1072.803 .0224662
1073.383 .0224709
1073.963 .0224706
1074.544 .0224655
1075.124 .0224557
1075.705 .0224454
1076.286 .0224369
1076.866 .0224312
1077.447 .0224283
1078.028 .0224291
1078.609 .0224327
1079.190 .0224395
1079.771 .0224450
1080.352 .0224495
1080.934 .0224515
1081.515 .0224500
1082.097 .0224454
1082.679 .0224403
1083.260 .0224348
1083.842 .0224323
1084.424 .0224318
1085.007 .0224343
1085.589 .0224370
1086.172 .0224414
1086.754 .0224446
1087.337 .0224460
1087.920 .0224440
1088.503 .0224381
1089.087 .0224298
1089.670 .0224219
1090.254 .0224158
1090.838 .0224130
1091.422 .0224125
1092.006 .0224157
1092.590 .0224185
1093.175 .0224210
1093.760 .0224218
1094.345 .0224215
1094.930 .0224210
1095.516 .0224233
1096.102 .0224270
1096.688 .0224319
1097.274 .0224410
1097.860 .0224542
1098.447 .0224693
1099.034 .0224855
1099.622 .0225033
1100.209 .0225208
1100.797 .0225414
1101.385 .0225627
1101.973 .0225860
1102.562 .0226136
1103.151 .0226454
1103.740 .0226765
1104.330 .0227053
1104.920 .0227297
1105.510 .0227461
1106.101 .0227539
1106.691 .0227540
1107.283 .0227463
1107.874 .0227350
1108.466 .0227199
1109.058 .0227053
1109.651 .0226884
1110.244 .0226728
1110.837 .0226541
1111.431 .0226342
1112.025 .0226127
1112.620 .0225879
1113.215 .0225608
1113.810 .0225367
1114.406 .0225211
1115.002 .0225128
1115.599 .0225115
1116.196 .0225161
1116.793 .0225239
1117.391 .0225334
1117.989 .0225373
1118.588 .0225396
1119.187 .0225363
1119.787 .0225287
1120.387 .0225157
1120.988 .0225018
1121.589 .0224917
1122.190 .0224836
1122.793 .0224807
1123.395 .0224802
1123.998 .0224799
1124.602 .0224828
1125.206 .0224855
1125.811 .0224934
1126.416 .0225106
1127.022 .0225404
1127.628 .0225798
1128.235 .0226326
1128.843 .0226933
1129.451 .0227561
1130.059 .0228195
1130.669 .0228781
1131.278 .0229286
1131.889 .0229730
1132.500 .0230125
1133.112 .0230501
1133.724 .0230908
1134.337 .0231378
1134.950 .0231840
1135.564 .0232348
1136.179 .0232831
1136.795 .0233222
1137.411 .0233493
1138.028 .0233652
1138.645 .0233741
1139.263 .0233808
1139.882 .0233840
1140.502 .0233952
1141.122 .0234089
1141.743 .0234382
1142.365 .0234653
1142.987 .0235023
1143.611 .0236756
1144.235 .0234647
1144.859 .0236881
1145.485 .0234996
