Measurement Sequence started on: 10-20-44-796
Integration time: 35
Scans to Average: 2 
>>>>>Begin Spectral Data<<<<<
432.953 .0518254
433.882 .0497319
434.810 .0442012
435.737 .0415460
436.662 .0402817
437.586 .0410825
438.509 .0401905
439.431 .0396508
440.351 .0394494
441.269 .0394105
442.187 .0394566
443.103 .0395650
444.018 .0396963
444.932 .0398170
445.844 .0399410
446.756 .0400870
447.666 .0402319
448.575 .0403571
449.482 .0404639
450.388 .0405546
451.294 .0406354
452.198 .0407053
453.100 .0407678
454.002 .0408361
454.902 .0409008
455.801 .0409668
456.699 .0410261
457.596 .0410792
458.492 .0411265
459.387 .0411580
460.280 .0411768
461.172 .0411782
462.064 .0411670
462.954 .0411453
463.843 .0411111
464.730 .0410669
465.617 .0410142
466.503 .0409524
467.387 .0408774
468.271 .0407895
469.153 .0406903
470.035 .0405795
470.915 .0404637
471.794 .0403439
472.673 .0402251
473.550 .0401118
474.426 .0400051
475.301 .0399074
476.175 .0398166
477.048 .0397341
477.920 .0396580
478.791 .0395870
479.661 .0395195
480.530 .0394533
481.398 .0393865
482.266 .0393249
483.132 .0392697
483.997 .0392184
484.861 .0391715
485.724 .0391322
486.587 .0390987
487.448 .0390690
488.308 .0390405
489.168 .0390126
490.026 .0389816
490.884 .0389496
491.741 .0389120
492.597 .0388720
493.452 .0388321
494.306 .0387936
495.159 .0387567
496.011 .0387240
496.862 .0386928
497.713 .0386598
498.562 .0386231
499.411 .0385821
500.259 .0385311
501.106 .0384722
501.952 .0384041
502.798 .0383314
503.642 .0382534
504.486 .0381726
505.329 .0380919
506.171 .0380122
507.012 .0379314
507.852 .0378493
508.692 .0377608
509.531 .0376674
510.369 .0375639
511.206 .0374531
512.043 .0373307
512.878 .0371996
513.713 .0370606
514.547 .0369145
515.381 .0367611
516.213 .0366026
517.045 .0364337
517.876 .0362606
518.706 .0360822
519.536 .0359003
520.365 .0357114
521.193 .0355185
522.020 .0353161
522.847 .0351074
523.673 .0348888
524.498 .0346613
525.323 .0344262
526.146 .0341936
526.969 .0339695
527.792 .0337547
528.614 .0335509
529.435 .0333666
530.255 .0331939
531.075 .0330273
531.894 .0328617
532.712 .0326961
533.530 .0325296
534.347 .0323649
535.163 .0322048
535.979 .0320646
536.794 .0319531
537.608 .0318751
538.422 .0318280
539.235 .0318116
540.048 .0318219
540.860 .0318455
541.671 .0318807
542.481 .0319198
543.292 .0319547
544.101 .0319876
544.910 .0320171
545.718 .0320484
546.526 .0320823
547.333 .0321177
548.139 .0321572
548.945 .0321940
549.750 .0322252
550.555 .0322486
551.359 .0322651
552.162 .0322774
552.965 .0322829
553.768 .0322820
554.569 .0322806
555.371 .0322782
556.171 .0322749
556.972 .0322708
557.771 .0322692
558.570 .0322720
559.369 .0322784
560.167 .0322909
560.964 .0323090
561.761 .0323361
562.558 .0323706
563.354 .0324133
564.149 .0324604
564.944 .0325098
565.738 .0325589
566.532 .0326092
567.325 .0326610
568.118 .0327151
568.910 .0327731
569.702 .0328386
570.494 .0329130
571.285 .0329951
572.075 .0330783
572.865 .0331642
573.654 .0332486
574.443 .0333270
575.232 .0333926
576.020 .0334477
576.807 .0334938
577.594 .0335317
578.381 .0335630
579.167 .0335886
579.952 .0336134
580.738 .0336382
581.522 .0336615
582.307 .0336839
583.091 .0337055
583.874 .0337249
584.657 .0337403
585.440 .0337532
586.222 .0337613
587.004 .0337646
587.785 .0337648
588.566 .0337639
589.346 .0337615
590.126 .0337568
590.906 .0337514
591.685 .0337457
592.464 .0337401
593.242 .0337324
594.020 .0337227
594.797 .0337122
595.575 .0337006
596.351 .0336870
597.128 .0336708
597.904 .0336527
598.679 .0336330
599.454 .0336112
600.229 .0335886
601.004 .0335656
601.778 .0335424
602.551 .0335195
603.325 .0334968
604.097 .0334742
604.870 .0334515
605.642 .0334285
606.414 .0334055
607.185 .0333819
607.956 .0333583
608.727 .0333350
609.497 .0333125
610.267 .0332917
611.037 .0332719
611.806 .0332527
612.575 .0332338
613.344 .0332145
614.112 .0331940
614.880 .0331721
615.647 .0331487
616.414 .0331242
617.181 .0330986
617.948 .0330726
618.714 .0330470
619.480 .0330227
620.245 .0330003
621.011 .0329788
621.775 .0329581
622.540 .0329380
623.304 .0329180
624.068 .0328981
624.832 .0328780
625.595 .0328583
626.358 .0328392
627.120 .0328205
627.883 .0328019
628.645 .0327835
629.406 .0327650
630.168 .0327456
630.929 .0327248
631.689 .0327021
632.450 .0326768
633.210 .0326493
633.970 .0326190
634.729 .0325863
635.489 .0325516
636.248 .0325148
637.006 .0324760
637.765 .0324359
638.523 .0323946
639.280 .0323523
640.038 .0323098
640.795 .0322675
641.552 .0322251
642.309 .0321833
643.065 .0321423
643.821 .0321022
644.577 .0320632
645.332 .0320245
646.088 .0319858
646.843 .0319477
647.597 .0319094
648.352 .0318709
649.106 .0318329
649.860 .0317953
650.613 .0317585
651.367 .0317223
652.120 .0316869
652.872 .0316520
653.625 .0316182
654.377 .0315851
655.129 .0315521
655.881 .0315201
656.632 .0314885
657.384 .0314573
658.135 .0314269
658.885 .0313970
659.636 .0313676
660.386 .0313393
661.136 .0313113
661.885 .0312845
662.635 .0312593
663.384 .0312353
664.133 .0312124
664.881 .0311904
665.630 .0311696
666.378 .0311492
667.126 .0311292
667.874 .0311083
668.621 .0310870
669.368 .0310657
670.115 .0310436
670.862 .0310210
671.608 .0309992
672.354 .0309785
673.100 .0309589
673.846 .0309412
674.591 .0309238
675.337 .0309075
676.082 .0308919
676.826 .0308759
677.571 .0308589
678.315 .0308414
679.059 .0308234
679.803 .0308054
680.547 .0307885
681.290 .0307722
682.033 .0307563
682.776 .0307414
683.518 .0307265
684.261 .0307109
685.003 .0306947
685.745 .0306782
686.487 .0306616
687.228 .0306459
687.969 .0306302
688.710 .0306148
689.451 .0306004
690.192 .0305864
690.932 .0305720
691.672 .0305564
692.412 .0305397
693.152 .0305223
693.891 .0305042
694.630 .0304859
695.369 .0304677
696.108 .0304504
696.846 .0304345
697.585 .0304191
698.323 .0304038
699.061 .0303886
699.798 .0303731
700.536 .0303577
701.273 .0303421
702.010 .0303267
702.746 .0303126
703.483 .0303000
704.219 .0302888
704.955 .0302790
705.691 .0302703
706.427 .0302618
707.162 .0302532
707.897 .0302441
708.632 .0302342
709.367 .0302230
710.101 .0302113
710.835 .0301987
711.569 .0301852
712.303 .0301708
713.037 .0301547
713.770 .0301372
714.503 .0301181
715.236 .0300970
715.969 .0300736
716.702 .0300491
717.434 .0300239
718.166 .0299977
718.898 .0299714
719.629 .0299454
720.361 .0299200
721.092 .0298953
721.823 .0298715
722.554 .0298478
723.284 .0298242
724.014 .0298003
724.744 .0297753
725.474 .0297494
726.204 .0297225
726.933 .0296949
727.662 .0296666
728.391 .0296382
729.120 .0296097
729.849 .0295817
730.577 .0295542
731.305 .0295271
732.033 .0295002
732.760 .0294732
733.488 .0294462
734.215 .0294188
734.942 .0293909
735.669 .0293630
736.395 .0293349
737.122 .0293077
737.848 .0292810
738.573 .0292557
739.299 .0292312
740.024 .0292076
740.750 .0291843
741.474 .0291611
742.199 .0291372
742.924 .0291130
743.648 .0290886
744.372 .0290641
745.096 .0290400
745.819 .0290169
746.543 .0289947
747.266 .0289746
747.989 .0289556
748.711 .0289379
749.434 .0289204
750.156 .0289039
750.878 .0288874
751.599 .0288716
752.321 .0288564
753.042 .0288426
753.763 .0288301
754.484 .0288193
755.205 .0288094
755.925 .0288004
756.645 .0287918
757.365 .0287831
758.085 .0287731
758.804 .0287621
759.523 .0287488
760.242 .0287340
760.961 .0287176
761.679 .0287000
762.397 .0286809
763.115 .0286614
763.833 .0286409
764.551 .0286198
765.268 .0285981
765.985 .0285757
766.702 .0285529
767.418 .0285299
768.134 .0285063
768.850 .0284825
769.566 .0284587
770.282 .0284351
770.997 .0284120
771.712 .0283898
772.427 .0283686
773.142 .0283485
773.856 .0283299
774.570 .0283120
775.284 .0282950
775.998 .0282786
776.711 .0282626
777.424 .0282474
778.137 .0282331
778.849 .0282192
779.562 .0282062
780.274 .0281943
780.986 .0281834
781.697 .0281738
782.409 .0281654
783.120 .0281582
783.831 .0281523
784.541 .0281476
785.252 .0281438
785.962 .0281408
786.671 .0281387
787.381 .0281370
788.090 .0281354
788.799 .0281337
789.508 .0281314
790.217 .0281289
790.925 .0281261
791.633 .0281232
792.341 .0281202
793.048 .0281175
793.755 .0281145
794.462 .0281110
795.169 .0281073
795.875 .0281028
796.581 .0280977
797.287 .0280921
797.993 .0280865
798.698 .0280813
799.403 .0280770
800.108 .0280740
800.812 .0280721
801.517 .0280710
802.221 .0280705
802.924 .0280699
803.628 .0280691
804.331 .0280681
805.034 .0280667
805.736 .0280646
806.439 .0280627
807.141 .0280608
807.843 .0280590
808.544 .0280572
809.245 .0280551
809.946 .0280524
810.647 .0280491
811.347 .0280452
812.047 .0280406
812.747 .0280366
813.447 .0280324
814.146 .0280281
814.845 .0280246
815.543 .0280218
816.242 .0280199
816.940 .0280188
817.638 .0280185
818.335 .0280184
819.032 .0280185
819.729 .0280183
820.426 .0280173
821.122 .0280158
821.818 .0280131
822.514 .0280093
823.209 .0280042
823.905 .0279985
824.599 .0279915
825.294 .0279842
825.988 .0279763
826.682 .0279675
827.376 .0279573
828.069 .0279457
828.762 .0279326
829.455 .0279178
830.147 .0279020
830.840 .0278854
831.531 .0278687
832.223 .0278527
832.914 .0278379
833.605 .0278243
834.296 .0278122
834.986 .0278014
835.676 .0277914
836.366 .0277821
837.055 .0277729
837.744 .0277640
838.433 .0277556
839.121 .0277479
839.809 .0277409
840.497 .0277347
841.185 .0277295
841.872 .0277241
842.559 .0277187
843.245 .0277126
843.932 .0277055
844.617 .0276969
845.303 .0276871
845.988 .0276763
846.673 .0276648
847.358 .0276533
848.042 .0276418
848.726 .0276309
849.410 .0276202
850.093 .0276091
850.776 .0275972
851.459 .0275842
852.141 .0275697
852.823 .0275539
853.505 .0275376
854.186 .0275206
854.867 .0275040
855.548 .0274884
856.228 .0274739
856.908 .0274608
857.588 .0274485
858.267 .0274369
858.946 .0274251
859.625 .0274128
860.303 .0273996
860.981 .0273856
861.659 .0273711
862.336 .0273560
863.013 .0273407
863.690 .0273251
864.366 .0273095
865.042 .0272937
865.718 .0272775
866.393 .0272605
867.068 .0272425
867.743 .0272235
868.417 .0272034
869.091 .0271823
869.765 .0271600
870.438 .0271368
871.111 .0271132
871.783 .0270894
872.456 .0270654
873.127 .0270419
873.799 .0270191
874.470 .0269969
875.141 .0269750
875.811 .0269536
876.481 .0269324
877.151 .0269122
877.820 .0268926
878.489 .0268737
879.158 .0268557
879.826 .0268387
880.494 .0268223
881.162 .0268068
881.829 .0267920
882.496 .0267770
883.163 .0267613
883.829 .0267451
884.495 .0267277
885.160 .0267100
885.825 .0266920
886.490 .0266746
887.154 .0266577
887.818 .0266415
888.482 .0266254
889.145 .0266095
889.808 .0265938
890.471 .0265777
891.133 .0265608
891.795 .0265433
892.456 .0265251
893.117 .0265067
893.778 .0264887
894.439 .0264714
895.099 .0264547
895.758 .0264394
896.417 .0264247
897.076 .0264107
897.735 .0263975
898.393 .0263847
899.051 .0263726
899.708 .0263609
900.365 .0263493
901.022 .0263377
901.678 .0263260
902.334 .0263144
902.990 .0263026
903.645 .0262905
904.300 .0262788
904.954 .0262665
905.608 .0262543
906.262 .0262418
906.915 .0262292
907.568 .0262165
908.221 .0262036
908.873 .0261905
909.525 .0261771
910.176 .0261636
910.828 .0261502
911.478 .0261369
912.129 .0261238
912.778 .0261105
913.428 .0260973
914.077 .0260841
914.726 .0260714
915.375 .0260588
916.023 .0260472
916.670 .0260369
917.318 .0260277
917.964 .0260195
918.611 .0260118
919.257 .0260045
919.903 .0259967
920.548 .0259883
921.193 .0259789
921.838 .0259689
922.482 .0259586
923.126 .0259487
923.770 .0259396
924.413 .0259312
925.056 .0259237
925.698 .0259172
926.340 .0259106
926.982 .0259039
927.623 .0258965
928.264 .0258887
928.904 .0258802
929.544 .0258717
930.184 .0258631
930.823 .0258549
931.462 .0258477
932.101 .0258409
932.739 .0258339
933.377 .0258269
934.014 .0258189
934.651 .0258102
935.288 .0258004
935.924 .0257899
936.560 .0257782
937.196 .0257664
937.831 .0257540
938.466 .0257416
939.100 .0257292
939.734 .0257165
940.368 .0257033
941.001 .0256896
941.634 .0256754
942.266 .0256610
942.899 .0256465
943.530 .0256330
944.162 .0256198
944.793 .0256075
945.423 .0255958
946.053 .0255849
946.683 .0255745
947.313 .0255643
947.942 .0255540
948.571 .0255437
949.199 .0255329
949.827 .0255221
950.455 .0255114
951.082 .0255014
951.709 .0254922
952.335 .0254835
952.961 .0254750
953.587 .0254666
954.212 .0254580
954.837 .0254494
955.462 .0254406
956.086 .0254321
956.710 .0254242
957.334 .0254171
957.957 .0254114
958.579 .0254071
959.202 .0254044
959.824 .0254032
960.445 .0254030
961.067 .0254034
961.688 .0254041
962.308 .0254051
962.928 .0254069
963.548 .0254086
964.168 .0254106
964.787 .0254124
965.406 .0254143
966.024 .0254162
966.642 .0254174
967.260 .0254183
967.877 .0254179
968.494 .0254167
969.110 .0254142
969.727 .0254102
970.342 .0254057
970.958 .0254004
971.573 .0253952
972.188 .0253906
972.802 .0253866
973.416 .0253833
974.030 .0253806
974.643 .0253787
975.256 .0253770
975.869 .0253755
976.481 .0253738
977.093 .0253730
977.705 .0253736
978.316 .0253760
978.927 .0253804
979.538 .0253872
980.148 .0253961
980.758 .0254057
981.367 .0254157
981.977 .0254251
982.586 .0254336
983.194 .0254414
983.802 .0254481
984.410 .0254544
985.018 .0254605
985.625 .0254667
986.232 .0254724
986.838 .0254778
987.445 .0254817
988.050 .0254831
988.656 .0254823
989.261 .0254792
989.866 .0254733
990.471 .0254657
991.075 .0254569
991.679 .0254482
992.282 .0254402
992.886 .0254330
993.489 .0254265
994.091 .0254217
994.694 .0254180
995.296 .0254148
995.897 .0254121
996.499 .0254102
997.100 .0254084
997.701 .0254075
998.301 .0254075
998.901 .0254087
999.501 .0254118
1000.101 .0254168
1000.700 .0254228
1001.299 .0254292
1001.898 .0254351
1002.496 .0254398
1003.094 .0254430
1003.692 .0254443
1004.289 .0254427
1004.887 .0254400
1005.484 .0254366
1006.080 .0254330
1006.677 .0254297
1007.273 .0254272
1007.868 .0254258
1008.464 .0254250
1009.059 .0254243
1009.654 .0254231
1010.249 .0254218
1010.843 .0254204
1011.437 .0254193
1012.031 .0254184
1012.625 .0254181
1013.218 .0254185
1013.811 .0254199
1014.404 .0254221
1014.997 .0254249
1015.589 .0254274
1016.181 .0254297
1016.773 .0254315
1017.365 .0254326
1017.956 .0254327
1018.547 .0254325
1019.138 .0254319
1019.728 .0254310
1020.319 .0254296
1020.909 .0254285
1021.499 .0254272
1022.088 .0254265
1022.678 .0254252
1023.267 .0254232
1023.856 .0254201
1024.445 .0254165
1025.033 .0254109
1025.621 .0254045
1026.209 .0253978
1026.797 .0253909
1027.385 .0253847
1027.972 .0253801
1028.560 .0253772
1029.147 .0253763
1029.734 .0253776
1030.320 .0253800
1030.907 .0253823
1031.493 .0253853
1032.079 .0253874
1032.665 .0253889
1033.250 .0253899
1033.836 .0253906
1034.421 .0253914
1035.006 .0253922
1035.591 .0253933
1036.176 .0253939
1036.761 .0253949
1037.345 .0253956
1037.929 .0253946
1038.514 .0253915
1039.097 .0253858
1039.681 .0253772
1040.265 .0253654
1040.848 .0253508
1041.432 .0253342
1042.015 .0253157
1042.598 .0252973
1043.181 .0252792
1043.764 .0252634
1044.346 .0252492
1044.929 .0252378
1045.511 .0252275
1046.094 .0252177
1046.676 .0252069
1047.258 .0251949
1047.840 .0251807
1048.422 .0251653
1049.003 .0251490
1049.585 .0251333
1050.166 .0251184
1050.748 .0251067
1051.329 .0250974
1051.910 .0250911
1052.491 .0250855
1053.072 .0250803
1053.653 .0250732
1054.234 .0250640
1054.815 .0250513
1055.396 .0250366
1055.976 .0250206
1056.557 .0250041
1057.138 .0249869
1057.718 .0249706
1058.298 .0249549
1058.879 .0249411
1059.459 .0249272
1060.039 .0249144
1060.620 .0248999
1061.200 .0248845
1061.780 .0248676
1062.360 .0248495
1062.940 .0248315
1063.520 .0248140
1064.101 .0247975
1064.681 .0247830
1065.261 .0247702
1065.841 .0247590
1066.421 .0247483
1067.001 .0247389
1067.581 .0247294
1068.161 .0247196
1068.741 .0247091
1069.321 .0246990
1069.901 .0246896
1070.482 .0246826
1071.062 .0246774
1071.642 .0246722
1072.222 .0246685
1072.803 .0246648
1073.383 .0246611
1073.963 .0246568
1074.544 .0246530
1075.124 .0246503
1075.705 .0246474
1076.286 .0246456
1076.866 .0246431
1077.447 .0246409
1078.028 .0246384
1078.609 .0246339
1079.190 .0246267
1079.771 .0246178
1080.352 .0246062
1080.934 .0245926
1081.515 .0245803
1082.097 .0245684
1082.679 .0245577
1083.260 .0245481
1083.842 .0245384
1084.424 .0245277
1085.007 .0245141
1085.589 .0244986
1086.172 .0244795
1086.754 .0244597
1087.337 .0244393
1087.920 .0244198
1088.503 .0244044
1089.087 .0243913
1089.670 .0243806
1090.254 .0243720
1090.838 .0243624
1091.422 .0243508
1092.006 .0243361
1092.590 .0243175
1093.175 .0242939
1093.760 .0242660
1094.345 .0242340
1094.930 .0242005
1095.516 .0241669
1096.102 .0241355
1096.688 .0241059
1097.274 .0240805
1097.860 .0240587
1098.447 .0240386
1099.034 .0240218
1099.622 .0240070
1100.209 .0239925
1100.797 .0239787
1101.385 .0239649
1101.973 .0239535
1102.562 .0239456
1103.151 .0239435
1103.740 .0239480
1104.330 .0239573
1104.920 .0239707
1105.510 .0239880
1106.101 .0240079
1106.691 .0240299
1107.283 .0240523
1107.874 .0240724
1108.466 .0240913
1109.058 .0241087
1109.651 .0241245
1110.244 .0241392
1110.837 .0241566
1111.431 .0241747
1112.025 .0241937
1112.620 .0242145
1113.215 .0242382
1113.810 .0242646
1114.406 .0242971
1115.002 .0243312
1115.599 .0243632
1116.196 .0243927
1116.793 .0244180
1117.391 .0244348
1117.989 .0244463
1118.588 .0244500
1119.187 .0244469
1119.787 .0244376
1120.387 .0244260
1120.988 .0244091
1121.589 .0243931
1122.190 .0243759
1122.793 .0243567
1123.395 .0243349
1123.998 .0243139
1124.602 .0242931
1125.206 .0242766
1125.811 .0242693
1126.416 .0242707
1127.022 .0242786
1127.628 .0242999
1128.235 .0243289
1128.843 .0243673
1129.451 .0244137
1130.059 .0244662
1130.669 .0245201
1131.278 .0245765
1131.889 .0246321
1132.500 .0246869
1133.112 .0247435
1133.724 .0247996
1134.337 .0248539
1134.950 .0249106
1135.564 .0249711
1136.179 .0250320
1136.795 .0250984
1137.411 .0251724
1138.028 .0252477
1138.645 .0253275
1139.263 .0254108
1139.882 .0254990
1140.502 .0255997
1141.122 .0257108
1141.743 .0258255
1142.365 .0259448
1142.987 .0260352
1143.611 .0263226
1144.235 .0264821
1144.859 .0263897
1145.485 .0264710
