Measurement Sequence started on: 10-20-44-796
Integration time: 35
Scans to Average: 2 
>>>>>Begin Spectral Data<<<<<
432.953 .0559028
433.882 .0491396
434.810 .0434074
435.737 .0401354
436.662 .0380706
437.586 .0408325
438.509 .0398996
439.431 .0394433
440.351 .0392611
441.269 .0391882
442.187 .0391521
443.103 .0390681
444.018 .0389939
444.932 .0389437
445.844 .0389006
446.756 .0388618
447.666 .0388270
448.575 .0388011
449.482 .0387669
450.388 .0387341
451.294 .0387000
452.198 .0386609
453.100 .0386283
454.002 .0386104
454.902 .0385992
455.801 .0386023
456.699 .0386069
457.596 .0386004
458.492 .0385829
459.387 .0385664
460.280 .0385425
461.172 .0385021
462.064 .0384637
462.954 .0384127
463.843 .0383552
464.730 .0382970
465.617 .0382335
466.503 .0381714
467.387 .0381150
468.271 .0380580
469.153 .0379902
470.035 .0379119
470.915 .0378320
471.794 .0377411
472.673 .0376548
473.550 .0375739
474.426 .0374969
475.301 .0374335
476.175 .0373877
477.048 .0373493
477.920 .0373212
478.791 .0372957
479.661 .0372756
480.530 .0372516
481.398 .0372209
482.266 .0371812
483.132 .0371344
483.997 .0370891
484.861 .0370473
485.724 .0370123
486.587 .0369888
487.448 .0369732
488.308 .0369626
489.168 .0369523
490.026 .0369354
490.884 .0369113
491.741 .0368746
492.597 .0368256
493.452 .0367673
494.306 .0366990
495.159 .0366277
496.011 .0365602
496.862 .0364993
497.713 .0364437
498.562 .0363868
499.411 .0363266
500.259 .0362511
501.106 .0361605
501.952 .0360493
502.798 .0359193
503.642 .0357757
504.486 .0356202
505.329 .0354538
506.171 .0352844
507.012 .0351195
507.852 .0349605
508.692 .0348060
509.531 .0346554
510.369 .0345096
511.206 .0343640
512.043 .0342233
512.878 .0340877
513.713 .0339569
514.547 .0338386
515.381 .0337292
516.213 .0336309
517.045 .0335498
517.876 .0334856
518.706 .0334424
519.536 .0334248
520.365 .0334317
521.193 .0334465
522.020 .0334647
522.847 .0334797
523.673 .0334753
524.498 .0334399
525.323 .0333699
526.146 .0332609
526.969 .0331213
527.792 .0329597
528.614 .0327703
529.435 .0325848
530.255 .0324058
531.075 .0322325
531.894 .0320726
532.712 .0319187
533.530 .0317691
534.347 .0316247
535.163 .0314867
535.979 .0313572
536.794 .0312282
537.608 .0311170
538.422 .0310068
539.235 .0309072
540.048 .0308119
540.860 .0307208
541.671 .0306534
542.481 .0306050
543.292 .0305628
544.101 .0305327
544.910 .0305093
545.718 .0304893
546.526 .0304670
547.333 .0304401
548.139 .0304086
548.945 .0303834
549.750 .0303598
550.555 .0303479
551.359 .0303537
552.162 .0303847
552.965 .0304349
553.768 .0305021
554.569 .0305770
555.371 .0306485
556.171 .0307212
556.972 .0307955
557.771 .0308607
558.570 .0309199
559.369 .0309725
560.167 .0310205
560.964 .0310662
561.761 .0311046
562.558 .0311416
563.354 .0311833
564.149 .0312208
564.944 .0312555
565.738 .0312860
566.532 .0313208
567.325 .0313593
568.118 .0314007
568.910 .0314481
569.702 .0314991
570.494 .0315541
571.285 .0316140
572.075 .0316763
572.865 .0317447
573.654 .0318127
574.443 .0318793
575.232 .0319438
576.020 .0320037
576.807 .0320557
577.594 .0321015
578.381 .0321388
579.167 .0321725
579.952 .0321966
580.738 .0322156
581.522 .0322315
582.307 .0322449
583.091 .0322555
583.874 .0322602
584.657 .0322617
585.440 .0322607
586.222 .0322555
587.004 .0322505
587.785 .0322463
588.566 .0322451
589.346 .0322472
590.126 .0322497
590.906 .0322530
591.685 .0322566
592.464 .0322585
593.242 .0322569
594.020 .0322520
594.797 .0322429
595.575 .0322303
596.351 .0322166
597.128 .0322032
597.904 .0321871
598.679 .0321709
599.454 .0321538
600.229 .0321356
601.004 .0321146
601.778 .0320918
602.551 .0320663
603.325 .0320416
604.097 .0320171
604.870 .0319953
605.642 .0319766
606.414 .0319626
607.185 .0319510
607.956 .0319412
608.727 .0319326
609.497 .0319245
610.267 .0319150
611.037 .0319054
611.806 .0318948
612.575 .0318841
613.344 .0318725
614.112 .0318620
614.880 .0318515
615.647 .0318406
616.414 .0318278
617.181 .0318135
617.948 .0317951
618.714 .0317736
619.480 .0317476
620.245 .0317191
621.011 .0316888
621.775 .0316565
622.540 .0316235
623.304 .0315910
624.068 .0315608
624.832 .0315319
625.595 .0315043
626.358 .0314790
627.120 .0314550
627.883 .0314319
628.645 .0314090
629.406 .0313865
630.168 .0313648
630.929 .0313435
631.689 .0313224
632.450 .0313017
633.210 .0312823
633.970 .0312638
634.729 .0312462
635.489 .0312277
636.248 .0312087
637.006 .0311870
637.765 .0311624
638.523 .0311341
639.280 .0311012
640.038 .0310647
640.795 .0310248
641.552 .0309834
642.309 .0309417
643.065 .0309009
643.821 .0308625
644.577 .0308255
645.332 .0307913
646.088 .0307578
646.843 .0307241
647.597 .0306901
648.352 .0306545
649.106 .0306178
649.860 .0305801
650.613 .0305421
651.367 .0305056
652.120 .0304707
652.872 .0304387
653.625 .0304091
654.377 .0303821
655.129 .0303573
655.881 .0303329
656.632 .0303080
657.384 .0302824
658.135 .0302552
658.885 .0302276
659.636 .0301992
660.386 .0301712
661.136 .0301449
661.885 .0301205
662.635 .0300985
663.384 .0300793
664.133 .0300623
664.881 .0300482
665.630 .0300352
666.378 .0300233
667.126 .0300112
667.874 .0299981
668.621 .0299840
669.368 .0299684
670.115 .0299521
670.862 .0299358
671.608 .0299193
672.354 .0299043
673.100 .0298902
673.846 .0298779
674.591 .0298663
675.337 .0298560
676.082 .0298463
676.826 .0298358
677.571 .0298238
678.315 .0298100
679.059 .0297949
679.803 .0297796
680.547 .0297634
681.290 .0297467
682.033 .0297301
682.776 .0297143
683.518 .0296983
684.261 .0296829
685.003 .0296674
685.745 .0296518
686.487 .0296359
687.228 .0296203
687.969 .0296041
688.710 .0295884
689.451 .0295726
690.192 .0295566
690.932 .0295405
691.672 .0295236
692.412 .0295056
693.152 .0294877
693.891 .0294706
694.630 .0294544
695.369 .0294393
696.108 .0294263
696.846 .0294151
697.585 .0294052
698.323 .0293958
699.061 .0293860
699.798 .0293753
700.536 .0293633
701.273 .0293499
702.010 .0293358
702.746 .0293220
703.483 .0293091
704.219 .0292972
704.955 .0292864
705.691 .0292759
706.427 .0292642
707.162 .0292508
707.897 .0292344
708.632 .0292146
709.367 .0291911
710.101 .0291641
710.835 .0291355
711.569 .0291063
712.303 .0290770
713.037 .0290482
713.770 .0290202
714.503 .0289934
715.236 .0289670
715.969 .0289404
716.702 .0289134
717.434 .0288865
718.166 .0288602
718.898 .0288348
719.629 .0288109
720.361 .0287894
721.092 .0287703
721.823 .0287535
722.554 .0287389
723.284 .0287250
724.014 .0287111
724.744 .0286962
725.474 .0286791
726.204 .0286596
726.933 .0286374
727.662 .0286135
728.391 .0285873
729.120 .0285598
729.849 .0285307
730.577 .0285004
731.305 .0284695
732.033 .0284387
732.760 .0284069
733.488 .0283749
734.215 .0283430
734.942 .0283109
735.669 .0282785
736.395 .0282465
737.122 .0282145
737.848 .0281833
738.573 .0281528
739.299 .0281230
740.024 .0280936
740.750 .0280661
741.474 .0280402
742.199 .0280158
742.924 .0279931
743.648 .0279719
744.372 .0279517
745.096 .0279339
745.819 .0279166
746.543 .0279005
747.266 .0278857
747.989 .0278721
748.711 .0278594
749.434 .0278481
750.156 .0278381
750.878 .0278299
751.599 .0278230
752.321 .0278171
753.042 .0278109
753.763 .0278048
754.484 .0277977
755.205 .0277894
755.925 .0277799
756.645 .0277691
757.365 .0277563
758.085 .0277427
758.804 .0277274
759.523 .0277111
760.242 .0276939
760.961 .0276760
761.679 .0276577
762.397 .0276392
763.115 .0276201
763.833 .0276011
764.551 .0275816
765.268 .0275625
765.985 .0275425
766.702 .0275224
767.418 .0275016
768.134 .0274803
768.850 .0274590
769.566 .0274379
770.282 .0274177
770.997 .0273992
771.712 .0273818
772.427 .0273660
773.142 .0273512
773.856 .0273377
774.570 .0273246
775.284 .0273123
775.998 .0272998
776.711 .0272881
777.424 .0272773
778.137 .0272674
778.849 .0272581
779.562 .0272503
780.274 .0272435
780.986 .0272373
781.697 .0272311
782.409 .0272246
783.120 .0272183
783.831 .0272130
784.541 .0272086
785.252 .0272052
785.962 .0272036
786.671 .0272032
787.381 .0272029
788.090 .0272036
788.799 .0272040
789.508 .0272037
790.217 .0272034
790.925 .0272031
791.633 .0272028
792.341 .0272027
793.048 .0272036
793.755 .0272047
794.462 .0272061
795.169 .0272059
795.875 .0272037
796.581 .0271998
797.287 .0271948
797.993 .0271875
798.698 .0271792
799.403 .0271710
800.108 .0271625
800.812 .0271540
801.517 .0271458
802.221 .0271376
802.924 .0271292
803.628 .0271203
804.331 .0271112
805.034 .0271022
805.736 .0270938
806.439 .0270862
807.141 .0270800
807.843 .0270757
808.544 .0270725
809.245 .0270700
809.946 .0270684
810.647 .0270669
811.347 .0270648
812.047 .0270624
812.747 .0270598
813.447 .0270570
814.146 .0270542
814.845 .0270521
815.543 .0270506
816.242 .0270493
816.940 .0270474
817.638 .0270449
818.335 .0270417
819.032 .0270367
819.729 .0270296
820.426 .0270208
821.122 .0270105
821.818 .0269987
822.514 .0269857
823.209 .0269725
823.905 .0269592
824.599 .0269462
825.294 .0269339
825.988 .0269220
826.682 .0269107
827.376 .0269002
828.069 .0268904
828.762 .0268806
829.455 .0268702
830.147 .0268589
830.840 .0268471
831.531 .0268350
832.223 .0268227
832.914 .0268099
833.605 .0267975
834.296 .0267855
834.986 .0267728
835.676 .0267595
836.366 .0267457
837.055 .0267308
837.744 .0267151
838.433 .0266982
839.121 .0266803
839.809 .0266621
840.497 .0266445
841.185 .0266277
841.872 .0266117
842.559 .0265969
843.245 .0265829
843.932 .0265690
844.617 .0265556
845.303 .0265414
845.988 .0265268
846.673 .0265124
847.358 .0264979
848.042 .0264835
848.726 .0264697
849.410 .0264561
850.093 .0264430
850.776 .0264301
851.459 .0264167
852.141 .0264015
852.823 .0263850
853.505 .0263666
854.186 .0263464
854.867 .0263250
855.548 .0263031
856.228 .0262809
856.908 .0262598
857.588 .0262390
858.267 .0262183
858.946 .0261982
859.625 .0261787
860.303 .0261592
860.981 .0261398
861.659 .0261206
862.336 .0261016
863.013 .0260833
863.690 .0260662
864.366 .0260500
865.042 .0260353
865.718 .0260219
866.393 .0260086
867.068 .0259948
867.743 .0259808
868.417 .0259657
869.091 .0259499
869.765 .0259336
870.438 .0259164
871.111 .0258990
871.783 .0258809
872.456 .0258622
873.127 .0258426
873.799 .0258230
874.470 .0258026
875.141 .0257817
875.811 .0257608
876.481 .0257398
877.151 .0257193
877.820 .0256999
878.489 .0256817
879.158 .0256640
879.826 .0256470
880.494 .0256307
881.162 .0256148
881.829 .0255999
882.496 .0255849
883.163 .0255706
883.829 .0255572
884.495 .0255447
885.160 .0255323
885.825 .0255204
886.490 .0255096
887.154 .0254995
887.818 .0254896
888.482 .0254800
889.145 .0254703
889.808 .0254611
890.471 .0254519
891.133 .0254431
891.795 .0254343
892.456 .0254256
893.117 .0254171
893.778 .0254084
894.439 .0253992
895.099 .0253892
895.758 .0253779
896.417 .0253658
897.076 .0253527
897.735 .0253384
898.393 .0253235
899.051 .0253091
899.708 .0252952
900.365 .0252816
901.022 .0252681
901.678 .0252552
902.334 .0252424
902.990 .0252302
903.645 .0252183
904.300 .0252067
904.954 .0251961
905.608 .0251863
906.262 .0251777
906.915 .0251701
907.568 .0251631
908.221 .0251569
908.873 .0251507
909.525 .0251442
910.176 .0251368
910.828 .0251287
911.478 .0251205
912.129 .0251119
912.778 .0251032
913.428 .0250945
914.077 .0250857
914.726 .0250766
915.375 .0250669
916.023 .0250566
916.670 .0250458
917.318 .0250339
917.964 .0250211
918.611 .0250071
919.257 .0249924
919.903 .0249776
920.548 .0249622
921.193 .0249474
921.838 .0249331
922.482 .0249195
923.126 .0249073
923.770 .0248964
924.413 .0248868
925.056 .0248779
925.698 .0248702
926.340 .0248636
926.982 .0248576
927.623 .0248526
928.264 .0248486
928.904 .0248462
929.544 .0248455
930.184 .0248457
930.823 .0248461
931.462 .0248464
932.101 .0248456
932.739 .0248427
933.377 .0248374
934.014 .0248299
934.651 .0248212
935.288 .0248122
935.924 .0248032
936.560 .0247952
937.196 .0247886
937.831 .0247838
938.466 .0247800
939.100 .0247760
939.734 .0247712
940.368 .0247652
941.001 .0247584
941.634 .0247510
942.266 .0247443
942.899 .0247387
943.530 .0247350
944.162 .0247328
944.793 .0247317
945.423 .0247303
946.053 .0247267
946.683 .0247212
947.313 .0247126
947.942 .0247004
948.571 .0246850
949.199 .0246670
949.827 .0246478
950.455 .0246280
951.082 .0246079
951.709 .0245876
952.335 .0245678
952.961 .0245485
953.587 .0245293
954.212 .0245108
954.837 .0244934
955.462 .0244772
956.086 .0244622
956.710 .0244493
957.334 .0244378
957.957 .0244281
958.579 .0244202
959.202 .0244131
959.824 .0244079
960.445 .0244038
961.067 .0244012
961.688 .0243999
962.308 .0243996
962.928 .0244001
963.548 .0244011
964.168 .0244020
964.787 .0244017
965.406 .0244006
966.024 .0243991
966.642 .0243968
967.260 .0243944
967.877 .0243924
968.494 .0243910
969.110 .0243898
969.727 .0243888
970.342 .0243870
970.958 .0243851
971.573 .0243828
972.188 .0243807
972.802 .0243789
973.416 .0243774
974.030 .0243762
974.643 .0243752
975.256 .0243743
975.869 .0243736
976.481 .0243721
977.093 .0243701
977.705 .0243686
978.316 .0243683
978.927 .0243683
979.538 .0243700
980.148 .0243729
980.758 .0243763
981.367 .0243803
981.977 .0243841
982.586 .0243873
983.194 .0243902
983.802 .0243932
984.410 .0243950
985.018 .0243963
985.625 .0243970
986.232 .0243971
986.838 .0243968
987.445 .0243963
988.050 .0243945
988.656 .0243916
989.261 .0243886
989.866 .0243840
990.471 .0243787
991.075 .0243730
991.679 .0243666
992.282 .0243601
992.886 .0243534
993.489 .0243469
994.091 .0243410
994.694 .0243366
995.296 .0243341
995.897 .0243332
996.499 .0243340
997.100 .0243360
997.701 .0243391
998.301 .0243433
998.901 .0243471
999.501 .0243500
1000.101 .0243529
1000.700 .0243552
1001.299 .0243576
1001.898 .0243593
1002.496 .0243614
1003.094 .0243634
1003.692 .0243638
1004.289 .0243625
1004.887 .0243591
1005.484 .0243541
1006.080 .0243481
1006.677 .0243405
1007.273 .0243322
1007.868 .0243235
1008.464 .0243155
1009.059 .0243072
1009.654 .0242995
1010.249 .0242919
1010.843 .0242841
1011.437 .0242757
1012.031 .0242674
1012.625 .0242587
1013.218 .0242510
1013.811 .0242455
1014.404 .0242418
1014.997 .0242408
1015.589 .0242424
1016.181 .0242460
1016.773 .0242507
1017.365 .0242556
1017.956 .0242601
1018.547 .0242623
1019.138 .0242630
1019.728 .0242616
1020.319 .0242591
1020.909 .0242566
1021.499 .0242543
1022.088 .0242527
1022.678 .0242513
1023.267 .0242496
1023.856 .0242462
1024.445 .0242412
1025.033 .0242343
1025.621 .0242247
1026.209 .0242133
1026.797 .0241999
1027.385 .0241860
1027.972 .0241727
1028.560 .0241615
1029.147 .0241534
1029.734 .0241486
1030.320 .0241471
1030.907 .0241485
1031.493 .0241518
1032.079 .0241558
1032.665 .0241593
1033.250 .0241626
1033.836 .0241653
1034.421 .0241669
1035.006 .0241670
1035.591 .0241667
1036.176 .0241662
1036.761 .0241659
1037.345 .0241647
1037.929 .0241625
1038.514 .0241585
1039.097 .0241522
1039.681 .0241437
1040.265 .0241331
1040.848 .0241203
1041.432 .0241062
1042.015 .0240915
1042.598 .0240767
1043.181 .0240616
1043.764 .0240469
1044.346 .0240326
1044.929 .0240197
1045.511 .0240066
1046.094 .0239930
1046.676 .0239802
1047.258 .0239686
1047.840 .0239591
1048.422 .0239505
1049.003 .0239433
1049.585 .0239374
1050.166 .0239315
1050.748 .0239255
1051.329 .0239186
1051.910 .0239112
1052.491 .0239028
1053.072 .0238939
1053.653 .0238858
1054.234 .0238790
1054.815 .0238731
1055.396 .0238696
1055.976 .0238674
1056.557 .0238653
1057.138 .0238622
1057.718 .0238555
1058.298 .0238468
1058.879 .0238354
1059.459 .0238215
1060.039 .0238054
1060.620 .0237877
1061.200 .0237705
1061.780 .0237535
1062.360 .0237378
1062.940 .0237244
1063.520 .0237106
1064.101 .0236955
1064.681 .0236789
1065.261 .0236590
1065.841 .0236352
1066.421 .0236089
1067.001 .0235814
1067.581 .0235534
1068.161 .0235261
1068.741 .0235008
1069.321 .0234776
1069.901 .0234587
1070.482 .0234430
1071.062 .0234278
1071.642 .0234137
1072.222 .0234004
1072.803 .0233859
1073.383 .0233724
1073.963 .0233625
1074.544 .0233551
1075.124 .0233508
1075.705 .0233516
1076.286 .0233547
1076.866 .0233597
1077.447 .0233650
1078.028 .0233692
1078.609 .0233708
1079.190 .0233704
1079.771 .0233655
1080.352 .0233565
1080.934 .0233465
1081.515 .0233343
1082.097 .0233190
1082.679 .0233039
1083.260 .0232873
1083.842 .0232663
1084.424 .0232445
1085.007 .0232219
1085.589 .0231971
1086.172 .0231719
1086.754 .0231474
1087.337 .0231234
1087.920 .0231009
1088.503 .0230804
1089.087 .0230592
1089.670 .0230381
1090.254 .0230199
1090.838 .0229984
1091.422 .0229766
1092.006 .0229567
1092.590 .0229362
1093.175 .0229159
1093.760 .0228987
1094.345 .0228813
1094.930 .0228650
1095.516 .0228504
1096.102 .0228378
1096.688 .0228241
1097.274 .0228102
1097.860 .0227939
1098.447 .0227736
1099.034 .0227529
1099.622 .0227305
1100.209 .0227047
1100.797 .0226833
1101.385 .0226659
1101.973 .0226544
1102.562 .0226516
1103.151 .0226575
1103.740 .0226718
1104.330 .0226925
1104.920 .0227162
1105.510 .0227380
1106.101 .0227566
1106.691 .0227713
1107.283 .0227824
1107.874 .0227897
1108.466 .0227963
1109.058 .0228022
1109.651 .0228130
1110.244 .0228269
1110.837 .0228428
1111.431 .0228570
1112.025 .0228705
1112.620 .0228783
1113.215 .0228791
1113.810 .0228712
1114.406 .0228609
1115.002 .0228509
1115.599 .0228429
1116.196 .0228404
1116.793 .0228439
1117.391 .0228520
1117.989 .0228666
1118.588 .0228827
1119.187 .0228986
1119.787 .0229095
1120.387 .0229178
1120.988 .0229243
1121.589 .0229309
1122.190 .0229377
1122.793 .0229438
1123.395 .0229528
1123.998 .0229601
1124.602 .0229602
1125.206 .0229540
1125.811 .0229456
1126.416 .0229359
1127.022 .0229281
1127.628 .0229244
1128.235 .0229314
1128.843 .0229535
1129.451 .0229893
1130.059 .0230342
1130.669 .0230844
1131.278 .0231346
1131.889 .0231809
1132.500 .0232212
1133.112 .0232589
1133.724 .0232949
1134.337 .0233354
1134.950 .0233798
1135.564 .0234282
1136.179 .0234816
1136.795 .0235391
1137.411 .0235980
1138.028 .0236568
1138.645 .0237072
1139.263 .0237568
1139.882 .0238052
1140.502 .0238512
1141.122 .0238994
1141.743 .0239667
1142.365 .0240369
1142.987 .0241042
1143.611 .0241042
1144.235 .0241883
1144.859 .0246876
1145.485 .0244392
