Measurement Sequence started on: 10-20-44-796
Integration time: 35
Scans to Average: 2 
>>>>>Begin Spectral Data<<<<<
432.953 .0428031
433.882 .0444501
434.810 .0441700
435.737 .0407422
436.662 .0393736
437.586 .0412452
438.509 .0410272
439.431 .0408581
440.351 .0407757
441.269 .0408201
442.187 .0409047
443.103 .0409850
444.018 .0410522
444.932 .0411948
445.844 .0413506
446.756 .0414901
447.666 .0416001
448.575 .0416937
449.482 .0417487
450.388 .0417736
451.294 .0417653
452.198 .0417333
453.100 .0416773
454.002 .0416226
454.902 .0415534
455.801 .0414757
456.699 .0413959
457.596 .0413242
458.492 .0412499
459.387 .0411762
460.280 .0411082
461.172 .0410410
462.064 .0409714
462.954 .0408934
463.843 .0407955
464.730 .0406912
465.617 .0405858
466.503 .0404793
467.387 .0403774
468.271 .0402834
469.153 .0402048
470.035 .0401309
470.915 .0400618
471.794 .0399849
472.673 .0399021
473.550 .0398079
474.426 .0397112
475.301 .0396119
476.175 .0395155
477.048 .0394223
477.920 .0393405
478.791 .0392686
479.661 .0392050
480.530 .0391496
481.398 .0390987
482.266 .0390553
483.132 .0390199
483.997 .0389861
484.861 .0389602
485.724 .0389407
486.587 .0389350
487.448 .0389300
488.308 .0389304
489.168 .0389310
490.026 .0389276
490.884 .0389238
491.741 .0389153
492.597 .0389013
493.452 .0388864
494.306 .0388671
495.159 .0388382
496.011 .0388041
496.862 .0387600
497.713 .0387047
498.562 .0386383
499.411 .0385586
500.259 .0384678
501.106 .0383645
501.952 .0382534
502.798 .0381314
503.642 .0380033
504.486 .0378716
505.329 .0377290
506.171 .0375859
507.012 .0374418
507.852 .0372955
508.692 .0371542
509.531 .0370206
510.369 .0368935
511.206 .0367740
512.043 .0366637
512.878 .0365593
513.713 .0364651
514.547 .0363761
515.381 .0362931
516.213 .0362231
517.045 .0361627
517.876 .0361088
518.706 .0360563
519.536 .0360085
520.365 .0359530
521.193 .0358816
522.020 .0357918
522.847 .0356836
523.673 .0355607
524.498 .0354230
525.323 .0352752
526.146 .0351213
526.969 .0349600
527.792 .0347990
528.614 .0346324
529.435 .0344563
530.255 .0342695
531.075 .0340716
531.894 .0338669
532.712 .0336735
533.530 .0334948
534.347 .0333354
535.163 .0332000
535.979 .0330870
536.794 .0329826
537.608 .0328922
538.422 .0328124
539.235 .0327399
540.048 .0326712
540.860 .0326101
541.671 .0325485
542.481 .0325029
543.292 .0324699
544.101 .0324433
544.910 .0324191
545.718 .0323942
546.526 .0323599
547.333 .0323182
548.139 .0322768
548.945 .0322420
549.750 .0322127
550.555 .0321964
551.359 .0321880
552.162 .0321927
552.965 .0322092
553.768 .0322280
554.569 .0322546
555.371 .0322869
556.171 .0323252
556.972 .0323641
557.771 .0324121
558.570 .0324657
559.369 .0325247
560.167 .0325796
560.964 .0326319
561.761 .0326805
562.558 .0327240
563.354 .0327657
564.149 .0328121
564.944 .0328670
565.738 .0329308
566.532 .0330040
567.325 .0330821
568.118 .0331578
568.910 .0332295
569.702 .0332865
570.494 .0333336
571.285 .0333723
572.075 .0334058
572.865 .0334403
573.654 .0334787
574.443 .0335241
575.232 .0335759
576.020 .0336380
576.807 .0337040
577.594 .0337702
578.381 .0338362
579.167 .0338979
579.952 .0339547
580.738 .0340071
581.522 .0340567
582.307 .0341030
583.091 .0341485
583.874 .0341918
584.657 .0342324
585.440 .0342709
586.222 .0343058
587.004 .0343377
587.785 .0343664
588.566 .0343901
589.346 .0344065
590.126 .0344136
590.906 .0344136
591.685 .0344041
592.464 .0343858
593.242 .0343618
594.020 .0343330
594.797 .0343018
595.575 .0342705
596.351 .0342401
597.128 .0342132
597.904 .0341887
598.679 .0341664
599.454 .0341430
600.229 .0341199
601.004 .0340955
601.778 .0340693
602.551 .0340423
603.325 .0340151
604.097 .0339875
604.870 .0339600
605.642 .0339331
606.414 .0339074
607.185 .0338820
607.956 .0338580
608.727 .0338341
609.497 .0338097
610.267 .0337845
611.037 .0337579
611.806 .0337301
612.575 .0337023
613.344 .0336730
614.112 .0336416
614.880 .0336095
615.647 .0335767
616.414 .0335432
617.181 .0335096
617.948 .0334774
618.714 .0334470
619.480 .0334173
620.245 .0333884
621.011 .0333595
621.775 .0333294
622.540 .0332981
623.304 .0332632
624.068 .0332256
624.832 .0331848
625.595 .0331415
626.358 .0330974
627.120 .0330535
627.883 .0330103
628.645 .0329680
629.406 .0329264
630.168 .0328858
630.929 .0328448
631.689 .0328035
632.450 .0327617
633.210 .0327207
633.970 .0326800
634.729 .0326413
635.489 .0326043
636.248 .0325693
637.006 .0325355
637.765 .0325029
638.523 .0324710
639.280 .0324400
640.038 .0324105
640.795 .0323830
641.552 .0323583
642.309 .0323378
643.065 .0323204
643.821 .0323065
644.577 .0322947
645.332 .0322839
646.088 .0322722
646.843 .0322592
647.597 .0322442
648.352 .0322282
649.106 .0322122
649.860 .0321976
650.613 .0321841
651.367 .0321720
652.120 .0321608
652.872 .0321489
653.625 .0321353
654.377 .0321196
655.129 .0321013
655.881 .0320806
656.632 .0320581
657.384 .0320345
658.135 .0320113
658.885 .0319900
659.636 .0319706
660.386 .0319536
661.136 .0319376
661.885 .0319228
662.635 .0319080
663.384 .0318937
664.133 .0318800
664.881 .0318667
665.630 .0318540
666.378 .0318419
667.126 .0318297
667.874 .0318176
668.621 .0318056
669.368 .0317936
670.115 .0317808
670.862 .0317669
671.608 .0317521
672.354 .0317367
673.100 .0317203
673.846 .0317040
674.591 .0316875
675.337 .0316714
676.082 .0316555
676.826 .0316393
677.571 .0316230
678.315 .0316065
679.059 .0315905
679.803 .0315737
680.547 .0315566
681.290 .0315385
682.033 .0315190
682.776 .0314982
683.518 .0314759
684.261 .0314515
685.003 .0314249
685.745 .0313969
686.487 .0313672
687.228 .0313363
687.969 .0313047
688.710 .0312725
689.451 .0312399
690.192 .0312065
690.932 .0311722
691.672 .0311369
692.412 .0311014
693.152 .0310647
693.891 .0310277
694.630 .0309913
695.369 .0309561
696.108 .0309223
696.846 .0308903
697.585 .0308598
698.323 .0308303
699.061 .0308013
699.798 .0307724
700.536 .0307434
701.273 .0307147
702.010 .0306854
702.746 .0306563
703.483 .0306273
704.219 .0305987
704.955 .0305707
705.691 .0305441
706.427 .0305186
707.162 .0304937
707.897 .0304687
708.632 .0304441
709.367 .0304192
710.101 .0303934
710.835 .0303665
711.569 .0303391
712.303 .0303114
713.037 .0302838
713.770 .0302561
714.503 .0302295
715.236 .0302043
715.969 .0301804
716.702 .0301574
717.434 .0301350
718.166 .0301132
718.898 .0300916
719.629 .0300698
720.361 .0300482
721.092 .0300264
721.823 .0300052
722.554 .0299849
723.284 .0299661
724.014 .0299479
724.744 .0299300
725.474 .0299129
726.204 .0298964
726.933 .0298806
727.662 .0298652
728.391 .0298501
729.120 .0298365
729.849 .0298243
730.577 .0298129
731.305 .0298022
732.033 .0297929
732.760 .0297841
733.488 .0297752
734.215 .0297664
734.942 .0297578
735.669 .0297503
736.395 .0297444
737.122 .0297401
737.848 .0297367
738.573 .0297347
739.299 .0297327
740.024 .0297307
740.750 .0297285
741.474 .0297248
742.199 .0297197
742.924 .0297139
743.648 .0297079
744.372 .0297014
745.096 .0296958
745.819 .0296918
746.543 .0296889
747.266 .0296873
747.989 .0296857
748.711 .0296843
749.434 .0296832
750.156 .0296810
750.878 .0296777
751.599 .0296736
752.321 .0296693
753.042 .0296639
753.763 .0296590
754.484 .0296549
755.205 .0296509
755.925 .0296471
756.645 .0296430
757.365 .0296382
758.085 .0296326
758.804 .0296255
759.523 .0296166
760.242 .0296055
760.961 .0295929
761.679 .0295783
762.397 .0295626
763.115 .0295465
763.833 .0295300
764.551 .0295135
765.268 .0294980
765.985 .0294834
766.702 .0294693
767.418 .0294563
768.134 .0294443
768.850 .0294330
769.566 .0294215
770.282 .0294105
770.997 .0293992
771.712 .0293879
772.427 .0293771
773.142 .0293662
773.856 .0293550
774.570 .0293442
775.284 .0293329
775.998 .0293214
776.711 .0293090
777.424 .0292961
778.137 .0292815
778.849 .0292656
779.562 .0292479
780.274 .0292274
780.986 .0292058
781.697 .0291842
782.409 .0291616
783.120 .0291392
783.831 .0291181
784.541 .0290985
785.252 .0290809
785.962 .0290648
786.671 .0290492
787.381 .0290340
788.090 .0290187
788.799 .0290020
789.508 .0289837
790.217 .0289649
790.925 .0289451
791.633 .0289245
792.341 .0289041
793.048 .0288829
793.755 .0288603
794.462 .0288368
795.169 .0288117
795.875 .0287852
796.581 .0287573
797.287 .0287283
797.993 .0286993
798.698 .0286712
799.403 .0286441
800.108 .0286173
800.812 .0285921
801.517 .0285679
802.221 .0285434
802.924 .0285190
803.628 .0284948
804.331 .0284719
805.034 .0284505
805.736 .0284305
806.439 .0284122
807.141 .0283956
807.843 .0283797
808.544 .0283631
809.245 .0283450
809.946 .0283251
810.647 .0283030
811.347 .0282795
812.047 .0282559
812.747 .0282324
813.447 .0282098
814.146 .0281886
814.845 .0281689
815.543 .0281505
816.242 .0281328
816.940 .0281156
817.638 .0280992
818.335 .0280837
819.032 .0280692
819.729 .0280556
820.426 .0280438
821.122 .0280332
821.818 .0280225
822.514 .0280113
823.209 .0279989
823.905 .0279853
824.599 .0279699
825.294 .0279530
825.988 .0279352
826.682 .0279167
827.376 .0278978
828.069 .0278787
828.762 .0278595
829.455 .0278405
830.147 .0278212
830.840 .0278016
831.531 .0277816
832.223 .0277621
832.914 .0277429
833.605 .0277247
834.296 .0277083
834.986 .0276938
835.676 .0276811
836.366 .0276707
837.055 .0276616
837.744 .0276545
838.433 .0276487
839.121 .0276441
839.809 .0276405
840.497 .0276380
841.185 .0276361
841.872 .0276346
842.559 .0276340
843.245 .0276336
843.932 .0276328
844.617 .0276317
845.303 .0276299
845.988 .0276266
846.673 .0276219
847.358 .0276161
848.042 .0276089
848.726 .0276024
849.410 .0275956
850.093 .0275894
850.776 .0275850
851.459 .0275816
852.141 .0275786
852.823 .0275755
853.505 .0275724
854.186 .0275681
854.867 .0275631
855.548 .0275583
856.228 .0275536
856.908 .0275508
857.588 .0275502
858.267 .0275511
858.946 .0275538
859.625 .0275580
860.303 .0275618
860.981 .0275650
861.659 .0275672
862.336 .0275672
863.013 .0275657
863.690 .0275629
864.366 .0275593
865.042 .0275555
865.718 .0275527
866.393 .0275507
867.068 .0275486
867.743 .0275474
868.417 .0275452
869.091 .0275424
869.765 .0275388
870.438 .0275335
871.111 .0275267
871.783 .0275191
872.456 .0275106
873.127 .0275015
873.799 .0274924
874.470 .0274838
875.141 .0274754
875.811 .0274682
876.481 .0274612
877.151 .0274550
877.820 .0274501
878.489 .0274465
879.158 .0274435
879.826 .0274418
880.494 .0274408
881.162 .0274408
881.829 .0274420
882.496 .0274439
883.163 .0274461
883.829 .0274491
884.495 .0274524
885.160 .0274551
885.825 .0274575
886.490 .0274592
887.154 .0274596
887.818 .0274588
888.482 .0274560
889.145 .0274508
889.808 .0274441
890.471 .0274362
891.133 .0274273
891.795 .0274188
892.456 .0274110
893.117 .0274044
893.778 .0273996
894.439 .0273956
895.099 .0273918
895.758 .0273885
896.417 .0273853
897.076 .0273814
897.735 .0273776
898.393 .0273744
899.051 .0273723
899.708 .0273717
900.365 .0273723
901.022 .0273734
901.678 .0273745
902.334 .0273748
902.990 .0273727
903.645 .0273682
904.300 .0273615
904.954 .0273524
905.608 .0273424
906.262 .0273313
906.915 .0273196
907.568 .0273069
908.221 .0272933
908.873 .0272785
909.525 .0272612
910.176 .0272418
910.828 .0272203
911.478 .0271977
912.129 .0271746
912.778 .0271510
913.428 .0271287
914.077 .0271075
914.726 .0270879
915.375 .0270688
916.023 .0270501
916.670 .0270315
917.318 .0270132
917.964 .0269947
918.611 .0269759
919.257 .0269578
919.903 .0269399
920.548 .0269223
921.193 .0269052
921.838 .0268884
922.482 .0268717
923.126 .0268553
923.770 .0268396
924.413 .0268242
925.056 .0268097
925.698 .0267957
926.340 .0267824
926.982 .0267702
927.623 .0267577
928.264 .0267449
928.904 .0267312
929.544 .0267171
930.184 .0267020
930.823 .0266866
931.462 .0266714
932.101 .0266567
932.739 .0266424
933.377 .0266279
934.014 .0266127
934.651 .0265968
935.288 .0265792
935.924 .0265599
936.560 .0265392
937.196 .0265174
937.831 .0264948
938.466 .0264722
939.100 .0264499
939.734 .0264279
940.368 .0264062
941.001 .0263844
941.634 .0263618
942.266 .0263384
942.899 .0263136
943.530 .0262877
944.162 .0262610
944.793 .0262340
945.423 .0262061
946.053 .0261775
946.683 .0261487
947.313 .0261192
947.942 .0260887
948.571 .0260568
949.199 .0260235
949.827 .0259892
950.455 .0259542
951.082 .0259194
951.709 .0258852
952.335 .0258526
952.961 .0258215
953.587 .0257919
954.212 .0257633
954.837 .0257358
955.462 .0257087
956.086 .0256823
956.710 .0256568
957.334 .0256320
957.957 .0256080
958.579 .0255855
959.202 .0255647
959.824 .0255457
960.445 .0255278
961.067 .0255111
961.688 .0254952
962.308 .0254792
962.928 .0254625
963.548 .0254442
964.168 .0254240
964.787 .0254016
965.406 .0253771
966.024 .0253511
966.642 .0253241
967.260 .0252974
967.877 .0252713
968.494 .0252463
969.110 .0252231
969.727 .0252013
970.342 .0251806
970.958 .0251611
971.573 .0251430
972.188 .0251257
972.802 .0251098
973.416 .0250954
974.030 .0250824
974.643 .0250716
975.256 .0250627
975.869 .0250552
976.481 .0250496
977.093 .0250459
977.705 .0250438
978.316 .0250426
978.927 .0250426
979.538 .0250431
980.148 .0250433
980.758 .0250433
981.367 .0250425
981.977 .0250410
982.586 .0250389
983.194 .0250366
983.802 .0250349
984.410 .0250342
985.018 .0250347
985.625 .0250362
986.232 .0250388
986.838 .0250409
987.445 .0250413
988.050 .0250399
988.656 .0250364
989.261 .0250299
989.866 .0250204
990.471 .0250095
991.075 .0249976
991.679 .0249858
992.282 .0249744
992.886 .0249632
993.489 .0249529
994.091 .0249425
994.694 .0249316
995.296 .0249199
995.897 .0249087
996.499 .0248971
997.100 .0248860
997.701 .0248771
998.301 .0248699
998.901 .0248652
999.501 .0248639
1000.101 .0248655
1000.700 .0248696
1001.299 .0248757
1001.898 .0248832
1002.496 .0248917
1003.094 .0249016
1003.692 .0249114
1004.289 .0249199
1004.887 .0249288
1005.484 .0249367
1006.080 .0249433
1006.677 .0249493
1007.273 .0249546
1007.868 .0249591
1008.464 .0249640
1009.059 .0249690
1009.654 .0249737
1010.249 .0249793
1010.843 .0249857
1011.437 .0249912
1012.031 .0249960
1012.625 .0249988
1013.218 .0249990
1013.811 .0249977
1014.404 .0249969
1014.997 .0249953
1015.589 .0249950
1016.181 .0249974
1016.773 .0250024
1017.365 .0250106
1017.956 .0250213
1018.547 .0250322
1019.138 .0250427
1019.728 .0250520
1020.319 .0250586
1020.909 .0250616
1021.499 .0250627
1022.088 .0250627
1022.678 .0250621
1023.267 .0250617
1023.856 .0250614
1024.445 .0250613
1025.033 .0250617
1025.621 .0250624
1026.209 .0250621
1026.797 .0250607
1027.385 .0250590
1027.972 .0250571
1028.560 .0250563
1029.147 .0250572
1029.734 .0250605
1030.320 .0250665
1030.907 .0250756
1031.493 .0250872
1032.079 .0250998
1032.665 .0251138
1033.250 .0251300
1033.836 .0251470
1034.421 .0251642
1035.006 .0251808
1035.591 .0251960
1036.176 .0252095
1036.761 .0252212
1037.345 .0252286
1037.929 .0252325
1038.514 .0252333
1039.097 .0252316
1039.681 .0252269
1040.265 .0252214
1040.848 .0252151
1041.432 .0252079
1042.015 .0252007
1042.598 .0251924
1043.181 .0251824
1043.764 .0251737
1044.346 .0251652
1044.929 .0251591
1045.511 .0251566
1046.094 .0251591
1046.676 .0251663
1047.258 .0251802
1047.840 .0251988
1048.422 .0252207
1049.003 .0252446
1049.585 .0252692
1050.166 .0252921
1050.748 .0253132
1051.329 .0253328
1051.910 .0253519
1052.491 .0253717
1053.072 .0253925
1053.653 .0254136
1054.234 .0254360
1054.815 .0254572
1055.396 .0254756
1055.976 .0254896
1056.557 .0254985
1057.138 .0255014
1057.718 .0254967
1058.298 .0254860
1058.879 .0254711
1059.459 .0254531
1060.039 .0254336
1060.620 .0254138
1061.200 .0253946
1061.780 .0253759
1062.360 .0253580
1062.940 .0253412
1063.520 .0253244
1064.101 .0253075
1064.681 .0252897
1065.261 .0252717
1065.841 .0252536
1066.421 .0252347
1067.001 .0252169
1067.581 .0252027
1068.161 .0251922
1068.741 .0251862
1069.321 .0251864
1069.901 .0251923
1070.482 .0252033
1071.062 .0252164
1071.642 .0252295
1072.222 .0252405
1072.803 .0252485
1073.383 .0252526
1073.963 .0252533
1074.544 .0252536
1075.124 .0252548
1075.705 .0252601
1076.286 .0252719
1076.866 .0252887
1077.447 .0253098
1078.028 .0253327
1078.609 .0253554
1079.190 .0253748
1079.771 .0253907
1080.352 .0254029
1080.934 .0254104
1081.515 .0254142
1082.097 .0254152
1082.679 .0254145
1083.260 .0254109
1083.842 .0254061
1084.424 .0253995
1085.007 .0253909
1085.589 .0253797
1086.172 .0253659
1086.754 .0253510
1087.337 .0253354
1087.920 .0253200
1088.503 .0253026
1089.087 .0252860
1089.670 .0252702
1090.254 .0252542
1090.838 .0252418
1091.422 .0252352
1092.006 .0252336
1092.590 .0252380
1093.175 .0252490
1093.760 .0252656
1094.345 .0252835
1094.930 .0253025
1095.516 .0253188
1096.102 .0253333
1096.688 .0253436
1097.274 .0253517
1097.860 .0253594
1098.447 .0253703
1099.034 .0253826
1099.622 .0253987
1100.209 .0254191
1100.797 .0254429
1101.385 .0254644
1101.973 .0254836
1102.562 .0254981
1103.151 .0255063
1103.740 .0255049
1104.330 .0254979
1104.920 .0254867
1105.510 .0254743
1106.101 .0254619
1106.691 .0254501
1107.283 .0254385
1107.874 .0254289
1108.466 .0254158
1109.058 .0254007
1109.651 .0253806
1110.244 .0253530
1110.837 .0253180
1111.431 .0252804
1112.025 .0252415
1112.620 .0252009
1113.215 .0251666
1113.810 .0251412
1114.406 .0251268
1115.002 .0251230
1115.599 .0251257
1116.196 .0251369
1116.793 .0251512
1117.391 .0251644
1117.989 .0251693
1118.588 .0251697
1119.187 .0251645
1119.787 .0251533
1120.387 .0251410
1120.988 .0251291
1121.589 .0251226
1122.190 .0251250
1122.793 .0251386
1123.395 .0251664
1123.998 .0252066
1124.602 .0252584
1125.206 .0253147
1125.811 .0253757
1126.416 .0254307
1127.022 .0254800
1127.628 .0255205
1128.235 .0255538
1128.843 .0255800
1129.451 .0256031
1130.059 .0256239
1130.669 .0256466
1131.278 .0256718
1131.889 .0256918
1132.500 .0257003
1133.112 .0257000
1133.724 .0256842
1134.337 .0256571
1134.950 .0256140
1135.564 .0255661
1136.179 .0255175
1136.795 .0254804
1137.411 .0254566
1138.028 .0254527
1138.645 .0254744
1139.263 .0255168
1139.882 .0255735
1140.502 .0256562
1141.122 .0257496
1141.743 .0258717
1142.365 .0260083
1142.987 .0259128
1143.611 .0264289
1144.235 .0263835
1144.859 .0268652
1145.485 .0269645
