Measurement Sequence started on: 10-20-44-796
Integration time: 35
Scans to Average: 2 
>>>>>Begin Spectral Data<<<<<
432.953 .0383809
433.882 .0343743
434.810 .0309426
435.737 .0308413
436.662 .0307512
437.586 .0317082
438.509 .0313929
439.431 .0312801
440.351 .0312724
441.269 .0312624
442.187 .0312643
443.103 .0312632
444.018 .0313263
444.932 .0314141
445.844 .0315194
446.756 .0316442
447.666 .0317768
448.575 .0318874
449.482 .0319789
450.388 .0320542
451.294 .0321108
452.198 .0321581
453.100 .0321946
454.002 .0322282
454.902 .0322583
455.801 .0322881
456.699 .0323095
457.596 .0323214
458.492 .0323242
459.387 .0323106
460.280 .0322769
461.172 .0322276
462.064 .0321636
462.954 .0320912
463.843 .0320164
464.730 .0319435
465.617 .0318774
466.503 .0318214
467.387 .0317693
468.271 .0317238
469.153 .0316806
470.035 .0316389
470.915 .0315955
471.794 .0315505
472.673 .0315073
473.550 .0314659
474.426 .0314318
475.301 .0314062
476.175 .0313904
477.048 .0313833
477.920 .0313823
478.791 .0313848
479.661 .0313890
480.530 .0313890
481.398 .0313831
482.266 .0313768
483.132 .0313698
483.997 .0313634
484.861 .0313596
485.724 .0313623
486.587 .0313700
487.448 .0313805
488.308 .0313922
489.168 .0314001
490.026 .0314042
490.884 .0314005
491.741 .0313866
492.597 .0313626
493.452 .0313304
494.306 .0312915
495.159 .0312472
496.011 .0312016
496.862 .0311517
497.713 .0310981
498.562 .0310410
499.411 .0309796
500.259 .0309120
501.106 .0308402
501.952 .0307652
502.798 .0306861
503.642 .0306061
504.486 .0305232
505.329 .0304409
506.171 .0303623
507.012 .0302886
507.852 .0302167
508.692 .0301456
509.531 .0300760
510.369 .0300041
511.206 .0299285
512.043 .0298499
512.878 .0297638
513.713 .0296716
514.547 .0295720
515.381 .0294634
516.213 .0293429
517.045 .0292108
517.876 .0290622
518.706 .0288991
519.536 .0287191
520.365 .0285275
521.193 .0283225
522.020 .0281159
522.847 .0279119
523.673 .0277084
524.498 .0275112
525.323 .0273206
526.146 .0271354
526.969 .0269575
527.792 .0267795
528.614 .0266046
529.435 .0264316
530.255 .0262660
531.075 .0261040
531.894 .0259544
532.712 .0258251
533.530 .0257134
534.347 .0256169
535.163 .0255412
535.979 .0254772
536.794 .0254249
537.608 .0253829
538.422 .0253498
539.235 .0253242
540.048 .0253027
540.860 .0252865
541.671 .0252772
542.481 .0252749
543.292 .0252789
544.101 .0252783
544.910 .0252836
545.718 .0252892
546.526 .0252905
547.333 .0252939
548.139 .0253032
548.945 .0253191
549.750 .0253423
550.555 .0253743
551.359 .0254199
552.162 .0254751
552.965 .0255405
553.768 .0256106
554.569 .0256870
555.371 .0257653
556.171 .0258409
556.972 .0259175
557.771 .0260005
558.570 .0260887
559.369 .0261872
560.167 .0262965
560.964 .0264140
561.761 .0265350
562.558 .0266552
563.354 .0267719
564.149 .0268795
564.944 .0269747
565.738 .0270563
566.532 .0271265
567.325 .0271864
568.118 .0272396
568.910 .0272894
569.702 .0273406
570.494 .0273954
571.285 .0274533
572.075 .0275134
572.865 .0275775
573.654 .0276424
574.443 .0277050
575.232 .0277654
576.020 .0278228
576.807 .0278782
577.594 .0279344
578.381 .0279921
579.167 .0280517
579.952 .0281149
580.738 .0281840
581.522 .0282549
582.307 .0283261
583.091 .0283962
583.874 .0284629
584.657 .0285263
585.440 .0285860
586.222 .0286402
587.004 .0286898
587.785 .0287348
588.566 .0287758
589.346 .0288112
590.126 .0288421
590.906 .0288679
591.685 .0288901
592.464 .0289083
593.242 .0289238
594.020 .0289356
594.797 .0289466
595.575 .0289566
596.351 .0289645
597.128 .0289703
597.904 .0289729
598.679 .0289720
599.454 .0289677
600.229 .0289606
601.004 .0289515
601.778 .0289412
602.551 .0289316
603.325 .0289220
604.097 .0289127
604.870 .0289032
605.642 .0288937
606.414 .0288834
607.185 .0288728
607.956 .0288617
608.727 .0288497
609.497 .0288382
610.267 .0288272
611.037 .0288168
611.806 .0288077
612.575 .0287991
613.344 .0287902
614.112 .0287811
614.880 .0287707
615.647 .0287584
616.414 .0287448
617.181 .0287305
617.948 .0287155
618.714 .0287000
619.480 .0286843
620.245 .0286684
621.011 .0286521
621.775 .0286359
622.540 .0286190
623.304 .0286014
624.068 .0285832
624.832 .0285643
625.595 .0285455
626.358 .0285269
627.120 .0285086
627.883 .0284915
628.645 .0284751
629.406 .0284599
630.168 .0284448
630.929 .0284301
631.689 .0284159
632.450 .0284011
633.210 .0283854
633.970 .0283682
634.729 .0283496
635.489 .0283290
636.248 .0283068
637.006 .0282832
637.765 .0282580
638.523 .0282316
639.280 .0282048
640.038 .0281773
640.795 .0281499
641.552 .0281225
642.309 .0280953
643.065 .0280688
643.821 .0280424
644.577 .0280159
645.332 .0279901
646.088 .0279653
646.843 .0279423
647.597 .0279207
648.352 .0279015
649.106 .0278853
649.860 .0278718
650.613 .0278610
651.367 .0278527
652.120 .0278465
652.872 .0278421
653.625 .0278384
654.377 .0278357
655.129 .0278325
655.881 .0278295
656.632 .0278261
657.384 .0278220
658.135 .0278175
658.885 .0278119
659.636 .0278047
660.386 .0277966
661.136 .0277874
661.885 .0277765
662.635 .0277648
663.384 .0277527
664.133 .0277400
664.881 .0277267
665.630 .0277129
666.378 .0276988
667.126 .0276839
667.874 .0276688
668.621 .0276527
669.368 .0276366
670.115 .0276213
670.862 .0276067
671.608 .0275942
672.354 .0275839
673.100 .0275760
673.846 .0275699
674.591 .0275651
675.337 .0275607
676.082 .0275563
676.826 .0275520
677.571 .0275469
678.315 .0275415
679.059 .0275361
679.803 .0275311
680.547 .0275270
681.290 .0275234
682.033 .0275200
682.776 .0275162
683.518 .0275119
684.261 .0275056
685.003 .0274980
685.745 .0274884
686.487 .0274778
687.228 .0274662
687.969 .0274539
688.710 .0274410
689.451 .0274276
690.192 .0274139
690.932 .0273998
691.672 .0273846
692.412 .0273684
693.152 .0273508
693.891 .0273327
694.630 .0273139
695.369 .0272947
696.108 .0272751
696.846 .0272551
697.585 .0272344
698.323 .0272131
699.061 .0271913
699.798 .0271690
700.536 .0271469
701.273 .0271249
702.010 .0271036
702.746 .0270829
703.483 .0270636
704.219 .0270453
704.955 .0270278
705.691 .0270107
706.427 .0269935
707.162 .0269760
707.897 .0269588
708.632 .0269415
709.367 .0269248
710.101 .0269084
710.835 .0268927
711.569 .0268769
712.303 .0268613
713.037 .0268457
713.770 .0268292
714.503 .0268119
715.236 .0267937
715.969 .0267741
716.702 .0267539
717.434 .0267335
718.166 .0267130
718.898 .0266928
719.629 .0266734
720.361 .0266545
721.092 .0266360
721.823 .0266181
722.554 .0265999
723.284 .0265817
724.014 .0265629
724.744 .0265433
725.474 .0265225
726.204 .0265013
726.933 .0264801
727.662 .0264584
728.391 .0264370
729.120 .0264160
729.849 .0263956
730.577 .0263759
731.305 .0263566
732.033 .0263375
732.760 .0263182
733.488 .0262994
734.215 .0262802
734.942 .0262613
735.669 .0262422
736.395 .0262236
737.122 .0262054
737.848 .0261877
738.573 .0261702
739.299 .0261527
740.024 .0261353
740.750 .0261179
741.474 .0261000
742.199 .0260818
742.924 .0260631
743.648 .0260448
744.372 .0260267
745.096 .0260091
745.819 .0259918
746.543 .0259751
747.266 .0259592
747.989 .0259443
748.711 .0259302
749.434 .0259173
750.156 .0259062
750.878 .0258970
751.599 .0258895
752.321 .0258838
753.042 .0258800
753.763 .0258777
754.484 .0258767
755.205 .0258763
755.925 .0258756
756.645 .0258743
757.365 .0258723
758.085 .0258688
758.804 .0258641
759.523 .0258580
760.242 .0258506
760.961 .0258419
761.679 .0258322
762.397 .0258212
763.115 .0258088
763.833 .0257954
764.551 .0257807
765.268 .0257643
765.985 .0257465
766.702 .0257273
767.418 .0257076
768.134 .0256877
768.850 .0256684
769.566 .0256495
770.282 .0256315
770.997 .0256148
771.712 .0255986
772.427 .0255831
773.142 .0255685
773.856 .0255543
774.570 .0255402
775.284 .0255264
775.998 .0255128
776.711 .0254999
777.424 .0254877
778.137 .0254763
778.849 .0254654
779.562 .0254549
780.274 .0254445
780.986 .0254336
781.697 .0254230
782.409 .0254123
783.120 .0254016
783.831 .0253917
784.541 .0253828
785.252 .0253750
785.962 .0253687
786.671 .0253634
787.381 .0253591
788.090 .0253556
788.799 .0253522
789.508 .0253484
790.217 .0253441
790.925 .0253396
791.633 .0253346
792.341 .0253291
793.048 .0253233
793.755 .0253170
794.462 .0253108
795.169 .0253042
795.875 .0252974
796.581 .0252903
797.287 .0252829
797.993 .0252749
798.698 .0252664
799.403 .0252571
800.108 .0252472
800.812 .0252366
801.517 .0252257
802.221 .0252141
802.924 .0252020
803.628 .0251897
804.331 .0251778
805.034 .0251659
805.736 .0251543
806.439 .0251425
807.141 .0251310
807.843 .0251201
808.544 .0251095
809.245 .0250989
809.946 .0250885
810.647 .0250786
811.347 .0250686
812.047 .0250583
812.747 .0250485
813.447 .0250386
814.146 .0250290
814.845 .0250200
815.543 .0250113
816.242 .0250031
816.940 .0249951
817.638 .0249870
818.335 .0249780
819.032 .0249681
819.729 .0249568
820.426 .0249436
821.122 .0249290
821.818 .0249129
822.514 .0248954
823.209 .0248773
823.905 .0248596
824.599 .0248417
825.294 .0248245
825.988 .0248079
826.682 .0247914
827.376 .0247752
828.069 .0247591
828.762 .0247427
829.455 .0247259
830.147 .0247094
830.840 .0246930
831.531 .0246765
832.223 .0246612
832.914 .0246471
833.605 .0246339
834.296 .0246219
834.986 .0246102
835.676 .0245978
836.366 .0245847
837.055 .0245703
837.744 .0245543
838.433 .0245371
839.121 .0245194
839.809 .0245013
840.497 .0244841
841.185 .0244684
841.872 .0244543
842.559 .0244421
843.245 .0244315
843.932 .0244213
844.617 .0244109
845.303 .0244000
845.988 .0243886
846.673 .0243766
847.358 .0243642
848.042 .0243518
848.726 .0243399
849.410 .0243285
850.093 .0243176
850.776 .0243070
851.459 .0242967
852.141 .0242864
852.823 .0242756
853.505 .0242644
854.186 .0242527
854.867 .0242409
855.548 .0242287
856.228 .0242166
856.908 .0242052
857.588 .0241943
858.267 .0241843
858.946 .0241754
859.625 .0241677
860.303 .0241605
860.981 .0241539
861.659 .0241477
862.336 .0241407
863.013 .0241330
863.690 .0241244
864.366 .0241147
865.042 .0241040
865.718 .0240925
866.393 .0240804
867.068 .0240683
867.743 .0240567
868.417 .0240448
869.091 .0240328
869.765 .0240212
870.438 .0240097
871.111 .0239980
871.783 .0239863
872.456 .0239748
873.127 .0239636
873.799 .0239532
874.470 .0239434
875.141 .0239339
875.811 .0239250
876.481 .0239165
877.151 .0239081
877.820 .0238992
878.489 .0238904
879.158 .0238807
879.826 .0238705
880.494 .0238596
881.162 .0238478
881.829 .0238357
882.496 .0238231
883.163 .0238103
883.829 .0237974
884.495 .0237844
885.160 .0237715
885.825 .0237589
886.490 .0237470
887.154 .0237357
887.818 .0237251
888.482 .0237152
889.145 .0237064
889.808 .0236985
890.471 .0236915
891.133 .0236855
891.795 .0236803
892.456 .0236758
893.117 .0236713
893.778 .0236670
894.439 .0236629
895.099 .0236587
895.758 .0236547
896.417 .0236505
897.076 .0236459
897.735 .0236409
898.393 .0236353
899.051 .0236292
899.708 .0236226
900.365 .0236155
901.022 .0236080
901.678 .0236006
902.334 .0235935
902.990 .0235865
903.645 .0235800
904.300 .0235743
904.954 .0235689
905.608 .0235636
906.262 .0235582
906.915 .0235530
907.568 .0235475
908.221 .0235418
908.873 .0235355
909.525 .0235289
910.176 .0235219
910.828 .0235144
911.478 .0235066
912.129 .0234984
912.778 .0234899
913.428 .0234810
914.077 .0234721
914.726 .0234630
915.375 .0234538
916.023 .0234444
916.670 .0234354
917.318 .0234267
917.964 .0234181
918.611 .0234101
919.257 .0234031
919.903 .0233970
920.548 .0233918
921.193 .0233873
921.838 .0233839
922.482 .0233816
923.126 .0233804
923.770 .0233799
924.413 .0233799
925.056 .0233801
925.698 .0233803
926.340 .0233804
926.982 .0233804
927.623 .0233799
928.264 .0233788
928.904 .0233772
929.544 .0233752
930.184 .0233727
930.823 .0233692
931.462 .0233649
932.101 .0233595
932.739 .0233524
933.377 .0233435
934.014 .0233325
934.651 .0233205
935.288 .0233072
935.924 .0232936
936.560 .0232796
937.196 .0232661
937.831 .0232532
938.466 .0232409
939.100 .0232291
939.734 .0232177
940.368 .0232061
941.001 .0231945
941.634 .0231828
942.266 .0231710
942.899 .0231589
943.530 .0231470
944.162 .0231352
944.793 .0231234
945.423 .0231108
946.053 .0230975
946.683 .0230834
947.313 .0230685
947.942 .0230526
948.571 .0230355
949.199 .0230174
949.827 .0229986
950.455 .0229790
951.082 .0229592
951.709 .0229394
952.335 .0229203
952.961 .0229022
953.587 .0228853
954.212 .0228695
954.837 .0228545
955.462 .0228405
956.086 .0228273
956.710 .0228146
957.334 .0228023
957.957 .0227900
958.579 .0227783
959.202 .0227671
959.824 .0227567
960.445 .0227470
961.067 .0227381
961.688 .0227300
962.308 .0227222
962.928 .0227152
963.548 .0227083
964.168 .0227018
964.787 .0226958
965.406 .0226900
966.024 .0226843
966.642 .0226788
967.260 .0226733
967.877 .0226679
968.494 .0226625
969.110 .0226570
969.727 .0226510
970.342 .0226452
970.958 .0226393
971.573 .0226332
972.188 .0226268
972.802 .0226205
973.416 .0226133
974.030 .0226055
974.643 .0225965
975.256 .0225868
975.869 .0225765
976.481 .0225663
977.093 .0225566
977.705 .0225482
978.316 .0225414
978.927 .0225359
979.538 .0225314
980.148 .0225274
980.758 .0225230
981.367 .0225182
981.977 .0225129
982.586 .0225073
983.194 .0225025
983.802 .0224982
984.410 .0224948
985.018 .0224929
985.625 .0224918
986.232 .0224908
986.838 .0224894
987.445 .0224869
988.050 .0224826
988.656 .0224764
989.261 .0224692
989.866 .0224606
990.471 .0224518
991.075 .0224435
991.679 .0224356
992.282 .0224285
992.886 .0224224
993.489 .0224168
994.091 .0224120
994.694 .0224076
995.296 .0224036
995.897 .0223993
996.499 .0223950
997.100 .0223905
997.701 .0223855
998.301 .0223806
998.901 .0223762
999.501 .0223719
1000.101 .0223684
1000.700 .0223658
1001.299 .0223632
1001.898 .0223608
1002.496 .0223581
1003.094 .0223548
1003.692 .0223504
1004.289 .0223447
1004.887 .0223387
1005.484 .0223322
1006.080 .0223262
1006.677 .0223208
1007.273 .0223160
1007.868 .0223129
1008.464 .0223105
1009.059 .0223084
1009.654 .0223061
1010.249 .0223037
1010.843 .0223011
1011.437 .0222987
1012.031 .0222965
1012.625 .0222950
1013.218 .0222938
1013.811 .0222927
1014.404 .0222914
1014.997 .0222900
1015.589 .0222882
1016.181 .0222857
1016.773 .0222827
1017.365 .0222792
1017.956 .0222745
1018.547 .0222694
1019.138 .0222638
1019.728 .0222578
1020.319 .0222513
1020.909 .0222442
1021.499 .0222365
1022.088 .0222295
1022.678 .0222233
1023.267 .0222183
1023.856 .0222154
1024.445 .0222146
1025.033 .0222151
1025.621 .0222163
1026.209 .0222183
1026.797 .0222202
1027.385 .0222223
1027.972 .0222242
1028.560 .0222258
1029.147 .0222281
1029.734 .0222312
1030.320 .0222355
1030.907 .0222401
1031.493 .0222457
1032.079 .0222505
1032.665 .0222530
1033.250 .0222533
1033.836 .0222507
1034.421 .0222452
1035.006 .0222376
1035.591 .0222292
1036.176 .0222206
1036.761 .0222126
1037.345 .0222065
1037.929 .0222015
1038.514 .0221978
1039.097 .0221947
1039.681 .0221922
1040.265 .0221896
1040.848 .0221876
1041.432 .0221855
1042.015 .0221842
1042.598 .0221851
1043.181 .0221875
1043.764 .0221909
1044.346 .0221955
1044.929 .0221998
1045.511 .0222034
1046.094 .0222047
1046.676 .0222044
1047.258 .0222017
1047.840 .0221983
1048.422 .0221940
1049.003 .0221893
1049.585 .0221849
1050.166 .0221804
1050.748 .0221760
1051.329 .0221712
1051.910 .0221655
1052.491 .0221588
1053.072 .0221512
1053.653 .0221434
1054.234 .0221351
1054.815 .0221278
1055.396 .0221214
1055.976 .0221174
1056.557 .0221154
1057.138 .0221152
1057.718 .0221175
1058.298 .0221221
1058.879 .0221281
1059.459 .0221348
1060.039 .0221417
1060.620 .0221468
1061.200 .0221494
1061.780 .0221502
1062.360 .0221475
1062.940 .0221428
1063.520 .0221376
1064.101 .0221323
1064.681 .0221270
1065.261 .0221227
1065.841 .0221185
1066.421 .0221144
1067.001 .0221109
1067.581 .0221050
1068.161 .0220955
1068.741 .0220842
1069.321 .0220700
1069.901 .0220534
1070.482 .0220361
1071.062 .0220203
1071.642 .0220062
1072.222 .0219956
1072.803 .0219870
1073.383 .0219803
1073.963 .0219765
1074.544 .0219729
1075.124 .0219688
1075.705 .0219633
1076.286 .0219561
1076.866 .0219467
1077.447 .0219352
1078.028 .0219245
1078.609 .0219144
1079.190 .0219071
1079.771 .0219022
1080.352 .0219005
1080.934 .0219017
1081.515 .0219037
1082.097 .0219065
1082.679 .0219102
1083.260 .0219129
1083.842 .0219140
1084.424 .0219132
1085.007 .0219109
1085.589 .0219074
1086.172 .0219022
1086.754 .0218946
1087.337 .0218868
1087.920 .0218774
1088.503 .0218663
1089.087 .0218540
1089.670 .0218436
1090.254 .0218337
1090.838 .0218255
1091.422 .0218209
1092.006 .0218187
1092.590 .0218191
1093.175 .0218220
1093.760 .0218257
1094.345 .0218315
1094.930 .0218384
1095.516 .0218458
1096.102 .0218531
1096.688 .0218627
1097.274 .0218735
1097.860 .0218854
1098.447 .0218987
1099.034 .0219125
1099.622 .0219246
1100.209 .0219361
1100.797 .0219444
1101.385 .0219483
1101.973 .0219478
1102.562 .0219431
1103.151 .0219322
1103.740 .0219171
1104.330 .0218989
1104.920 .0218788
1105.510 .0218590
1106.101 .0218423
1106.691 .0218262
1107.283 .0218140
1107.874 .0218048
1108.466 .0217962
1109.058 .0217886
1109.651 .0217824
1110.244 .0217749
1110.837 .0217683
1111.431 .0217650
1112.025 .0217660
1112.620 .0217707
1113.215 .0217821
1113.810 .0217981
1114.406 .0218200
1115.002 .0218464
1115.599 .0218741
1116.196 .0219032
1116.793 .0219341
1117.391 .0219644
1117.989 .0219925
1118.588 .0220201
1119.187 .0220466
1119.787 .0220695
1120.387 .0220893
1120.988 .0221048
1121.589 .0221146
1122.190 .0221181
1122.793 .0221152
1123.395 .0221067
1123.998 .0220966
1124.602 .0220828
1125.206 .0220691
1125.811 .0220575
1126.416 .0220498
1127.022 .0220448
1127.628 .0220397
1128.235 .0220392
1128.843 .0220424
1129.451 .0220472
1130.059 .0220537
1130.669 .0220624
1131.278 .0220757
1131.889 .0220885
1132.500 .0221022
1133.112 .0221183
1133.724 .0221378
1134.337 .0221605
1134.950 .0221867
1135.564 .0222161
1136.179 .0222491
1136.795 .0222868
1137.411 .0223277
1138.028 .0223722
1138.645 .0224179
1139.263 .0224707
1139.882 .0225280
1140.502 .0225989
1141.122 .0226804
1141.743 .0227675
1142.365 .0228801
1142.987 .0229293
1143.611 .0232217
1144.235 .0232063
1144.859 .0232138
1145.485 .0237964
