Measurement Sequence started on: 10-20-44-796
Integration time: 35
Scans to Average: 2 
>>>>>Begin Spectral Data<<<<<
432.953 .0548151
433.882 .0442122
434.810 .0404092
435.737 .0374953
436.662 .0377158
437.586 .0405003
438.509 .0400703
439.431 .0401056
440.351 .0402627
441.269 .0404322
442.187 .0405164
443.103 .0405090
444.018 .0404980
444.932 .0404663
445.844 .0404546
446.756 .0404524
447.666 .0404563
448.575 .0404298
449.482 .0403928
450.388 .0403292
451.294 .0402489
452.198 .0401544
453.100 .0400522
454.002 .0399604
454.902 .0398848
455.801 .0398301
456.699 .0397921
457.596 .0397726
458.492 .0397738
459.387 .0397856
460.280 .0397767
461.172 .0397565
462.064 .0397179
462.954 .0396541
463.843 .0395679
464.730 .0394733
465.617 .0393712
466.503 .0392689
467.387 .0391693
468.271 .0390759
469.153 .0389826
470.035 .0388956
470.915 .0388002
471.794 .0387066
472.673 .0386048
473.550 .0385076
474.426 .0384088
475.301 .0383311
476.175 .0382702
477.048 .0382250
477.920 .0381974
478.791 .0381886
479.661 .0381873
480.530 .0381972
481.398 .0382048
482.266 .0382191
483.132 .0382317
483.997 .0382509
484.861 .0382698
485.724 .0382991
486.587 .0383315
487.448 .0383682
488.308 .0383997
489.168 .0384316
490.026 .0384537
490.884 .0384712
491.741 .0384761
492.597 .0384728
493.452 .0384593
494.306 .0384380
495.159 .0384058
496.011 .0383709
496.862 .0383255
497.713 .0382722
498.562 .0382025
499.411 .0381235
500.259 .0380315
501.106 .0379305
501.952 .0378194
502.798 .0377027
503.642 .0375813
504.486 .0374565
505.329 .0373217
506.171 .0371914
507.012 .0370596
507.852 .0369321
508.692 .0368069
509.531 .0366807
510.369 .0365570
511.206 .0364338
512.043 .0363128
512.878 .0361938
513.713 .0360747
514.547 .0359607
515.381 .0358477
516.213 .0357507
517.045 .0356568
517.876 .0355606
518.706 .0354630
519.536 .0353605
520.365 .0352405
521.193 .0351011
522.020 .0349425
522.847 .0347678
523.673 .0345921
524.498 .0344175
525.323 .0342416
526.146 .0340822
526.969 .0339413
527.792 .0338033
528.614 .0336626
529.435 .0335282
530.255 .0333803
531.075 .0332252
531.894 .0330828
532.712 .0329400
533.530 .0328085
534.347 .0326927
535.163 .0325835
535.979 .0324774
536.794 .0323726
537.608 .0322539
538.422 .0321184
539.235 .0319847
540.048 .0318429
540.860 .0316949
541.671 .0315663
542.481 .0314572
543.292 .0313684
544.101 .0313002
544.910 .0312532
545.718 .0312111
546.526 .0311812
547.333 .0311535
548.139 .0311252
548.945 .0311078
549.750 .0310935
550.555 .0310900
551.359 .0311108
552.162 .0311526
552.965 .0312178
553.768 .0312983
554.569 .0314009
555.371 .0315064
556.171 .0316142
556.972 .0317118
557.771 .0317980
558.570 .0318729
559.369 .0319399
560.167 .0319946
560.964 .0320456
561.761 .0320977
562.558 .0321568
563.354 .0322238
564.149 .0322939
564.944 .0323645
565.738 .0324394
566.532 .0325097
567.325 .0325782
568.118 .0326368
568.910 .0326910
569.702 .0327361
570.494 .0327754
571.285 .0328062
572.075 .0328334
572.865 .0328582
573.654 .0328864
574.443 .0329178
575.232 .0329551
576.020 .0330002
576.807 .0330526
577.594 .0331100
578.381 .0331722
579.167 .0332293
579.952 .0332841
580.738 .0333335
581.522 .0333796
582.307 .0334224
583.091 .0334685
583.874 .0335203
584.657 .0335760
585.440 .0336371
586.222 .0336994
587.004 .0337588
587.785 .0338145
588.566 .0338635
589.346 .0338997
590.126 .0339241
590.906 .0339359
591.685 .0339348
592.464 .0339238
593.242 .0339053
594.020 .0338817
594.797 .0338569
595.575 .0338327
596.351 .0338093
597.128 .0337866
597.904 .0337657
598.679 .0337439
599.454 .0337210
600.229 .0336958
601.004 .0336675
601.778 .0336357
602.551 .0336033
603.325 .0335693
604.097 .0335356
604.870 .0335035
605.642 .0334729
606.414 .0334438
607.185 .0334145
607.956 .0333852
608.727 .0333548
609.497 .0333224
610.267 .0332883
611.037 .0332515
611.806 .0332129
612.575 .0331729
613.344 .0331312
614.112 .0330885
614.880 .0330458
615.647 .0330019
616.414 .0329580
617.181 .0329159
617.948 .0328751
618.714 .0328358
619.480 .0327997
620.245 .0327674
621.011 .0327380
621.775 .0327109
622.540 .0326855
623.304 .0326606
624.068 .0326365
624.832 .0326120
625.595 .0325863
626.358 .0325615
627.120 .0325373
627.883 .0325130
628.645 .0324902
629.406 .0324688
630.168 .0324487
630.929 .0324281
631.689 .0324080
632.450 .0323862
633.210 .0323628
633.970 .0323371
634.729 .0323088
635.489 .0322787
636.248 .0322463
637.006 .0322125
637.765 .0321780
638.523 .0321435
639.280 .0321101
640.038 .0320768
640.795 .0320460
641.552 .0320174
642.309 .0319914
643.065 .0319672
643.821 .0319453
644.577 .0319257
645.332 .0319079
646.088 .0318912
646.843 .0318760
647.597 .0318624
648.352 .0318506
649.106 .0318403
649.860 .0318310
650.613 .0318233
651.367 .0318177
652.120 .0318128
652.872 .0318095
653.625 .0318055
654.377 .0318021
655.129 .0317980
655.881 .0317928
656.632 .0317871
657.384 .0317809
658.135 .0317730
658.885 .0317636
659.636 .0317520
660.386 .0317390
661.136 .0317239
661.885 .0317089
662.635 .0316931
663.384 .0316775
664.133 .0316619
664.881 .0316462
665.630 .0316299
666.378 .0316141
667.126 .0315965
667.874 .0315768
668.621 .0315548
669.368 .0315308
670.115 .0315044
670.862 .0314773
671.608 .0314497
672.354 .0314222
673.100 .0313945
673.846 .0313681
674.591 .0313406
675.337 .0313141
676.082 .0312882
676.826 .0312621
677.571 .0312357
678.315 .0312093
679.059 .0311819
679.803 .0311538
680.547 .0311251
681.290 .0310957
682.033 .0310644
682.776 .0310327
683.518 .0310003
684.261 .0309678
685.003 .0309358
685.745 .0309049
686.487 .0308740
687.228 .0308446
687.969 .0308151
688.710 .0307846
689.451 .0307542
690.192 .0307237
690.932 .0306923
691.672 .0306603
692.412 .0306289
693.152 .0305981
693.891 .0305686
694.630 .0305414
695.369 .0305153
696.108 .0304900
696.846 .0304654
697.585 .0304407
698.323 .0304158
699.061 .0303913
699.798 .0303663
700.536 .0303419
701.273 .0303181
702.010 .0302946
702.746 .0302712
703.483 .0302491
704.219 .0302279
704.955 .0302071
705.691 .0301869
706.427 .0301671
707.162 .0301469
707.897 .0301270
708.632 .0301072
709.367 .0300873
710.101 .0300674
710.835 .0300476
711.569 .0300274
712.303 .0300076
713.037 .0299881
713.770 .0299688
714.503 .0299494
715.236 .0299303
715.969 .0299107
716.702 .0298904
717.434 .0298699
718.166 .0298493
718.898 .0298286
719.629 .0298089
720.361 .0297898
721.092 .0297713
721.823 .0297533
722.554 .0297360
723.284 .0297190
724.014 .0297016
724.744 .0296847
725.474 .0296677
726.204 .0296514
726.933 .0296360
727.662 .0296215
728.391 .0296078
729.120 .0295955
729.849 .0295848
730.577 .0295746
731.305 .0295653
732.033 .0295576
732.760 .0295504
733.488 .0295446
734.215 .0295395
734.942 .0295353
735.669 .0295312
736.395 .0295274
737.122 .0295225
737.848 .0295167
738.573 .0295102
739.299 .0295028
740.024 .0294946
740.750 .0294868
741.474 .0294795
742.199 .0294727
742.924 .0294667
743.648 .0294611
744.372 .0294557
745.096 .0294503
745.819 .0294443
746.543 .0294386
747.266 .0294323
747.989 .0294259
748.711 .0294204
749.434 .0294160
750.156 .0294129
750.878 .0294109
751.599 .0294103
752.321 .0294102
753.042 .0294110
753.763 .0294115
754.484 .0294115
755.205 .0294110
755.925 .0294097
756.645 .0294059
757.365 .0294006
758.085 .0293934
758.804 .0293835
759.523 .0293712
760.242 .0293563
760.961 .0293385
761.679 .0293185
762.397 .0292961
763.115 .0292713
763.833 .0292443
764.551 .0292160
765.268 .0291859
765.985 .0291552
766.702 .0291245
767.418 .0290939
768.134 .0290646
768.850 .0290372
769.566 .0290116
770.282 .0289878
770.997 .0289668
771.712 .0289483
772.427 .0289314
773.142 .0289158
773.856 .0289009
774.570 .0288865
775.284 .0288722
775.998 .0288579
776.711 .0288438
777.424 .0288299
778.137 .0288156
778.849 .0288001
779.562 .0287838
780.274 .0287661
780.986 .0287472
781.697 .0287277
782.409 .0287076
783.120 .0286875
783.831 .0286677
784.541 .0286493
785.252 .0286325
785.962 .0286173
786.671 .0286028
787.381 .0285890
788.090 .0285756
788.799 .0285620
789.508 .0285476
790.217 .0285334
790.925 .0285192
791.633 .0285045
792.341 .0284897
793.048 .0284743
793.755 .0284574
794.462 .0284395
795.169 .0284201
795.875 .0283992
796.581 .0283768
797.287 .0283528
797.993 .0283273
798.698 .0283009
799.403 .0282743
800.108 .0282470
800.812 .0282198
801.517 .0281932
802.221 .0281665
802.924 .0281403
803.628 .0281158
804.331 .0280929
805.034 .0280720
805.736 .0280528
806.439 .0280341
807.141 .0280164
807.843 .0279996
808.544 .0279833
809.245 .0279674
809.946 .0279529
810.647 .0279398
811.347 .0279278
812.047 .0279176
812.747 .0279092
813.447 .0279016
814.146 .0278943
814.845 .0278866
815.543 .0278778
816.242 .0278680
816.940 .0278569
817.638 .0278451
818.335 .0278339
819.032 .0278225
819.729 .0278111
820.426 .0277996
821.122 .0277882
821.818 .0277757
822.514 .0277621
823.209 .0277475
823.905 .0277328
824.599 .0277174
825.294 .0277027
825.988 .0276886
826.682 .0276764
827.376 .0276650
828.069 .0276542
828.762 .0276438
829.455 .0276334
830.147 .0276224
830.840 .0276115
831.531 .0276010
832.223 .0275924
832.914 .0275854
833.605 .0275815
834.296 .0275809
834.986 .0275831
835.676 .0275874
836.366 .0275933
837.055 .0275992
837.744 .0276050
838.433 .0276090
839.121 .0276117
839.809 .0276126
840.497 .0276124
841.185 .0276112
841.872 .0276095
842.559 .0276073
843.245 .0276047
843.932 .0276004
844.617 .0275948
845.303 .0275868
845.988 .0275764
846.673 .0275641
847.358 .0275500
848.042 .0275349
848.726 .0275202
849.410 .0275062
850.093 .0274938
850.776 .0274828
851.459 .0274739
852.141 .0274665
852.823 .0274604
853.505 .0274553
854.186 .0274508
854.867 .0274469
855.548 .0274438
856.228 .0274413
856.908 .0274394
857.588 .0274379
858.267 .0274368
858.946 .0274357
859.625 .0274344
860.303 .0274324
860.981 .0274305
861.659 .0274286
862.336 .0274270
863.013 .0274253
863.690 .0274243
864.366 .0274241
865.042 .0274244
865.718 .0274248
866.393 .0274250
867.068 .0274245
867.743 .0274232
868.417 .0274201
869.091 .0274150
869.765 .0274077
870.438 .0273984
871.111 .0273878
871.783 .0273763
872.456 .0273637
873.127 .0273511
873.799 .0273382
874.470 .0273259
875.141 .0273130
875.811 .0272999
876.481 .0272869
877.151 .0272748
877.820 .0272630
878.489 .0272520
879.158 .0272426
879.826 .0272353
880.494 .0272300
881.162 .0272268
881.829 .0272246
882.496 .0272227
883.163 .0272209
883.829 .0272193
884.495 .0272174
885.160 .0272161
885.825 .0272152
886.490 .0272156
887.154 .0272172
887.818 .0272188
888.482 .0272199
889.145 .0272201
889.808 .0272191
890.471 .0272152
891.133 .0272090
891.795 .0272006
892.456 .0271903
893.117 .0271799
893.778 .0271699
894.439 .0271608
895.099 .0271522
895.758 .0271439
896.417 .0271353
897.076 .0271255
897.735 .0271140
898.393 .0271006
899.051 .0270862
899.708 .0270705
900.365 .0270537
901.022 .0270367
901.678 .0270203
902.334 .0270050
902.990 .0269907
903.645 .0269775
904.300 .0269649
904.954 .0269517
905.608 .0269378
906.262 .0269230
906.915 .0269065
907.568 .0268885
908.221 .0268691
908.873 .0268489
909.525 .0268288
910.176 .0268088
910.828 .0267898
911.478 .0267732
912.129 .0267584
912.778 .0267445
913.428 .0267312
914.077 .0267188
914.726 .0267056
915.375 .0266917
916.023 .0266772
916.670 .0266614
917.318 .0266451
917.964 .0266281
918.611 .0266105
919.257 .0265936
919.903 .0265768
920.548 .0265598
921.193 .0265431
921.838 .0265269
922.482 .0265107
923.126 .0264950
923.770 .0264802
924.413 .0264655
925.056 .0264509
925.698 .0264359
926.340 .0264203
926.982 .0264036
927.623 .0263863
928.264 .0263673
928.904 .0263475
929.544 .0263271
930.184 .0263058
930.823 .0262841
931.462 .0262628
932.101 .0262417
932.739 .0262201
933.377 .0261975
934.014 .0261740
934.651 .0261493
935.288 .0261245
935.924 .0260987
936.560 .0260733
937.196 .0260492
937.831 .0260270
938.466 .0260060
939.100 .0259870
939.734 .0259693
940.368 .0259522
941.001 .0259352
941.634 .0259173
942.266 .0258977
942.899 .0258768
943.530 .0258547
944.162 .0258315
944.793 .0258076
945.423 .0257835
946.053 .0257590
946.683 .0257352
947.313 .0257113
947.942 .0256867
948.571 .0256612
949.199 .0256352
949.827 .0256085
950.455 .0255811
951.082 .0255535
951.709 .0255260
952.335 .0254994
952.961 .0254735
953.587 .0254479
954.212 .0254235
954.837 .0253996
955.462 .0253757
956.086 .0253516
956.710 .0253273
957.334 .0253027
957.957 .0252787
958.579 .0252559
959.202 .0252346
959.824 .0252152
960.445 .0251978
961.067 .0251824
961.688 .0251693
962.308 .0251570
962.928 .0251454
963.548 .0251334
964.168 .0251214
964.787 .0251081
965.406 .0250939
966.024 .0250795
966.642 .0250656
967.260 .0250521
967.877 .0250393
968.494 .0250274
969.110 .0250158
969.727 .0250038
970.342 .0249907
970.958 .0249759
971.573 .0249598
972.188 .0249426
972.802 .0249251
973.416 .0249080
974.030 .0248929
974.643 .0248796
975.256 .0248692
975.869 .0248619
976.481 .0248562
977.093 .0248515
977.705 .0248476
978.316 .0248440
978.927 .0248401
979.538 .0248363
980.148 .0248328
980.758 .0248302
981.367 .0248290
981.977 .0248284
982.586 .0248287
983.194 .0248304
983.802 .0248325
984.410 .0248342
985.018 .0248354
985.625 .0248356
986.232 .0248346
986.838 .0248323
987.445 .0248284
988.050 .0248230
988.656 .0248160
989.261 .0248080
989.866 .0247985
990.471 .0247889
991.075 .0247792
991.679 .0247700
992.282 .0247623
992.886 .0247557
993.489 .0247504
994.091 .0247461
994.694 .0247430
995.296 .0247402
995.897 .0247367
996.499 .0247334
997.100 .0247308
997.701 .0247290
998.301 .0247281
998.901 .0247294
999.501 .0247318
1000.101 .0247363
1000.700 .0247419
1001.299 .0247487
1001.898 .0247567
1002.496 .0247659
1003.094 .0247754
1003.692 .0247846
1004.289 .0247941
1004.887 .0248034
1005.484 .0248118
1006.080 .0248207
1006.677 .0248290
1007.273 .0248374
1007.868 .0248453
1008.464 .0248537
1009.059 .0248616
1009.654 .0248702
1010.249 .0248788
1010.843 .0248871
1011.437 .0248949
1012.031 .0249014
1012.625 .0249060
1013.218 .0249089
1013.811 .0249105
1014.404 .0249111
1014.997 .0249096
1015.589 .0249079
1016.181 .0249060
1016.773 .0249042
1017.365 .0249030
1017.956 .0249024
1018.547 .0249027
1019.138 .0249038
1019.728 .0249055
1020.319 .0249080
1020.909 .0249119
1021.499 .0249173
1022.088 .0249240
1022.678 .0249314
1023.267 .0249400
1023.856 .0249492
1024.445 .0249595
1025.033 .0249712
1025.621 .0249838
1026.209 .0249965
1026.797 .0250085
1027.385 .0250189
1027.972 .0250289
1028.560 .0250376
1029.147 .0250444
1029.734 .0250507
1030.320 .0250564
1030.907 .0250614
1031.493 .0250656
1032.079 .0250695
1032.665 .0250738
1033.250 .0250774
1033.836 .0250807
1034.421 .0250829
1035.006 .0250851
1035.591 .0250882
1036.176 .0250918
1036.761 .0250970
1037.345 .0251041
1037.929 .0251134
1038.514 .0251244
1039.097 .0251367
1039.681 .0251502
1040.265 .0251637
1040.848 .0251767
1041.432 .0251887
1042.015 .0251984
1042.598 .0252054
1043.181 .0252112
1043.764 .0252153
1044.346 .0252177
1044.929 .0252197
1045.511 .0252214
1046.094 .0252238
1046.676 .0252274
1047.258 .0252334
1047.840 .0252404
1048.422 .0252496
1049.003 .0252601
1049.585 .0252705
1050.166 .0252796
1050.748 .0252870
1051.329 .0252918
1051.910 .0252957
1052.491 .0252989
1053.072 .0253021
1053.653 .0253058
1054.234 .0253125
1054.815 .0253200
1055.396 .0253280
1055.976 .0253347
1056.557 .0253397
1057.138 .0253405
1057.718 .0253368
1058.298 .0253278
1058.879 .0253159
1059.459 .0253020
1060.039 .0252894
1060.620 .0252774
1061.200 .0252676
1061.780 .0252592
1062.360 .0252524
1062.940 .0252456
1063.520 .0252389
1064.101 .0252296
1064.681 .0252197
1065.261 .0252091
1065.841 .0251971
1066.421 .0251832
1067.001 .0251691
1067.581 .0251556
1068.161 .0251424
1068.741 .0251316
1069.321 .0251236
1069.901 .0251172
1070.482 .0251162
1071.062 .0251184
1071.642 .0251234
1072.222 .0251321
1072.803 .0251418
1073.383 .0251528
1073.963 .0251647
1074.544 .0251769
1075.124 .0251889
1075.705 .0252026
1076.286 .0252194
1076.866 .0252370
1077.447 .0252561
1078.028 .0252764
1078.609 .0252956
1079.190 .0253133
1079.771 .0253275
1080.352 .0253378
1080.934 .0253451
1081.515 .0253508
1082.097 .0253551
1082.679 .0253599
1083.260 .0253639
1083.842 .0253681
1084.424 .0253721
1085.007 .0253733
1085.589 .0253723
1086.172 .0253689
1086.754 .0253644
1087.337 .0253586
1087.920 .0253530
1088.503 .0253493
1089.087 .0253440
1089.670 .0253378
1090.254 .0253258
1090.838 .0253083
1091.422 .0252871
1092.006 .0252586
1092.590 .0252263
1093.175 .0251938
1093.760 .0251638
1094.345 .0251357
1094.930 .0251101
1095.516 .0250885
1096.102 .0250688
1096.688 .0250483
1097.274 .0250262
1097.860 .0250017
1098.447 .0249769
1099.034 .0249545
1099.622 .0249339
1100.209 .0249187
1100.797 .0249093
1101.385 .0249044
1101.973 .0249055
1102.562 .0249098
1103.151 .0249187
1103.740 .0249268
1104.330 .0249349
1104.920 .0249456
1105.510 .0249563
1106.101 .0249666
1106.691 .0249775
1107.283 .0249874
1107.874 .0249955
1108.466 .0249978
1109.058 .0249950
1109.651 .0249885
1110.244 .0249812
1110.837 .0249723
1111.431 .0249636
1112.025 .0249583
1112.620 .0249582
1113.215 .0249585
1113.810 .0249605
1114.406 .0249667
1115.002 .0249740
1115.599 .0249790
1116.196 .0249831
1116.793 .0249862
1117.391 .0249916
1117.989 .0249987
1118.588 .0250093
1119.187 .0250236
1119.787 .0250402
1120.387 .0250556
1120.988 .0250658
1121.589 .0250708
1122.190 .0250720
1122.793 .0250677
1123.395 .0250616
1123.998 .0250556
1124.602 .0250509
1125.206 .0250478
1125.811 .0250541
1126.416 .0250669
1127.022 .0250854
1127.628 .0251071
1128.235 .0251285
1128.843 .0251504
1129.451 .0251722
1130.059 .0251984
1130.669 .0252265
1131.278 .0252639
1131.889 .0253107
1132.500 .0253609
1133.112 .0254188
1133.724 .0254804
1134.337 .0255427
1134.950 .0255995
1135.564 .0256488
1136.179 .0256914
1136.795 .0257301
1137.411 .0257684
1138.028 .0258062
1138.645 .0258530
1139.263 .0259039
1139.882 .0259583
1140.502 .0260078
1141.122 .0260441
1141.743 .0260866
1142.365 .0260961
1142.987 .0262102
1143.611 .0260756
1144.235 .0258950
1144.859 .0263932
1145.485 .0257073
