Measurement Sequence started on: 10-20-44-796
Integration time: 35
Scans to Average: 2 
>>>>>Begin Spectral Data<<<<<
432.953 .0394792
433.882 .0432299
434.810 .0414158
435.737 .0406323
436.662 .0380639
437.586 .0391006
438.509 .0386723
439.431 .0381801
440.351 .0378100
441.269 .0375134
442.187 .0373276
443.103 .0371643
444.018 .0370603
444.932 .0369968
445.844 .0369882
446.756 .0369952
447.666 .0370004
448.575 .0369919
449.482 .0369838
450.388 .0369751
451.294 .0369803
452.198 .0369985
453.100 .0370353
454.002 .0370728
454.902 .0371114
455.801 .0371338
456.699 .0371366
457.596 .0371182
458.492 .0370784
459.387 .0370243
460.280 .0369666
461.172 .0369130
462.064 .0368723
462.954 .0368415
463.843 .0368134
464.730 .0367880
465.617 .0367580
466.503 .0367156
467.387 .0366598
468.271 .0365898
469.153 .0365168
470.035 .0364462
470.915 .0363883
471.794 .0363451
472.673 .0363157
473.550 .0362987
474.426 .0362901
475.301 .0362802
476.175 .0362621
477.048 .0362320
477.920 .0361860
478.791 .0361308
479.661 .0360593
480.530 .0359823
481.398 .0359017
482.266 .0358313
483.132 .0357701
483.997 .0357176
484.861 .0356717
485.724 .0356324
486.587 .0355975
487.448 .0355651
488.308 .0355301
489.168 .0354962
490.026 .0354629
490.884 .0354303
491.741 .0353953
492.597 .0353686
493.452 .0353439
494.306 .0353283
495.159 .0353116
496.011 .0352971
496.862 .0352793
497.713 .0352585
498.562 .0352291
499.411 .0351918
500.259 .0351469
501.106 .0350910
501.952 .0350228
502.798 .0349499
503.642 .0348661
504.486 .0347771
505.329 .0346814
506.171 .0345813
507.012 .0344717
507.852 .0343584
508.692 .0342412
509.531 .0341243
510.369 .0340095
511.206 .0338930
512.043 .0337716
512.878 .0336466
513.713 .0335131
514.547 .0333658
515.381 .0332035
516.213 .0330328
517.045 .0328465
517.876 .0326442
518.706 .0324337
519.536 .0322213
520.365 .0320092
521.193 .0317924
522.020 .0315704
522.847 .0313403
523.673 .0311119
524.498 .0308783
525.323 .0306411
526.146 .0304194
526.969 .0302209
527.792 .0300437
528.614 .0298866
529.435 .0297570
530.255 .0296428
531.075 .0295381
531.894 .0294469
532.712 .0293550
533.530 .0292731
534.347 .0292074
535.163 .0291684
535.979 .0291544
536.794 .0291668
537.608 .0292055
538.422 .0292580
539.235 .0293195
540.048 .0293715
540.860 .0294032
541.671 .0294251
542.481 .0294395
543.292 .0294462
544.101 .0294486
544.910 .0294697
545.718 .0295112
546.526 .0295705
547.333 .0296473
548.139 .0297394
548.945 .0298340
549.750 .0299262
550.555 .0300091
551.359 .0300759
552.162 .0301306
552.965 .0301829
553.768 .0302351
554.569 .0302994
555.371 .0303747
556.171 .0304606
556.972 .0305524
557.771 .0306517
558.570 .0307457
559.369 .0308331
560.167 .0309142
560.964 .0309888
561.761 .0310542
562.558 .0311194
563.354 .0311864
564.149 .0312540
564.944 .0313222
565.738 .0313917
566.532 .0314553
567.325 .0315119
568.118 .0315579
568.910 .0315995
569.702 .0316355
570.494 .0316696
571.285 .0317022
572.075 .0317352
572.865 .0317726
573.654 .0318136
574.443 .0318539
575.232 .0318953
576.020 .0319390
576.807 .0319806
577.594 .0320197
578.381 .0320591
579.167 .0321011
579.952 .0321460
580.738 .0321975
581.522 .0322559
582.307 .0323150
583.091 .0323791
583.874 .0324449
584.657 .0325095
585.440 .0325719
586.222 .0326272
587.004 .0326731
587.785 .0327083
588.566 .0327338
589.346 .0327493
590.126 .0327578
590.906 .0327608
591.685 .0327597
592.464 .0327548
593.242 .0327494
594.020 .0327417
594.797 .0327333
595.575 .0327230
596.351 .0327093
597.128 .0326907
597.904 .0326673
598.679 .0326400
599.454 .0326107
600.229 .0325799
601.004 .0325509
601.778 .0325229
602.551 .0324979
603.325 .0324746
604.097 .0324542
604.870 .0324354
605.642 .0324160
606.414 .0323952
607.185 .0323722
607.956 .0323457
608.727 .0323188
609.497 .0322917
610.267 .0322657
611.037 .0322407
611.806 .0322172
612.575 .0321940
613.344 .0321712
614.112 .0321484
614.880 .0321256
615.647 .0321023
616.414 .0320792
617.181 .0320555
617.948 .0320320
618.714 .0320102
619.480 .0319895
620.245 .0319703
621.011 .0319529
621.775 .0319360
622.540 .0319198
623.304 .0319040
624.068 .0318894
624.832 .0318747
625.595 .0318597
626.358 .0318445
627.120 .0318280
627.883 .0318105
628.645 .0317917
629.406 .0317724
630.168 .0317539
630.929 .0317362
631.689 .0317198
632.450 .0317043
633.210 .0316906
633.970 .0316774
634.729 .0316634
635.489 .0316473
636.248 .0316284
637.006 .0316067
637.765 .0315825
638.523 .0315566
639.280 .0315298
640.038 .0315032
640.795 .0314785
641.552 .0314552
642.309 .0314337
643.065 .0314132
643.821 .0313923
644.577 .0313703
645.332 .0313464
646.088 .0313200
646.843 .0312919
647.597 .0312631
648.352 .0312354
649.106 .0312095
649.860 .0311871
650.613 .0311684
651.367 .0311540
652.120 .0311435
652.872 .0311348
653.625 .0311257
654.377 .0311177
655.129 .0311085
655.881 .0310988
656.632 .0310878
657.384 .0310772
658.135 .0310674
658.885 .0310578
659.636 .0310485
660.386 .0310399
661.136 .0310312
661.885 .0310225
662.635 .0310114
663.384 .0309997
664.133 .0309858
664.881 .0309706
665.630 .0309536
666.378 .0309361
667.126 .0309168
667.874 .0308963
668.621 .0308741
669.368 .0308529
670.115 .0308308
670.862 .0308091
671.608 .0307875
672.354 .0307672
673.100 .0307471
673.846 .0307280
674.591 .0307088
675.337 .0306913
676.082 .0306739
676.826 .0306571
677.571 .0306397
678.315 .0306236
679.059 .0306078
679.803 .0305927
680.547 .0305777
681.290 .0305633
682.033 .0305471
682.776 .0305299
683.518 .0305105
684.261 .0304899
685.003 .0304679
685.745 .0304449
686.487 .0304203
687.228 .0303958
687.969 .0303705
688.710 .0303448
689.451 .0303193
690.192 .0302947
690.932 .0302701
691.672 .0302461
692.412 .0302222
693.152 .0301992
693.891 .0301763
694.630 .0301545
695.369 .0301328
696.108 .0301121
696.846 .0300914
697.585 .0300707
698.323 .0300506
699.061 .0300314
699.798 .0300123
700.536 .0299935
701.273 .0299743
702.010 .0299548
702.746 .0299343
703.483 .0299123
704.219 .0298886
704.955 .0298640
705.691 .0298377
706.427 .0298101
707.162 .0297820
707.897 .0297539
708.632 .0297256
709.367 .0296984
710.101 .0296708
710.835 .0296435
711.569 .0296162
712.303 .0295886
713.037 .0295608
713.770 .0295339
714.503 .0295077
715.236 .0294822
715.969 .0294585
716.702 .0294365
717.434 .0294152
718.166 .0293948
718.898 .0293741
719.629 .0293526
720.361 .0293309
721.092 .0293079
721.823 .0292834
722.554 .0292582
723.284 .0292327
724.014 .0292066
724.744 .0291806
725.474 .0291547
726.204 .0291293
726.933 .0291042
727.662 .0290799
728.391 .0290558
729.120 .0290326
729.849 .0290105
730.577 .0289893
731.305 .0289695
732.033 .0289514
732.760 .0289342
733.488 .0289186
734.215 .0289043
734.942 .0288912
735.669 .0288781
736.395 .0288658
737.122 .0288529
737.848 .0288398
738.573 .0288261
739.299 .0288115
740.024 .0287959
740.750 .0287799
741.474 .0287632
742.199 .0287460
742.924 .0287290
743.648 .0287126
744.372 .0286966
745.096 .0286816
745.819 .0286673
746.543 .0286541
747.266 .0286427
747.989 .0286332
748.711 .0286248
749.434 .0286185
750.156 .0286133
750.878 .0286088
751.599 .0286051
752.321 .0286018
753.042 .0285989
753.763 .0285966
754.484 .0285950
755.205 .0285941
755.925 .0285941
756.645 .0285945
757.365 .0285945
758.085 .0285936
758.804 .0285909
759.523 .0285850
760.242 .0285756
760.961 .0285632
761.679 .0285481
762.397 .0285308
763.115 .0285126
763.833 .0284935
764.551 .0284743
765.268 .0284541
765.985 .0284329
766.702 .0284100
767.418 .0283861
768.134 .0283611
768.850 .0283353
769.566 .0283100
770.282 .0282859
770.997 .0282635
771.712 .0282431
772.427 .0282247
773.142 .0282084
773.856 .0281928
774.570 .0281780
775.284 .0281625
775.998 .0281468
776.711 .0281310
777.424 .0281158
778.137 .0281012
778.849 .0280875
779.562 .0280747
780.274 .0280620
780.986 .0280495
781.697 .0280371
782.409 .0280243
783.120 .0280115
783.831 .0279987
784.541 .0279864
785.252 .0279747
785.962 .0279643
786.671 .0279545
787.381 .0279459
788.090 .0279379
788.799 .0279296
789.508 .0279204
790.217 .0279105
790.925 .0279000
791.633 .0278885
792.341 .0278763
793.048 .0278634
793.755 .0278497
794.462 .0278353
795.169 .0278201
795.875 .0278049
796.581 .0277901
797.287 .0277753
797.993 .0277606
798.698 .0277462
799.403 .0277325
800.108 .0277187
800.812 .0277051
801.517 .0276915
802.221 .0276776
802.924 .0276631
803.628 .0276482
804.331 .0276330
805.034 .0276183
805.736 .0276038
806.439 .0275895
807.141 .0275754
807.843 .0275615
808.544 .0275470
809.245 .0275318
809.946 .0275158
810.647 .0274990
811.347 .0274816
812.047 .0274639
812.747 .0274462
813.447 .0274284
814.146 .0274110
814.845 .0273933
815.543 .0273756
816.242 .0273578
816.940 .0273393
817.638 .0273205
818.335 .0273015
819.032 .0272828
819.729 .0272646
820.426 .0272469
821.122 .0272298
821.818 .0272130
822.514 .0271970
823.209 .0271810
823.905 .0271651
824.599 .0271495
825.294 .0271341
825.988 .0271185
826.682 .0271036
827.376 .0270888
828.069 .0270748
828.762 .0270614
829.455 .0270487
830.147 .0270358
830.840 .0270233
831.531 .0270103
832.223 .0269963
832.914 .0269811
833.605 .0269647
834.296 .0269467
834.986 .0269280
835.676 .0269084
836.366 .0268887
837.055 .0268695
837.744 .0268516
838.433 .0268341
839.121 .0268179
839.809 .0268029
840.497 .0267883
841.185 .0267746
841.872 .0267615
842.559 .0267489
843.245 .0267364
843.932 .0267246
844.617 .0267135
845.303 .0267031
845.988 .0266934
846.673 .0266839
847.358 .0266746
848.042 .0266658
848.726 .0266564
849.410 .0266465
850.093 .0266358
850.776 .0266244
851.459 .0266112
852.141 .0265962
852.823 .0265796
853.505 .0265618
854.186 .0265426
854.867 .0265228
855.548 .0265027
856.228 .0264828
856.908 .0264638
857.588 .0264462
858.267 .0264298
858.946 .0264145
859.625 .0264000
860.303 .0263863
860.981 .0263725
861.659 .0263595
862.336 .0263469
863.013 .0263352
863.690 .0263249
864.366 .0263153
865.042 .0263056
865.718 .0262961
866.393 .0262867
867.068 .0262763
867.743 .0262648
868.417 .0262527
869.091 .0262390
869.765 .0262245
870.438 .0262100
871.111 .0261952
871.783 .0261802
872.456 .0261659
873.127 .0261516
873.799 .0261370
874.470 .0261228
875.141 .0261091
875.811 .0260957
876.481 .0260838
877.151 .0260724
877.820 .0260612
878.489 .0260508
879.158 .0260409
879.826 .0260308
880.494 .0260208
881.162 .0260110
881.829 .0260004
882.496 .0259893
883.163 .0259782
883.829 .0259663
884.495 .0259545
885.160 .0259426
885.825 .0259308
886.490 .0259187
887.154 .0259072
887.818 .0258966
888.482 .0258870
889.145 .0258794
889.808 .0258735
890.471 .0258686
891.133 .0258651
891.795 .0258621
892.456 .0258592
893.117 .0258563
893.778 .0258535
894.439 .0258505
895.099 .0258478
895.758 .0258452
896.417 .0258433
897.076 .0258414
897.735 .0258395
898.393 .0258373
899.051 .0258340
899.708 .0258295
900.365 .0258234
901.022 .0258160
901.678 .0258082
902.334 .0257997
902.990 .0257914
903.645 .0257831
904.300 .0257757
904.954 .0257683
905.608 .0257608
906.262 .0257540
906.915 .0257475
907.568 .0257411
908.221 .0257352
908.873 .0257293
909.525 .0257236
910.176 .0257177
910.828 .0257120
911.478 .0257059
912.129 .0256998
912.778 .0256934
913.428 .0256871
914.077 .0256813
914.726 .0256761
915.375 .0256712
916.023 .0256668
916.670 .0256628
917.318 .0256578
917.964 .0256513
918.611 .0256431
919.257 .0256332
919.903 .0256220
920.548 .0256096
921.193 .0255974
921.838 .0255860
922.482 .0255761
923.126 .0255678
923.770 .0255611
924.413 .0255552
925.056 .0255494
925.698 .0255432
926.340 .0255358
926.982 .0255279
927.623 .0255198
928.264 .0255116
928.904 .0255047
929.544 .0254993
930.184 .0254953
930.823 .0254921
931.462 .0254891
932.101 .0254846
932.739 .0254780
933.377 .0254685
934.014 .0254554
934.651 .0254391
935.288 .0254208
935.924 .0254013
936.560 .0253812
937.196 .0253620
937.831 .0253434
938.466 .0253252
939.100 .0253076
939.734 .0252896
940.368 .0252708
941.001 .0252511
941.634 .0252309
942.266 .0252100
942.899 .0251889
943.530 .0251683
944.162 .0251482
944.793 .0251289
945.423 .0251104
946.053 .0250917
946.683 .0250728
947.313 .0250539
947.942 .0250344
948.571 .0250146
949.199 .0249944
949.827 .0249737
950.455 .0249526
951.082 .0249311
951.709 .0249103
952.335 .0248895
952.961 .0248702
953.587 .0248527
954.212 .0248366
954.837 .0248230
955.462 .0248111
956.086 .0248009
956.710 .0247924
957.334 .0247843
957.957 .0247768
958.579 .0247692
959.202 .0247618
959.824 .0247535
960.445 .0247450
961.067 .0247364
961.688 .0247276
962.308 .0247184
962.928 .0247086
963.548 .0246983
964.168 .0246875
964.787 .0246764
965.406 .0246644
966.024 .0246526
966.642 .0246409
967.260 .0246293
967.877 .0246180
968.494 .0246069
969.110 .0245963
969.727 .0245853
970.342 .0245747
970.958 .0245643
971.573 .0245536
972.188 .0245434
972.802 .0245330
973.416 .0245235
974.030 .0245135
974.643 .0245038
975.256 .0244947
975.869 .0244863
976.481 .0244789
977.093 .0244722
977.705 .0244672
978.316 .0244640
978.927 .0244616
979.538 .0244600
980.148 .0244582
980.758 .0244562
981.367 .0244537
981.977 .0244518
982.586 .0244503
983.194 .0244496
983.802 .0244501
984.410 .0244516
985.018 .0244526
985.625 .0244533
986.232 .0244534
986.838 .0244526
987.445 .0244510
988.050 .0244478
988.656 .0244434
989.261 .0244384
989.866 .0244320
990.471 .0244240
991.075 .0244149
991.679 .0244051
992.282 .0243939
992.886 .0243823
993.489 .0243717
994.091 .0243621
994.694 .0243536
995.296 .0243462
995.897 .0243391
996.499 .0243315
997.100 .0243225
997.701 .0243125
998.301 .0243021
998.901 .0242921
999.501 .0242831
1000.101 .0242758
1000.700 .0242720
1001.299 .0242709
1001.898 .0242722
1002.496 .0242751
1003.094 .0242790
1003.692 .0242822
1004.289 .0242836
1004.887 .0242839
1005.484 .0242838
1006.080 .0242831
1006.677 .0242820
1007.273 .0242808
1007.868 .0242791
1008.464 .0242766
1009.059 .0242727
1009.654 .0242673
1010.249 .0242619
1010.843 .0242556
1011.437 .0242492
1012.031 .0242421
1012.625 .0242357
1013.218 .0242291
1013.811 .0242227
1014.404 .0242163
1014.997 .0242098
1015.589 .0242031
1016.181 .0241973
1016.773 .0241919
1017.365 .0241878
1017.956 .0241846
1018.547 .0241815
1019.138 .0241787
1019.728 .0241760
1020.319 .0241722
1020.909 .0241689
1021.499 .0241658
1022.088 .0241636
1022.678 .0241609
1023.267 .0241598
1023.856 .0241592
1024.445 .0241595
1025.033 .0241610
1025.621 .0241624
1026.209 .0241634
1026.797 .0241648
1027.385 .0241658
1027.972 .0241673
1028.560 .0241701
1029.147 .0241743
1029.734 .0241790
1030.320 .0241842
1030.907 .0241884
1031.493 .0241918
1032.079 .0241934
1032.665 .0241931
1033.250 .0241895
1033.836 .0241845
1034.421 .0241777
1035.006 .0241691
1035.591 .0241602
1036.176 .0241505
1036.761 .0241398
1037.345 .0241280
1037.929 .0241145
1038.514 .0240991
1039.097 .0240834
1039.681 .0240686
1040.265 .0240546
1040.848 .0240432
1041.432 .0240342
1042.015 .0240276
1042.598 .0240240
1043.181 .0240224
1043.764 .0240221
1044.346 .0240225
1044.929 .0240237
1045.511 .0240245
1046.094 .0240265
1046.676 .0240302
1047.258 .0240348
1047.840 .0240407
1048.422 .0240471
1049.003 .0240516
1049.585 .0240541
1050.166 .0240538
1050.748 .0240501
1051.329 .0240444
1051.910 .0240371
1052.491 .0240291
1053.072 .0240225
1053.653 .0240178
1054.234 .0240156
1054.815 .0240144
1055.396 .0240151
1055.976 .0240145
1056.557 .0240125
1057.138 .0240110
1057.718 .0240074
1058.298 .0240035
1058.879 .0240000
1059.459 .0239971
1060.039 .0239948
1060.620 .0239921
1061.200 .0239886
1061.780 .0239838
1062.360 .0239785
1062.940 .0239712
1063.520 .0239615
1064.101 .0239515
1064.681 .0239420
1065.261 .0239321
1065.841 .0239216
1066.421 .0239107
1067.001 .0238992
1067.581 .0238874
1068.161 .0238757
1068.741 .0238640
1069.321 .0238539
1069.901 .0238466
1070.482 .0238428
1071.062 .0238397
1071.642 .0238391
1072.222 .0238387
1072.803 .0238385
1073.383 .0238366
1073.963 .0238348
1074.544 .0238322
1075.124 .0238299
1075.705 .0238286
1076.286 .0238285
1076.866 .0238272
1077.447 .0238263
1078.028 .0238237
1078.609 .0238199
1079.190 .0238123
1079.771 .0238027
1080.352 .0237912
1080.934 .0237808
1081.515 .0237712
1082.097 .0237642
1082.679 .0237588
1083.260 .0237582
1083.842 .0237586
1084.424 .0237607
1085.007 .0237646
1085.589 .0237716
1086.172 .0237784
1086.754 .0237853
1087.337 .0237934
1087.920 .0238034
1088.503 .0238143
1089.087 .0238277
1089.670 .0238419
1090.254 .0238585
1090.838 .0238761
1091.422 .0238928
1092.006 .0239082
1092.590 .0239226
1093.175 .0239323
1093.760 .0239365
1094.345 .0239349
1094.930 .0239273
1095.516 .0239136
1096.102 .0238972
1096.688 .0238802
1097.274 .0238639
1097.860 .0238483
1098.447 .0238322
1099.034 .0238184
1099.622 .0238064
1100.209 .0237928
1100.797 .0237800
1101.385 .0237685
1101.973 .0237587
1102.562 .0237478
1103.151 .0237399
1103.740 .0237330
1104.330 .0237292
1104.920 .0237262
1105.510 .0237250
1106.101 .0237256
1106.691 .0237305
1107.283 .0237377
1107.874 .0237484
1108.466 .0237619
1109.058 .0237756
1109.651 .0237861
1110.244 .0237955
1110.837 .0237998
1111.431 .0237993
1112.025 .0237930
1112.620 .0237869
1113.215 .0237774
1113.810 .0237678
1114.406 .0237619
1115.002 .0237597
1115.599 .0237614
1116.196 .0237637
1116.793 .0237633
1117.391 .0237609
1117.989 .0237552
1118.588 .0237467
1119.187 .0237342
1119.787 .0237239
1120.387 .0237132
1120.988 .0237029
1121.589 .0236966
1122.190 .0236915
1122.793 .0236880
1123.395 .0236886
1123.998 .0236941
1124.602 .0236986
1125.206 .0237089
1125.811 .0237221
1126.416 .0237376
1127.022 .0237563
1127.628 .0237763
1128.235 .0237951
1128.843 .0238151
1129.451 .0238390
1130.059 .0238644
1130.669 .0238949
1131.278 .0239336
1131.889 .0239736
1132.500 .0240188
1133.112 .0240646
1133.724 .0241083
1134.337 .0241456
1134.950 .0241834
1135.564 .0242189
1136.179 .0242499
1136.795 .0242883
1137.411 .0243273
1138.028 .0243706
1138.645 .0244191
1139.263 .0244682
1139.882 .0245190
1140.502 .0245684
1141.122 .0246179
1141.743 .0246642
1142.365 .0247175
1142.987 .0247555
1143.611 .0248060
1144.235 .0248536
1144.859 .0249488
1145.485 .0251496
