Measurement Sequence started on: 10-20-44-796
Integration time: 35
Scans to Average: 2 
>>>>>Begin Spectral Data<<<<<
432.953 .0376213
433.882 .0309115
434.810 .0368558
435.737 .0354446
436.662 .0332066
437.586 .0347911
438.509 .0347476
439.431 .0348606
440.351 .0348143
441.269 .0348410
442.187 .0349195
443.103 .0349614
444.018 .0349895
444.932 .0350428
445.844 .0351012
446.756 .0351261
447.666 .0351354
448.575 .0351108
449.482 .0350836
450.388 .0350547
451.294 .0350163
452.198 .0349835
453.100 .0349561
454.002 .0349380
454.902 .0349208
455.801 .0349078
456.699 .0349047
457.596 .0349005
458.492 .0348982
459.387 .0348952
460.280 .0348818
461.172 .0348693
462.064 .0348581
462.954 .0348353
463.843 .0348063
464.730 .0347756
465.617 .0347443
466.503 .0347129
467.387 .0346900
468.271 .0346708
469.153 .0346552
470.035 .0346443
470.915 .0346373
471.794 .0346275
472.673 .0346170
473.550 .0346070
474.426 .0345982
475.301 .0345909
476.175 .0345861
477.048 .0345764
477.920 .0345710
478.791 .0345673
479.661 .0345617
480.530 .0345556
481.398 .0345481
482.266 .0345383
483.132 .0345260
483.997 .0345078
484.861 .0344863
485.724 .0344575
486.587 .0344212
487.448 .0343776
488.308 .0343259
489.168 .0342687
490.026 .0342099
490.884 .0341494
491.741 .0340908
492.597 .0340322
493.452 .0339786
494.306 .0339248
495.159 .0338691
496.011 .0338186
496.862 .0337653
497.713 .0337129
498.562 .0336603
499.411 .0336078
500.259 .0335596
501.106 .0335126
501.952 .0334650
502.798 .0334148
503.642 .0333670
504.486 .0333164
505.329 .0332569
506.171 .0331956
507.012 .0331265
507.852 .0330455
508.692 .0329590
509.531 .0328706
510.369 .0327762
511.206 .0326795
512.043 .0325788
512.878 .0324719
513.713 .0323572
514.547 .0322289
515.381 .0320931
516.213 .0319514
517.045 .0318050
517.876 .0316497
518.706 .0314923
519.536 .0313419
520.365 .0311939
521.193 .0310517
522.020 .0309208
522.847 .0307972
523.673 .0306681
524.498 .0305253
525.323 .0303805
526.146 .0302311
526.969 .0300800
527.792 .0299241
528.614 .0297695
529.435 .0296163
530.255 .0294696
531.075 .0293306
531.894 .0291980
532.712 .0290829
533.530 .0289780
534.347 .0288727
535.163 .0287713
535.979 .0286736
536.794 .0285871
537.608 .0285148
538.422 .0284655
539.235 .0284267
540.048 .0284024
540.860 .0284061
541.671 .0284255
542.481 .0284607
543.292 .0285025
544.101 .0285457
544.910 .0285845
545.718 .0286173
546.526 .0286365
547.333 .0286482
548.139 .0286649
548.945 .0286781
549.750 .0286813
550.555 .0286815
551.359 .0286796
552.162 .0286771
552.965 .0286737
553.768 .0286648
554.569 .0286515
555.371 .0286407
556.171 .0286259
556.972 .0286138
557.771 .0286074
558.570 .0286101
559.369 .0286215
560.167 .0286427
560.964 .0286766
561.761 .0287187
562.558 .0287726
563.354 .0288343
564.149 .0289021
564.944 .0289743
565.738 .0290443
566.532 .0291118
567.325 .0291741
568.118 .0292290
568.910 .0292786
569.702 .0293274
570.494 .0293756
571.285 .0294227
572.075 .0294739
572.865 .0295253
573.654 .0295776
574.443 .0296255
575.232 .0296694
576.020 .0297075
576.807 .0297444
577.594 .0297805
578.381 .0298198
579.167 .0298659
579.952 .0299211
580.738 .0299821
581.522 .0300507
582.307 .0301231
583.091 .0301976
583.874 .0302735
584.657 .0303489
585.440 .0304205
586.222 .0304883
587.004 .0305503
587.785 .0306069
588.566 .0306558
589.346 .0306986
590.126 .0307351
590.906 .0307646
591.685 .0307894
592.464 .0308076
593.242 .0308223
594.020 .0308343
594.797 .0308447
595.575 .0308523
596.351 .0308583
597.128 .0308620
597.904 .0308627
598.679 .0308615
599.454 .0308596
600.229 .0308547
601.004 .0308486
601.778 .0308422
602.551 .0308355
603.325 .0308286
604.097 .0308222
604.870 .0308154
605.642 .0308089
606.414 .0308003
607.185 .0307899
607.956 .0307772
608.727 .0307642
609.497 .0307483
610.267 .0307303
611.037 .0307106
611.806 .0306890
612.575 .0306659
613.344 .0306418
614.112 .0306162
614.880 .0305901
615.647 .0305627
616.414 .0305345
617.181 .0305065
617.948 .0304787
618.714 .0304512
619.480 .0304259
620.245 .0304024
621.011 .0303791
621.775 .0303560
622.540 .0303341
623.304 .0303123
624.068 .0302897
624.832 .0302667
625.595 .0302424
626.358 .0302188
627.120 .0301957
627.883 .0301723
628.645 .0301503
629.406 .0301295
630.168 .0301089
630.929 .0300878
631.689 .0300665
632.450 .0300442
633.210 .0300210
633.970 .0299979
634.729 .0299735
635.489 .0299482
636.248 .0299230
637.006 .0298980
637.765 .0298729
638.523 .0298477
639.280 .0298227
640.038 .0297981
640.795 .0297747
641.552 .0297516
642.309 .0297295
643.065 .0297096
643.821 .0296905
644.577 .0296713
645.332 .0296520
646.088 .0296323
646.843 .0296116
647.597 .0295904
648.352 .0295685
649.106 .0295465
649.860 .0295246
650.613 .0295032
651.367 .0294822
652.120 .0294614
652.872 .0294407
653.625 .0294187
654.377 .0293960
655.129 .0293720
655.881 .0293461
656.632 .0293208
657.384 .0292962
658.135 .0292729
658.885 .0292506
659.636 .0292305
660.386 .0292117
661.136 .0291929
661.885 .0291742
662.635 .0291550
663.384 .0291357
664.133 .0291160
664.881 .0290956
665.630 .0290754
666.378 .0290564
667.126 .0290384
667.874 .0290206
668.621 .0290038
669.368 .0289869
670.115 .0289695
670.862 .0289513
671.608 .0289331
672.354 .0289149
673.100 .0288971
673.846 .0288812
674.591 .0288661
675.337 .0288526
676.082 .0288400
676.826 .0288284
677.571 .0288176
678.315 .0288070
679.059 .0287961
679.803 .0287845
680.547 .0287730
681.290 .0287613
682.033 .0287491
682.776 .0287376
683.518 .0287258
684.261 .0287142
685.003 .0287021
685.745 .0286900
686.487 .0286769
687.228 .0286637
687.969 .0286504
688.710 .0286369
689.451 .0286228
690.192 .0286090
690.932 .0285950
691.672 .0285815
692.412 .0285677
693.152 .0285541
693.891 .0285400
694.630 .0285260
695.369 .0285113
696.108 .0284965
696.846 .0284809
697.585 .0284648
698.323 .0284480
699.061 .0284315
699.798 .0284149
700.536 .0283980
701.273 .0283806
702.010 .0283637
702.746 .0283466
703.483 .0283298
704.219 .0283124
704.955 .0282960
705.691 .0282802
706.427 .0282646
707.162 .0282490
707.897 .0282338
708.632 .0282185
709.367 .0282027
710.101 .0281856
710.835 .0281677
711.569 .0281484
712.303 .0281288
713.037 .0281090
713.770 .0280900
714.503 .0280721
715.236 .0280554
715.969 .0280392
716.702 .0280244
717.434 .0280101
718.166 .0279954
718.898 .0279804
719.629 .0279657
720.361 .0279504
721.092 .0279345
721.823 .0279183
722.554 .0279025
723.284 .0278870
724.014 .0278712
724.744 .0278540
725.474 .0278358
726.204 .0278166
726.933 .0277958
727.662 .0277732
728.391 .0277505
729.120 .0277272
729.849 .0277040
730.577 .0276809
731.305 .0276581
732.033 .0276356
732.760 .0276137
733.488 .0275923
734.215 .0275711
734.942 .0275504
735.669 .0275298
736.395 .0275105
737.122 .0274924
737.848 .0274755
738.573 .0274597
739.299 .0274444
740.024 .0274294
740.750 .0274143
741.474 .0273987
742.199 .0273827
742.924 .0273663
743.648 .0273504
744.372 .0273339
745.096 .0273175
745.819 .0273012
746.543 .0272850
747.266 .0272687
747.989 .0272527
748.711 .0272357
749.434 .0272188
750.156 .0272021
750.878 .0271861
751.599 .0271711
752.321 .0271586
753.042 .0271477
753.763 .0271387
754.484 .0271311
755.205 .0271248
755.925 .0271182
756.645 .0271115
757.365 .0271039
758.085 .0270952
758.804 .0270853
759.523 .0270745
760.242 .0270621
760.961 .0270494
761.679 .0270364
762.397 .0270226
763.115 .0270077
763.833 .0269914
764.551 .0269735
765.268 .0269530
765.985 .0269303
766.702 .0269057
767.418 .0268792
768.134 .0268523
768.850 .0268253
769.566 .0267990
770.282 .0267738
770.997 .0267501
771.712 .0267280
772.427 .0267075
773.142 .0266880
773.856 .0266690
774.570 .0266498
775.284 .0266312
775.998 .0266134
776.711 .0265959
777.424 .0265794
778.137 .0265638
778.849 .0265488
779.562 .0265344
780.274 .0265201
780.986 .0265062
781.697 .0264927
782.409 .0264799
783.120 .0264678
783.831 .0264568
784.541 .0264472
785.252 .0264388
785.962 .0264312
786.671 .0264251
787.381 .0264185
788.090 .0264112
788.799 .0264033
789.508 .0263942
790.217 .0263843
790.925 .0263735
791.633 .0263625
792.341 .0263515
793.048 .0263403
793.755 .0263288
794.462 .0263162
795.169 .0263033
795.875 .0262895
796.581 .0262744
797.287 .0262588
797.993 .0262430
798.698 .0262273
799.403 .0262127
800.108 .0261995
800.812 .0261877
801.517 .0261778
802.221 .0261688
802.924 .0261609
803.628 .0261536
804.331 .0261470
805.034 .0261404
805.736 .0261342
806.439 .0261287
807.141 .0261231
807.843 .0261178
808.544 .0261129
809.245 .0261080
809.946 .0261029
810.647 .0260972
811.347 .0260911
812.047 .0260838
812.747 .0260761
813.447 .0260672
814.146 .0260575
814.845 .0260477
815.543 .0260375
816.242 .0260272
816.940 .0260174
817.638 .0260080
818.335 .0259992
819.032 .0259906
819.729 .0259824
820.426 .0259740
821.122 .0259652
821.818 .0259558
822.514 .0259451
823.209 .0259338
823.905 .0259215
824.599 .0259083
825.294 .0258951
825.988 .0258818
826.682 .0258684
827.376 .0258550
828.069 .0258413
828.762 .0258267
829.455 .0258116
830.147 .0257960
830.840 .0257800
831.531 .0257641
832.223 .0257491
832.914 .0257354
833.605 .0257236
834.296 .0257139
834.986 .0257057
835.676 .0256996
836.366 .0256950
837.055 .0256909
837.744 .0256879
838.433 .0256848
839.121 .0256825
839.809 .0256805
840.497 .0256793
841.185 .0256786
841.872 .0256784
842.559 .0256788
843.245 .0256797
843.932 .0256807
844.617 .0256819
845.303 .0256823
845.988 .0256823
846.673 .0256815
847.358 .0256795
848.042 .0256764
848.726 .0256726
849.410 .0256669
850.093 .0256602
850.776 .0256523
851.459 .0256434
852.141 .0256332
852.823 .0256228
853.505 .0256117
854.186 .0255998
854.867 .0255881
855.548 .0255758
856.228 .0255632
856.908 .0255520
857.588 .0255412
858.267 .0255313
858.946 .0255227
859.625 .0255146
860.303 .0255072
860.981 .0255009
861.659 .0254948
862.336 .0254886
863.013 .0254826
863.690 .0254765
864.366 .0254693
865.042 .0254617
865.718 .0254541
866.393 .0254459
867.068 .0254371
867.743 .0254276
868.417 .0254169
869.091 .0254056
869.765 .0253937
870.438 .0253814
871.111 .0253691
871.783 .0253571
872.456 .0253452
873.127 .0253335
873.799 .0253227
874.470 .0253125
875.141 .0253028
875.811 .0252940
876.481 .0252857
877.151 .0252777
877.820 .0252692
878.489 .0252615
879.158 .0252540
879.826 .0252463
880.494 .0252385
881.162 .0252303
881.829 .0252219
882.496 .0252125
883.163 .0252022
883.829 .0251908
884.495 .0251787
885.160 .0251653
885.825 .0251507
886.490 .0251355
887.154 .0251201
887.818 .0251048
888.482 .0250901
889.145 .0250766
889.808 .0250644
890.471 .0250530
891.133 .0250426
891.795 .0250328
892.456 .0250232
893.117 .0250133
893.778 .0250037
894.439 .0249946
895.099 .0249862
895.758 .0249794
896.417 .0249740
897.076 .0249705
897.735 .0249689
898.393 .0249683
899.051 .0249680
899.708 .0249674
900.365 .0249658
901.022 .0249626
901.678 .0249579
902.334 .0249522
902.990 .0249458
903.645 .0249398
904.300 .0249345
904.954 .0249298
905.608 .0249258
906.262 .0249221
906.915 .0249178
907.568 .0249129
908.221 .0249068
908.873 .0248989
909.525 .0248895
910.176 .0248789
910.828 .0248670
911.478 .0248548
912.129 .0248417
912.778 .0248279
913.428 .0248132
914.077 .0247975
914.726 .0247807
915.375 .0247635
916.023 .0247470
916.670 .0247308
917.318 .0247155
917.964 .0247013
918.611 .0246873
919.257 .0246736
919.903 .0246598
920.548 .0246457
921.193 .0246313
921.838 .0246171
922.482 .0246029
923.126 .0245897
923.770 .0245775
924.413 .0245658
925.056 .0245544
925.698 .0245427
926.340 .0245299
926.982 .0245154
927.623 .0244998
928.264 .0244833
928.904 .0244666
929.544 .0244500
930.184 .0244337
930.823 .0244177
931.462 .0244022
932.101 .0243870
932.739 .0243717
933.377 .0243560
934.014 .0243397
934.651 .0243232
935.288 .0243065
935.924 .0242902
936.560 .0242747
937.196 .0242598
937.831 .0242454
938.466 .0242307
939.100 .0242154
939.734 .0241992
940.368 .0241826
941.001 .0241657
941.634 .0241477
942.266 .0241301
942.899 .0241116
943.530 .0240926
944.162 .0240733
944.793 .0240532
945.423 .0240319
946.053 .0240100
946.683 .0239875
947.313 .0239644
947.942 .0239414
948.571 .0239189
949.199 .0238964
949.827 .0238748
950.455 .0238536
951.082 .0238319
951.709 .0238098
952.335 .0237882
952.961 .0237653
953.587 .0237426
954.212 .0237195
954.837 .0236964
955.462 .0236739
956.086 .0236519
956.710 .0236313
957.334 .0236121
957.957 .0235951
958.579 .0235797
959.202 .0235652
959.824 .0235522
960.445 .0235389
961.067 .0235255
961.688 .0235121
962.308 .0234986
962.928 .0234855
963.548 .0234737
964.168 .0234632
964.787 .0234551
965.406 .0234488
966.024 .0234437
966.642 .0234395
967.260 .0234352
967.877 .0234295
968.494 .0234215
969.110 .0234115
969.727 .0233999
970.342 .0233868
970.958 .0233738
971.573 .0233608
972.188 .0233494
972.802 .0233398
973.416 .0233313
974.030 .0233235
974.643 .0233164
975.256 .0233086
975.869 .0233004
976.481 .0232915
977.093 .0232826
977.705 .0232739
978.316 .0232671
978.927 .0232620
979.538 .0232581
980.148 .0232557
980.758 .0232538
981.367 .0232521
981.977 .0232504
982.586 .0232477
983.194 .0232436
983.802 .0232391
984.410 .0232344
985.018 .0232288
985.625 .0232230
986.232 .0232177
986.838 .0232131
987.445 .0232093
988.050 .0232055
988.656 .0232014
989.261 .0231970
989.866 .0231919
990.471 .0231851
991.075 .0231774
991.679 .0231688
992.282 .0231603
992.886 .0231524
993.489 .0231461
994.091 .0231417
994.694 .0231390
995.296 .0231385
995.897 .0231391
996.499 .0231397
997.100 .0231404
997.701 .0231404
998.301 .0231412
998.901 .0231419
999.501 .0231434
1000.101 .0231458
1000.700 .0231494
1001.299 .0231542
1001.898 .0231588
1002.496 .0231628
1003.094 .0231664
1003.692 .0231690
1004.289 .0231709
1004.887 .0231727
1005.484 .0231743
1006.080 .0231772
1006.677 .0231809
1007.273 .0231843
1007.868 .0231876
1008.464 .0231902
1009.059 .0231911
1009.654 .0231904
1010.249 .0231895
1010.843 .0231885
1011.437 .0231878
1012.031 .0231889
1012.625 .0231905
1013.218 .0231931
1013.811 .0231963
1014.404 .0231989
1014.997 .0232006
1015.589 .0232020
1016.181 .0232031
1016.773 .0232038
1017.365 .0232067
1017.956 .0232109
1018.547 .0232164
1019.138 .0232242
1019.728 .0232334
1020.319 .0232430
1020.909 .0232530
1021.499 .0232628
1022.088 .0232726
1022.678 .0232826
1023.267 .0232927
1023.856 .0233023
1024.445 .0233117
1025.033 .0233207
1025.621 .0233283
1026.209 .0233331
1026.797 .0233363
1027.385 .0233363
1027.972 .0233344
1028.560 .0233304
1029.147 .0233247
1029.734 .0233184
1030.320 .0233122
1030.907 .0233068
1031.493 .0233021
1032.079 .0232981
1032.665 .0232962
1033.250 .0232940
1033.836 .0232925
1034.421 .0232909
1035.006 .0232899
1035.591 .0232892
1036.176 .0232897
1036.761 .0232910
1037.345 .0232933
1037.929 .0232965
1038.514 .0233007
1039.097 .0233059
1039.681 .0233114
1040.265 .0233162
1040.848 .0233202
1041.432 .0233235
1042.015 .0233266
1042.598 .0233276
1043.181 .0233286
1043.764 .0233296
1044.346 .0233316
1044.929 .0233342
1045.511 .0233372
1046.094 .0233414
1046.676 .0233468
1047.258 .0233520
1047.840 .0233567
1048.422 .0233604
1049.003 .0233628
1049.585 .0233639
1050.166 .0233639
1050.748 .0233634
1051.329 .0233630
1051.910 .0233632
1052.491 .0233642
1053.072 .0233658
1053.653 .0233679
1054.234 .0233693
1054.815 .0233690
1055.396 .0233688
1055.976 .0233673
1056.557 .0233655
1057.138 .0233650
1057.718 .0233668
1058.298 .0233701
1058.879 .0233766
1059.459 .0233849
1060.039 .0233944
1060.620 .0234037
1061.200 .0234131
1061.780 .0234186
1062.360 .0234218
1062.940 .0234235
1063.520 .0234245
1064.101 .0234247
1064.681 .0234268
1065.261 .0234288
1065.841 .0234312
1066.421 .0234333
1067.001 .0234336
1067.581 .0234305
1068.161 .0234254
1068.741 .0234156
1069.321 .0234025
1069.901 .0233866
1070.482 .0233697
1071.062 .0233518
1071.642 .0233361
1072.222 .0233243
1072.803 .0233153
1073.383 .0233100
1073.963 .0233081
1074.544 .0233088
1075.124 .0233109
1075.705 .0233136
1076.286 .0233167
1076.866 .0233207
1077.447 .0233266
1078.028 .0233367
1078.609 .0233519
1079.190 .0233733
1079.771 .0233996
1080.352 .0234284
1080.934 .0234564
1081.515 .0234833
1082.097 .0235048
1082.679 .0235230
1083.260 .0235361
1083.842 .0235466
1084.424 .0235549
1085.007 .0235624
1085.589 .0235692
1086.172 .0235741
1086.754 .0235775
1087.337 .0235779
1087.920 .0235721
1088.503 .0235621
1089.087 .0235491
1089.670 .0235345
1090.254 .0235176
1090.838 .0235008
1091.422 .0234830
1092.006 .0234656
1092.590 .0234453
1093.175 .0234236
1093.760 .0234003
1094.345 .0233756
1094.930 .0233516
1095.516 .0233308
1096.102 .0233175
1096.688 .0233107
1097.274 .0233112
1097.860 .0233176
1098.447 .0233260
1099.034 .0233329
1099.622 .0233375
1100.209 .0233408
1100.797 .0233439
1101.385 .0233473
1101.973 .0233519
1102.562 .0233620
1103.151 .0233768
1103.740 .0233936
1104.330 .0234130
1104.920 .0234306
1105.510 .0234459
1106.101 .0234525
1106.691 .0234521
1107.283 .0234447
1107.874 .0234293
1108.466 .0234089
1109.058 .0233849
1109.651 .0233581
1110.244 .0233330
1110.837 .0233104
1111.431 .0232965
1112.025 .0232914
1112.620 .0232935
1113.215 .0233024
1113.810 .0233184
1114.406 .0233398
1115.002 .0233635
1115.599 .0233837
1116.196 .0234055
1116.793 .0234247
1117.391 .0234409
1117.989 .0234573
1118.588 .0234759
1119.187 .0234958
1119.787 .0235188
1120.387 .0235386
1120.988 .0235535
1121.589 .0235580
1122.190 .0235534
1122.793 .0235367
1123.395 .0235083
1123.998 .0234756
1124.602 .0234376
1125.206 .0234006
1125.811 .0233751
1126.416 .0233548
1127.022 .0233450
1127.628 .0233457
1128.235 .0233550
1128.843 .0233706
1129.451 .0233965
1130.059 .0234311
1130.669 .0234765
1131.278 .0235329
1131.889 .0235995
1132.500 .0236727
1133.112 .0237529
1133.724 .0238371
1134.337 .0239184
1134.950 .0240002
1135.564 .0240780
1136.179 .0241464
1136.795 .0242145
1137.411 .0242836
1138.028 .0243567
1138.645 .0244359
1139.263 .0245239
1139.882 .0246222
1140.502 .0247257
1141.122 .0248421
1141.743 .0249629
1142.365 .0251161
1142.987 .0252233
1143.611 .0252308
1144.235 .0255334
1144.859 .0256559
1145.485 .0265244
