Measurement Sequence started on: 10-20-44-796
Integration time: 35
Scans to Average: 2 
>>>>>Begin Spectral Data<<<<<
432.953 .0364475
433.882 .0361478
434.810 .0349556
435.737 .0369710
436.662 .0355442
437.586 .0348387
438.509 .0345536
439.431 .0343276
440.351 .0341832
441.269 .0340450
442.187 .0339975
443.103 .0340018
444.018 .0340131
444.932 .0340324
445.844 .0340637
446.756 .0340939
447.666 .0341346
448.575 .0341687
449.482 .0341949
450.388 .0342123
451.294 .0342251
452.198 .0342318
453.100 .0342384
454.002 .0342356
454.902 .0342351
455.801 .0342453
456.699 .0342714
457.596 .0342968
458.492 .0343248
459.387 .0343398
460.280 .0343459
461.172 .0343351
462.064 .0343168
462.954 .0342951
463.843 .0342728
464.730 .0342503
465.617 .0342334
466.503 .0342154
467.387 .0342005
468.271 .0341829
469.153 .0341656
470.035 .0341436
470.915 .0341216
471.794 .0340938
472.673 .0340686
473.550 .0340464
474.426 .0340315
475.301 .0340183
476.175 .0340090
477.048 .0340023
477.920 .0339917
478.791 .0339826
479.661 .0339734
480.530 .0339608
481.398 .0339474
482.266 .0339317
483.132 .0339152
483.997 .0338976
484.861 .0338836
485.724 .0338719
486.587 .0338641
487.448 .0338598
488.308 .0338538
489.168 .0338498
490.026 .0338476
490.884 .0338478
491.741 .0338455
492.597 .0338451
493.452 .0338429
494.306 .0338405
495.159 .0338415
496.011 .0338445
496.862 .0338479
497.713 .0338477
498.562 .0338397
499.411 .0338200
500.259 .0337855
501.106 .0337368
501.952 .0336727
502.798 .0335967
503.642 .0335077
504.486 .0334107
505.329 .0333081
506.171 .0332070
507.012 .0331061
507.852 .0330034
508.692 .0328993
509.531 .0327896
510.369 .0326760
511.206 .0325613
512.043 .0324515
512.878 .0323476
513.713 .0322519
514.547 .0321684
515.381 .0320927
516.213 .0320229
517.045 .0319594
517.876 .0318927
518.706 .0318183
519.536 .0317361
520.365 .0316413
521.193 .0315364
522.020 .0314310
522.847 .0313212
523.673 .0312081
524.498 .0310902
525.323 .0309627
526.146 .0308186
526.969 .0306631
527.792 .0304914
528.614 .0302972
529.435 .0300964
530.255 .0298961
531.075 .0296904
531.894 .0294995
532.712 .0293238
533.530 .0291591
534.347 .0290008
535.163 .0288424
535.979 .0286798
536.794 .0285147
537.608 .0283570
538.422 .0282051
539.235 .0280664
540.048 .0279607
540.860 .0278719
541.671 .0278031
542.481 .0277583
543.292 .0277267
544.101 .0276973
544.910 .0276747
545.718 .0276546
546.526 .0276392
547.333 .0276353
548.139 .0276482
548.945 .0276758
549.750 .0277178
550.555 .0277677
551.359 .0278123
552.162 .0278511
552.965 .0278847
553.768 .0279029
554.569 .0279185
555.371 .0279295
556.171 .0279421
556.972 .0279576
557.771 .0279814
558.570 .0280180
559.369 .0280636
560.167 .0281138
560.964 .0281655
561.761 .0282156
562.558 .0282649
563.354 .0283176
564.149 .0283779
564.944 .0284497
565.738 .0285364
566.532 .0286326
567.325 .0287380
568.118 .0288490
568.910 .0289668
569.702 .0290854
570.494 .0292011
571.285 .0293145
572.075 .0294212
572.865 .0295246
573.654 .0296257
574.443 .0297221
575.232 .0298152
576.020 .0299021
576.807 .0299823
577.594 .0300547
578.381 .0301211
579.167 .0301836
579.952 .0302439
580.738 .0303008
581.522 .0303571
582.307 .0304091
583.091 .0304589
583.874 .0305060
584.657 .0305507
585.440 .0305942
586.222 .0306339
587.004 .0306716
587.785 .0307061
588.566 .0307374
589.346 .0307662
590.126 .0307897
590.906 .0308091
591.685 .0308238
592.464 .0308334
593.242 .0308385
594.020 .0308406
594.797 .0308410
595.575 .0308401
596.351 .0308388
597.128 .0308364
597.904 .0308325
598.679 .0308282
599.454 .0308245
600.229 .0308203
601.004 .0308169
601.778 .0308134
602.551 .0308091
603.325 .0308052
604.097 .0308004
604.870 .0307941
605.642 .0307864
606.414 .0307771
607.185 .0307657
607.956 .0307520
608.727 .0307375
609.497 .0307220
610.267 .0307075
611.037 .0306933
611.806 .0306797
612.575 .0306664
613.344 .0306537
614.112 .0306414
614.880 .0306296
615.647 .0306176
616.414 .0306050
617.181 .0305916
617.948 .0305780
618.714 .0305640
619.480 .0305506
620.245 .0305369
621.011 .0305232
621.775 .0305088
622.540 .0304933
623.304 .0304760
624.068 .0304579
624.832 .0304378
625.595 .0304159
626.358 .0303919
627.120 .0303660
627.883 .0303380
628.645 .0303093
629.406 .0302799
630.168 .0302499
630.929 .0302193
631.689 .0301887
632.450 .0301576
633.210 .0301281
633.970 .0300996
634.729 .0300723
635.489 .0300459
636.248 .0300208
637.006 .0299956
637.765 .0299707
638.523 .0299457
639.280 .0299216
640.038 .0298977
640.795 .0298748
641.552 .0298527
642.309 .0298327
643.065 .0298148
643.821 .0297991
644.577 .0297840
645.332 .0297699
646.088 .0297546
646.843 .0297384
647.597 .0297197
648.352 .0297003
649.106 .0296803
649.860 .0296596
650.613 .0296392
651.367 .0296202
652.120 .0296014
652.872 .0295836
653.625 .0295654
654.377 .0295477
655.129 .0295291
655.881 .0295109
656.632 .0294923
657.384 .0294737
658.135 .0294558
658.885 .0294384
659.636 .0294220
660.386 .0294079
661.136 .0293949
661.885 .0293830
662.635 .0293732
663.384 .0293655
664.133 .0293584
664.881 .0293524
665.630 .0293472
666.378 .0293426
667.126 .0293373
667.874 .0293304
668.621 .0293214
669.368 .0293112
670.115 .0292992
670.862 .0292847
671.608 .0292693
672.354 .0292534
673.100 .0292372
673.846 .0292213
674.591 .0292060
675.337 .0291916
676.082 .0291775
676.826 .0291637
677.571 .0291498
678.315 .0291351
679.059 .0291200
679.803 .0291043
680.547 .0290893
681.290 .0290749
682.033 .0290607
682.776 .0290471
683.518 .0290346
684.261 .0290223
685.003 .0290096
685.745 .0289959
686.487 .0289816
687.228 .0289661
687.969 .0289493
688.710 .0289311
689.451 .0289123
690.192 .0288931
690.932 .0288737
691.672 .0288543
692.412 .0288353
693.152 .0288163
693.891 .0287971
694.630 .0287781
695.369 .0287592
696.108 .0287398
696.846 .0287206
697.585 .0287007
698.323 .0286809
699.061 .0286603
699.798 .0286391
700.536 .0286178
701.273 .0285965
702.010 .0285753
702.746 .0285536
703.483 .0285322
704.219 .0285113
704.955 .0284904
705.691 .0284699
706.427 .0284497
707.162 .0284298
707.897 .0284105
708.632 .0283918
709.367 .0283736
710.101 .0283567
710.835 .0283405
711.569 .0283250
712.303 .0283095
713.037 .0282945
713.770 .0282795
714.503 .0282640
715.236 .0282483
715.969 .0282324
716.702 .0282158
717.434 .0281995
718.166 .0281830
718.898 .0281665
719.629 .0281498
720.361 .0281334
721.092 .0281164
721.823 .0280990
722.554 .0280812
723.284 .0280628
724.014 .0280437
724.744 .0280241
725.474 .0280031
726.204 .0279816
726.933 .0279597
727.662 .0279378
728.391 .0279156
729.120 .0278942
729.849 .0278731
730.577 .0278533
731.305 .0278345
732.033 .0278169
732.760 .0277999
733.488 .0277840
734.215 .0277684
734.942 .0277531
735.669 .0277380
736.395 .0277233
737.122 .0277092
737.848 .0276959
738.573 .0276824
739.299 .0276691
740.024 .0276560
740.750 .0276428
741.474 .0276291
742.199 .0276150
742.924 .0276007
743.648 .0275864
744.372 .0275720
745.096 .0275583
745.819 .0275457
746.543 .0275346
747.266 .0275247
747.989 .0275160
748.711 .0275084
749.434 .0275013
750.156 .0274944
750.878 .0274879
751.599 .0274818
752.321 .0274763
753.042 .0274717
753.763 .0274678
754.484 .0274647
755.205 .0274619
755.925 .0274590
756.645 .0274555
757.365 .0274508
758.085 .0274443
758.804 .0274357
759.523 .0274250
760.242 .0274127
760.961 .0273988
761.679 .0273841
762.397 .0273684
763.115 .0273523
763.833 .0273348
764.551 .0273160
765.268 .0272951
765.985 .0272725
766.702 .0272479
767.418 .0272219
768.134 .0271947
768.850 .0271675
769.566 .0271408
770.282 .0271154
770.997 .0270921
771.712 .0270707
772.427 .0270511
773.142 .0270333
773.856 .0270159
774.570 .0269990
775.284 .0269819
775.998 .0269650
776.711 .0269490
777.424 .0269341
778.137 .0269203
778.849 .0269082
779.562 .0268979
780.274 .0268892
780.986 .0268817
781.697 .0268751
782.409 .0268683
783.120 .0268608
783.831 .0268523
784.541 .0268421
785.252 .0268312
785.962 .0268200
786.671 .0268086
787.381 .0267978
788.090 .0267876
788.799 .0267776
789.508 .0267677
790.217 .0267581
790.925 .0267477
791.633 .0267359
792.341 .0267230
793.048 .0267081
793.755 .0266922
794.462 .0266756
795.169 .0266588
795.875 .0266424
796.581 .0266271
797.287 .0266124
797.993 .0265983
798.698 .0265852
799.403 .0265723
800.108 .0265591
800.812 .0265461
801.517 .0265327
802.221 .0265192
802.924 .0265059
803.628 .0264935
804.331 .0264816
805.034 .0264712
805.736 .0264612
806.439 .0264515
807.141 .0264418
807.843 .0264320
808.544 .0264210
809.245 .0264086
809.946 .0263947
810.647 .0263793
811.347 .0263630
812.047 .0263463
812.747 .0263300
813.447 .0263146
814.146 .0263002
814.845 .0262871
815.543 .0262746
816.242 .0262629
816.940 .0262516
817.638 .0262403
818.335 .0262294
819.032 .0262186
819.729 .0262085
820.426 .0261995
821.122 .0261917
821.818 .0261851
822.514 .0261795
823.209 .0261746
823.905 .0261701
824.599 .0261650
825.294 .0261592
825.988 .0261524
826.682 .0261442
827.376 .0261348
828.069 .0261237
828.762 .0261113
829.455 .0260973
830.147 .0260815
830.840 .0260644
831.531 .0260461
832.223 .0260270
832.914 .0260080
833.605 .0259891
834.296 .0259708
834.986 .0259536
835.676 .0259372
836.366 .0259218
837.055 .0259071
837.744 .0258933
838.433 .0258799
839.121 .0258673
839.809 .0258558
840.497 .0258455
841.185 .0258365
841.872 .0258288
842.559 .0258219
843.245 .0258154
843.932 .0258088
844.617 .0258017
845.303 .0257937
845.988 .0257851
846.673 .0257755
847.358 .0257656
848.042 .0257555
848.726 .0257456
849.410 .0257356
850.093 .0257257
850.776 .0257156
851.459 .0257047
852.141 .0256924
852.823 .0256787
853.505 .0256636
854.186 .0256474
854.867 .0256307
855.548 .0256141
856.228 .0255985
856.908 .0255847
857.588 .0255723
858.267 .0255618
858.946 .0255523
859.625 .0255434
860.303 .0255343
860.981 .0255245
861.659 .0255140
862.336 .0255026
863.013 .0254911
863.690 .0254803
864.366 .0254706
865.042 .0254630
865.718 .0254574
866.393 .0254537
867.068 .0254514
867.743 .0254493
868.417 .0254469
869.091 .0254434
869.765 .0254386
870.438 .0254324
871.111 .0254251
871.783 .0254170
872.456 .0254091
873.127 .0254015
873.799 .0253942
874.470 .0253874
875.141 .0253807
875.811 .0253739
876.481 .0253660
877.151 .0253574
877.820 .0253478
878.489 .0253371
879.158 .0253260
879.826 .0253142
880.494 .0253023
881.162 .0252906
881.829 .0252795
882.496 .0252684
883.163 .0252575
883.829 .0252470
884.495 .0252370
885.160 .0252280
885.825 .0252204
886.490 .0252142
887.154 .0252096
887.818 .0252067
888.482 .0252053
889.145 .0252046
889.808 .0252046
890.471 .0252048
891.133 .0252050
891.795 .0252047
892.456 .0252041
893.117 .0252032
893.778 .0252022
894.439 .0252015
895.099 .0252007
895.758 .0251995
896.417 .0251977
897.076 .0251948
897.735 .0251906
898.393 .0251849
899.051 .0251781
899.708 .0251700
900.365 .0251612
901.022 .0251527
901.678 .0251448
902.334 .0251379
902.990 .0251325
903.645 .0251285
904.300 .0251254
904.954 .0251228
905.608 .0251201
906.262 .0251170
906.915 .0251136
907.568 .0251098
908.221 .0251054
908.873 .0251009
909.525 .0250966
910.176 .0250922
910.828 .0250886
911.478 .0250855
912.129 .0250820
912.778 .0250779
913.428 .0250728
914.077 .0250663
914.726 .0250582
915.375 .0250484
916.023 .0250377
916.670 .0250265
917.318 .0250154
917.964 .0250041
918.611 .0249929
919.257 .0249823
919.903 .0249719
920.548 .0249614
921.193 .0249511
921.838 .0249407
922.482 .0249305
923.126 .0249207
923.770 .0249112
924.413 .0249025
925.056 .0248944
925.698 .0248870
926.340 .0248802
926.982 .0248739
927.623 .0248685
928.264 .0248631
928.904 .0248581
929.544 .0248533
930.184 .0248481
930.823 .0248421
931.462 .0248357
932.101 .0248287
932.739 .0248210
933.377 .0248128
934.014 .0248043
934.651 .0247955
935.288 .0247871
935.924 .0247787
936.560 .0247704
937.196 .0247622
937.831 .0247542
938.466 .0247451
939.100 .0247363
939.734 .0247271
940.368 .0247178
941.001 .0247092
941.634 .0247010
942.266 .0246932
942.899 .0246857
943.530 .0246780
944.162 .0246695
944.793 .0246598
945.423 .0246484
946.053 .0246349
946.683 .0246193
947.313 .0246025
947.942 .0245845
948.571 .0245662
949.199 .0245477
949.827 .0245283
950.455 .0245088
951.082 .0244890
951.709 .0244689
952.335 .0244486
952.961 .0244281
953.587 .0244083
954.212 .0243887
954.837 .0243701
955.462 .0243524
956.086 .0243362
956.710 .0243215
957.334 .0243081
957.957 .0242956
958.579 .0242842
959.202 .0242737
959.824 .0242639
960.445 .0242552
961.067 .0242469
961.688 .0242390
962.308 .0242311
962.928 .0242231
963.548 .0242145
964.168 .0242046
964.787 .0241936
965.406 .0241808
966.024 .0241671
966.642 .0241524
967.260 .0241369
967.877 .0241218
968.494 .0241071
969.110 .0240926
969.727 .0240781
970.342 .0240636
970.958 .0240484
971.573 .0240329
972.188 .0240170
972.802 .0240004
973.416 .0239839
974.030 .0239679
974.643 .0239526
975.256 .0239386
975.869 .0239265
976.481 .0239154
977.093 .0239060
977.705 .0238979
978.316 .0238906
978.927 .0238839
979.538 .0238779
980.148 .0238719
980.758 .0238658
981.367 .0238600
981.977 .0238543
982.586 .0238492
983.194 .0238450
983.802 .0238413
984.410 .0238379
985.018 .0238349
985.625 .0238320
986.232 .0238284
986.838 .0238242
987.445 .0238185
988.050 .0238120
988.656 .0238045
989.261 .0237956
989.866 .0237857
990.471 .0237755
991.075 .0237654
991.679 .0237553
992.282 .0237460
992.886 .0237375
993.489 .0237303
994.091 .0237249
994.694 .0237210
995.296 .0237180
995.897 .0237162
996.499 .0237149
997.100 .0237135
997.701 .0237121
998.301 .0237104
998.901 .0237088
999.501 .0237080
1000.101 .0237078
1000.700 .0237083
1001.299 .0237095
1001.898 .0237120
1002.496 .0237141
1003.094 .0237154
1003.692 .0237153
1004.289 .0237129
1004.887 .0237085
1005.484 .0237026
1006.080 .0236953
1006.677 .0236874
1007.273 .0236794
1007.868 .0236715
1008.464 .0236631
1009.059 .0236545
1009.654 .0236452
1010.249 .0236351
1010.843 .0236248
1011.437 .0236140
1012.031 .0236032
1012.625 .0235935
1013.218 .0235854
1013.811 .0235784
1014.404 .0235733
1014.997 .0235698
1015.589 .0235672
1016.181 .0235654
1016.773 .0235639
1017.365 .0235626
1017.956 .0235614
1018.547 .0235606
1019.138 .0235598
1019.728 .0235592
1020.319 .0235593
1020.909 .0235593
1021.499 .0235595
1022.088 .0235594
1022.678 .0235587
1023.267 .0235571
1023.856 .0235549
1024.445 .0235513
1025.033 .0235465
1025.621 .0235408
1026.209 .0235345
1026.797 .0235279
1027.385 .0235214
1027.972 .0235159
1028.560 .0235118
1029.147 .0235092
1029.734 .0235090
1030.320 .0235096
1030.907 .0235112
1031.493 .0235128
1032.079 .0235144
1032.665 .0235153
1033.250 .0235153
1033.836 .0235151
1034.421 .0235153
1035.006 .0235171
1035.591 .0235201
1036.176 .0235239
1036.761 .0235286
1037.345 .0235336
1037.929 .0235380
1038.514 .0235411
1039.097 .0235432
1039.681 .0235438
1040.265 .0235429
1040.848 .0235410
1041.432 .0235380
1042.015 .0235342
1042.598 .0235303
1043.181 .0235266
1043.764 .0235227
1044.346 .0235190
1044.929 .0235143
1045.511 .0235100
1046.094 .0235053
1046.676 .0234997
1047.258 .0234922
1047.840 .0234835
1048.422 .0234733
1049.003 .0234613
1049.585 .0234480
1050.166 .0234349
1050.748 .0234215
1051.329 .0234098
1051.910 .0233984
1052.491 .0233879
1053.072 .0233786
1053.653 .0233694
1054.234 .0233598
1054.815 .0233503
1055.396 .0233401
1055.976 .0233302
1056.557 .0233211
1057.138 .0233146
1057.718 .0233095
1058.298 .0233059
1058.879 .0233033
1059.459 .0232997
1060.039 .0232946
1060.620 .0232863
1061.200 .0232747
1061.780 .0232610
1062.360 .0232457
1062.940 .0232300
1063.520 .0232164
1064.101 .0232047
1064.681 .0231959
1065.261 .0231887
1065.841 .0231819
1066.421 .0231750
1067.001 .0231675
1067.581 .0231586
1068.161 .0231487
1068.741 .0231398
1069.321 .0231332
1069.901 .0231293
1070.482 .0231307
1071.062 .0231344
1071.642 .0231406
1072.222 .0231473
1072.803 .0231516
1073.383 .0231513
1073.963 .0231479
1074.544 .0231406
1075.124 .0231306
1075.705 .0231195
1076.286 .0231094
1076.866 .0231005
1077.447 .0230954
1078.028 .0230938
1078.609 .0230933
1079.190 .0230940
1079.771 .0230959
1080.352 .0230952
1080.934 .0230938
1081.515 .0230912
1082.097 .0230884
1082.679 .0230856
1083.260 .0230834
1083.842 .0230822
1084.424 .0230815
1085.007 .0230836
1085.589 .0230872
1086.172 .0230910
1086.754 .0230953
1087.337 .0230992
1087.920 .0231023
1088.503 .0231051
1089.087 .0231068
1089.670 .0231070
1090.254 .0231058
1090.838 .0231040
1091.422 .0231009
1092.006 .0230969
1092.590 .0230934
1093.175 .0230912
1093.760 .0230879
1094.345 .0230843
1094.930 .0230773
1095.516 .0230686
1096.102 .0230585
1096.688 .0230476
1097.274 .0230352
1097.860 .0230225
1098.447 .0230101
1099.034 .0229989
1099.622 .0229876
1100.209 .0229779
1100.797 .0229687
1101.385 .0229613
1101.973 .0229540
1102.562 .0229471
1103.151 .0229402
1103.740 .0229350
1104.330 .0229302
1104.920 .0229272
1105.510 .0229227
1106.101 .0229192
1106.691 .0229153
1107.283 .0229120
1107.874 .0229094
1108.466 .0229054
1109.058 .0229005
1109.651 .0228961
1110.244 .0228893
1110.837 .0228810
1111.431 .0228701
1112.025 .0228592
1112.620 .0228461
1113.215 .0228329
1113.810 .0228215
1114.406 .0228138
1115.002 .0228102
1115.599 .0228137
1116.196 .0228206
1116.793 .0228316
1117.391 .0228418
1117.989 .0228505
1118.588 .0228606
1119.187 .0228681
1119.787 .0228733
1120.387 .0228788
1120.988 .0228868
1121.589 .0228982
1122.190 .0229094
1122.793 .0229246
1123.395 .0229405
1123.998 .0229548
1124.602 .0229661
1125.206 .0229726
1125.811 .0229774
1126.416 .0229823
1127.022 .0229863
1127.628 .0229946
1128.235 .0230065
1128.843 .0230219
1129.451 .0230416
1130.059 .0230673
1130.669 .0230991
1131.278 .0231337
1131.889 .0231717
1132.500 .0232133
1133.112 .0232546
1133.724 .0232988
1134.337 .0233434
1134.950 .0233872
1135.564 .0234326
1136.179 .0234758
1136.795 .0235182
1137.411 .0235622
1138.028 .0236084
1138.645 .0236607
1139.263 .0237172
1139.882 .0237766
1140.502 .0238427
1141.122 .0239154
1141.743 .0240074
1142.365 .0241040
1142.987 .0240498
1143.611 .0242978
1144.235 .0243983
1144.859 .0248008
1145.485 .0246991
