Measurement Sequence started on: 10-20-44-796
Integration time: 35
Scans to Average: 2 
>>>>>Begin Spectral Data<<<<<
432.953 .0232996
433.882 .0338851
434.810 .0322255
435.737 .0315002
436.662 .0306675
437.586 .0320287
438.509 .0324683
439.431 .0325853
440.351 .0327552
441.269 .0329317
442.187 .0330892
443.103 .0331745
444.018 .0332620
444.932 .0333398
445.844 .0334022
446.756 .0334424
447.666 .0334760
448.575 .0334847
449.482 .0334759
450.388 .0334497
451.294 .0334098
452.198 .0333703
453.100 .0333292
454.002 .0332825
454.902 .0332431
455.801 .0332176
456.699 .0331920
457.596 .0331762
458.492 .0331650
459.387 .0331515
460.280 .0331382
461.172 .0331096
462.064 .0330735
462.954 .0330252
463.843 .0329682
464.730 .0329046
465.617 .0328368
466.503 .0327770
467.387 .0327204
468.271 .0326673
469.153 .0326231
470.035 .0325783
470.915 .0325320
471.794 .0324800
472.673 .0324222
473.550 .0323615
474.426 .0323035
475.301 .0322511
476.175 .0322080
477.048 .0321741
477.920 .0321516
478.791 .0321341
479.661 .0321243
480.530 .0321173
481.398 .0321079
482.266 .0320957
483.132 .0320833
483.997 .0320657
484.861 .0320473
485.724 .0320302
486.587 .0320169
487.448 .0320057
488.308 .0319953
489.168 .0319820
490.026 .0319635
490.884 .0319409
491.741 .0319142
492.597 .0318821
493.452 .0318493
494.306 .0318169
495.159 .0317860
496.011 .0317589
496.862 .0317373
497.713 .0317161
498.562 .0316944
499.411 .0316700
500.259 .0316404
501.106 .0316016
501.952 .0315568
502.798 .0315066
503.642 .0314534
504.486 .0314006
505.329 .0313499
506.171 .0312986
507.012 .0312494
507.852 .0311995
508.692 .0311396
509.531 .0310688
510.369 .0309850
511.206 .0308841
512.043 .0307721
512.878 .0306477
513.713 .0305140
514.547 .0303724
515.381 .0302300
516.213 .0300810
517.045 .0299233
517.876 .0297586
518.706 .0295793
519.536 .0293878
520.365 .0291871
521.193 .0289750
522.020 .0287566
522.847 .0285416
523.673 .0283268
524.498 .0281130
525.323 .0279050
526.146 .0277013
526.969 .0275091
527.792 .0273286
528.614 .0271573
529.435 .0269998
530.255 .0268555
531.075 .0267273
531.894 .0266092
532.712 .0265058
533.530 .0264138
534.347 .0263348
535.163 .0262635
535.979 .0261988
536.794 .0261431
537.608 .0261015
538.422 .0260749
539.235 .0260635
540.048 .0260641
540.860 .0260774
541.671 .0261002
542.481 .0261266
543.292 .0261519
544.101 .0261860
544.910 .0262211
545.718 .0262607
546.526 .0263071
547.333 .0263568
548.139 .0264115
548.945 .0264681
549.750 .0265221
550.555 .0265706
551.359 .0266131
552.162 .0266448
552.965 .0266679
553.768 .0266916
554.569 .0267151
555.371 .0267405
556.171 .0267741
556.972 .0268170
557.771 .0268645
558.570 .0269172
559.369 .0269785
560.167 .0270448
560.964 .0271192
561.761 .0271972
562.558 .0272789
563.354 .0273690
564.149 .0274616
564.944 .0275590
565.738 .0276595
566.532 .0277638
567.325 .0278651
568.118 .0279608
568.910 .0280534
569.702 .0281411
570.494 .0282230
571.285 .0283016
572.075 .0283769
572.865 .0284502
573.654 .0285216
574.443 .0285897
575.232 .0286539
576.020 .0287187
576.807 .0287811
577.594 .0288415
578.381 .0289009
579.167 .0289621
579.952 .0290228
580.738 .0290841
581.522 .0291470
582.307 .0292089
583.091 .0292707
583.874 .0293321
584.657 .0293895
585.440 .0294444
586.222 .0294958
587.004 .0295433
587.785 .0295870
588.566 .0296288
589.346 .0296664
590.126 .0296999
590.906 .0297291
591.685 .0297549
592.464 .0297757
593.242 .0297932
594.020 .0298072
594.797 .0298193
595.575 .0298296
596.351 .0298381
597.128 .0298441
597.904 .0298477
598.679 .0298480
599.454 .0298452
600.229 .0298386
601.004 .0298299
601.778 .0298195
602.551 .0298087
603.325 .0297978
604.097 .0297888
604.870 .0297803
605.642 .0297723
606.414 .0297643
607.185 .0297552
607.956 .0297448
608.727 .0297330
609.497 .0297202
610.267 .0297077
611.037 .0296957
611.806 .0296852
612.575 .0296754
613.344 .0296669
614.112 .0296583
614.880 .0296489
615.647 .0296383
616.414 .0296261
617.181 .0296122
617.948 .0295970
618.714 .0295814
619.480 .0295656
620.245 .0295496
621.011 .0295336
621.775 .0295175
622.540 .0295011
623.304 .0294835
624.068 .0294660
624.832 .0294479
625.595 .0294294
626.358 .0294110
627.120 .0293924
627.883 .0293730
628.645 .0293531
629.406 .0293320
630.168 .0293090
630.929 .0292844
631.689 .0292580
632.450 .0292302
633.210 .0292025
633.970 .0291750
634.729 .0291477
635.489 .0291205
636.248 .0290940
637.006 .0290667
637.765 .0290388
638.523 .0290104
639.280 .0289813
640.038 .0289526
640.795 .0289244
641.552 .0288967
642.309 .0288707
643.065 .0288468
643.821 .0288252
644.577 .0288056
645.332 .0287877
646.088 .0287708
646.843 .0287554
647.597 .0287411
648.352 .0287276
649.106 .0287148
649.860 .0287025
650.613 .0286906
651.367 .0286791
652.120 .0286676
652.872 .0286562
653.625 .0286455
654.377 .0286353
655.129 .0286254
655.881 .0286162
656.632 .0286071
657.384 .0285978
658.135 .0285878
658.885 .0285765
659.636 .0285628
660.386 .0285470
661.136 .0285294
661.885 .0285100
662.635 .0284907
663.384 .0284718
664.133 .0284541
664.881 .0284387
665.630 .0284255
666.378 .0284139
667.126 .0284028
667.874 .0283918
668.621 .0283797
669.368 .0283663
670.115 .0283516
670.862 .0283359
671.608 .0283204
672.354 .0283064
673.100 .0282935
673.846 .0282821
674.591 .0282729
675.337 .0282647
676.082 .0282574
676.826 .0282505
677.571 .0282428
678.315 .0282346
679.059 .0282258
679.803 .0282171
680.547 .0282084
681.290 .0282004
682.033 .0281930
682.776 .0281861
683.518 .0281794
684.261 .0281728
685.003 .0281654
685.745 .0281582
686.487 .0281511
687.228 .0281431
687.969 .0281345
688.710 .0281258
689.451 .0281161
690.192 .0281054
690.932 .0280930
691.672 .0280793
692.412 .0280638
693.152 .0280475
693.891 .0280302
694.630 .0280127
695.369 .0279958
696.108 .0279796
696.846 .0279635
697.585 .0279481
698.323 .0279325
699.061 .0279166
699.798 .0279006
700.536 .0278841
701.273 .0278668
702.010 .0278496
702.746 .0278327
703.483 .0278161
704.219 .0277995
704.955 .0277837
705.691 .0277678
706.427 .0277518
707.162 .0277358
707.897 .0277193
708.632 .0277031
709.367 .0276875
710.101 .0276719
710.835 .0276565
711.569 .0276419
712.303 .0276273
713.037 .0276123
713.770 .0275971
714.503 .0275809
715.236 .0275645
715.969 .0275479
716.702 .0275314
717.434 .0275149
718.166 .0274988
718.898 .0274833
719.629 .0274679
720.361 .0274526
721.092 .0274369
721.823 .0274206
722.554 .0274044
723.284 .0273875
724.014 .0273697
724.744 .0273515
725.474 .0273331
726.204 .0273142
726.933 .0272951
727.662 .0272753
728.391 .0272552
729.120 .0272349
729.849 .0272145
730.577 .0271943
731.305 .0271741
732.033 .0271546
732.760 .0271354
733.488 .0271163
734.215 .0270973
734.942 .0270774
735.669 .0270572
736.395 .0270362
737.122 .0270143
737.848 .0269919
738.573 .0269692
739.299 .0269469
740.024 .0269248
740.750 .0269032
741.474 .0268824
742.199 .0268619
742.924 .0268419
743.648 .0268220
744.372 .0268020
745.096 .0267821
745.819 .0267618
746.543 .0267412
747.266 .0267209
747.989 .0267009
748.711 .0266818
749.434 .0266638
750.156 .0266475
750.878 .0266328
751.599 .0266200
752.321 .0266088
753.042 .0265986
753.763 .0265889
754.484 .0265793
755.205 .0265691
755.925 .0265587
756.645 .0265473
757.365 .0265356
758.085 .0265236
758.804 .0265113
759.523 .0264983
760.242 .0264847
760.961 .0264704
761.679 .0264552
762.397 .0264386
763.115 .0264207
763.833 .0264015
764.551 .0263813
765.268 .0263600
765.985 .0263382
766.702 .0263162
767.418 .0262942
768.134 .0262719
768.850 .0262495
769.566 .0262268
770.282 .0262040
770.997 .0261813
771.712 .0261585
772.427 .0261363
773.142 .0261149
773.856 .0260941
774.570 .0260748
775.284 .0260565
775.998 .0260391
776.711 .0260226
777.424 .0260069
778.137 .0259917
778.849 .0259771
779.562 .0259631
780.274 .0259493
780.986 .0259364
781.697 .0259245
782.409 .0259134
783.120 .0259035
783.831 .0258957
784.541 .0258891
785.252 .0258833
785.962 .0258783
786.671 .0258729
787.381 .0258673
788.090 .0258609
788.799 .0258532
789.508 .0258451
790.217 .0258365
790.925 .0258280
791.633 .0258193
792.341 .0258115
793.048 .0258037
793.755 .0257956
794.462 .0257875
795.169 .0257788
795.875 .0257691
796.581 .0257589
797.287 .0257486
797.993 .0257386
798.698 .0257298
799.403 .0257216
800.108 .0257145
800.812 .0257088
801.517 .0257040
802.221 .0256995
802.924 .0256952
803.628 .0256914
804.331 .0256877
805.034 .0256839
805.736 .0256805
806.439 .0256768
807.141 .0256734
807.843 .0256701
808.544 .0256661
809.245 .0256616
809.946 .0256563
810.647 .0256501
811.347 .0256428
812.047 .0256348
812.747 .0256262
813.447 .0256169
814.146 .0256078
814.845 .0255990
815.543 .0255903
816.242 .0255819
816.940 .0255743
817.638 .0255672
818.335 .0255605
819.032 .0255538
819.729 .0255470
820.426 .0255401
821.122 .0255329
821.818 .0255250
822.514 .0255168
823.209 .0255087
823.905 .0255006
824.599 .0254921
825.294 .0254833
825.988 .0254742
826.682 .0254643
827.376 .0254537
828.069 .0254425
828.762 .0254305
829.455 .0254177
830.147 .0254046
830.840 .0253914
831.531 .0253785
832.223 .0253665
832.914 .0253556
833.605 .0253457
834.296 .0253370
834.986 .0253295
835.676 .0253224
836.366 .0253159
837.055 .0253097
837.744 .0253031
838.433 .0252959
839.121 .0252885
839.809 .0252810
840.497 .0252736
841.185 .0252670
841.872 .0252616
842.559 .0252577
843.245 .0252553
843.932 .0252542
844.617 .0252535
845.303 .0252530
845.988 .0252523
846.673 .0252503
847.358 .0252474
848.042 .0252437
848.726 .0252388
849.410 .0252334
850.093 .0252275
850.776 .0252211
851.459 .0252143
852.141 .0252070
852.823 .0251985
853.505 .0251885
854.186 .0251770
854.867 .0251639
855.548 .0251491
856.228 .0251330
856.908 .0251157
857.588 .0250977
858.267 .0250797
858.946 .0250617
859.625 .0250447
860.303 .0250292
860.981 .0250156
861.659 .0250037
862.336 .0249936
863.013 .0249852
863.690 .0249780
864.366 .0249713
865.042 .0249651
865.718 .0249587
866.393 .0249520
867.068 .0249451
867.743 .0249382
868.417 .0249315
869.091 .0249249
869.765 .0249185
870.438 .0249124
871.111 .0249060
871.783 .0248990
872.456 .0248907
873.127 .0248816
873.799 .0248713
874.470 .0248597
875.141 .0248473
875.811 .0248348
876.481 .0248224
877.151 .0248098
877.820 .0247978
878.489 .0247861
879.158 .0247743
879.826 .0247624
880.494 .0247500
881.162 .0247371
881.829 .0247240
882.496 .0247101
883.163 .0246956
883.829 .0246809
884.495 .0246659
885.160 .0246508
885.825 .0246359
886.490 .0246214
887.154 .0246074
887.818 .0245938
888.482 .0245807
889.145 .0245673
889.808 .0245549
890.471 .0245433
891.133 .0245325
891.795 .0245225
892.456 .0245136
893.117 .0245054
893.778 .0244980
894.439 .0244907
895.099 .0244829
895.758 .0244744
896.417 .0244647
897.076 .0244534
897.735 .0244406
898.393 .0244265
899.051 .0244122
899.708 .0243974
900.365 .0243833
901.022 .0243694
901.678 .0243561
902.334 .0243434
902.990 .0243310
903.645 .0243186
904.300 .0243059
904.954 .0242934
905.608 .0242813
906.262 .0242696
906.915 .0242592
907.568 .0242497
908.221 .0242415
908.873 .0242343
909.525 .0242276
910.176 .0242205
910.828 .0242129
911.478 .0242042
912.129 .0241941
912.778 .0241824
913.428 .0241693
914.077 .0241547
914.726 .0241384
915.375 .0241211
916.023 .0241029
916.670 .0240842
917.318 .0240659
917.964 .0240476
918.611 .0240294
919.257 .0240118
919.903 .0239944
920.548 .0239765
921.193 .0239588
921.838 .0239415
922.482 .0239244
923.126 .0239077
923.770 .0238918
924.413 .0238764
925.056 .0238620
925.698 .0238490
926.340 .0238363
926.982 .0238243
927.623 .0238128
928.264 .0238008
928.904 .0237883
929.544 .0237757
930.184 .0237630
930.823 .0237502
931.462 .0237378
932.101 .0237256
932.739 .0237134
933.377 .0237012
934.014 .0236887
934.651 .0236757
935.288 .0236621
935.924 .0236479
936.560 .0236332
937.196 .0236189
937.831 .0236048
938.466 .0235909
939.100 .0235775
939.734 .0235641
940.368 .0235507
941.001 .0235366
941.634 .0235219
942.266 .0235064
942.899 .0234900
943.530 .0234728
944.162 .0234549
944.793 .0234367
945.423 .0234183
946.053 .0233992
946.683 .0233802
947.313 .0233607
947.942 .0233409
948.571 .0233208
949.199 .0233002
949.827 .0232788
950.455 .0232571
951.082 .0232345
951.709 .0232115
952.335 .0231880
952.961 .0231648
953.587 .0231417
954.212 .0231193
954.837 .0230980
955.462 .0230778
956.086 .0230590
956.710 .0230423
957.334 .0230271
957.957 .0230133
958.579 .0230004
959.202 .0229882
959.824 .0229760
960.445 .0229640
961.067 .0229518
961.688 .0229395
962.308 .0229273
962.928 .0229153
963.548 .0229032
964.168 .0228914
964.787 .0228797
965.406 .0228679
966.024 .0228561
966.642 .0228441
967.260 .0228320
967.877 .0228200
968.494 .0228082
969.110 .0227967
969.727 .0227856
970.342 .0227751
970.958 .0227652
971.573 .0227565
972.188 .0227492
972.802 .0227428
973.416 .0227375
974.030 .0227327
974.643 .0227285
975.256 .0227243
975.869 .0227196
976.481 .0227141
977.093 .0227085
977.705 .0227030
978.316 .0226980
978.927 .0226935
979.538 .0226902
980.148 .0226878
980.758 .0226861
981.367 .0226849
981.977 .0226836
982.586 .0226821
983.194 .0226807
983.802 .0226794
984.410 .0226787
985.018 .0226784
985.625 .0226792
986.232 .0226811
986.838 .0226841
987.445 .0226877
988.050 .0226912
988.656 .0226943
989.261 .0226970
989.866 .0226981
990.471 .0226979
991.075 .0226967
991.679 .0226948
992.282 .0226929
992.886 .0226913
993.489 .0226902
994.091 .0226902
994.694 .0226916
995.296 .0226944
995.897 .0226980
996.499 .0227022
997.100 .0227064
997.701 .0227104
998.301 .0227139
998.901 .0227162
999.501 .0227182
1000.101 .0227201
1000.700 .0227218
1001.299 .0227232
1001.898 .0227252
1002.496 .0227280
1003.094 .0227313
1003.692 .0227353
1004.289 .0227395
1004.887 .0227439
1005.484 .0227480
1006.080 .0227514
1006.677 .0227535
1007.273 .0227548
1007.868 .0227552
1008.464 .0227547
1009.059 .0227543
1009.654 .0227542
1010.249 .0227550
1010.843 .0227574
1011.437 .0227619
1012.031 .0227671
1012.625 .0227730
1013.218 .0227800
1013.811 .0227875
1014.404 .0227953
1014.997 .0228037
1015.589 .0228125
1016.181 .0228226
1016.773 .0228341
1017.365 .0228463
1017.956 .0228586
1018.547 .0228717
1019.138 .0228853
1019.728 .0228986
1020.319 .0229117
1020.909 .0229249
1021.499 .0229376
1022.088 .0229502
1022.678 .0229618
1023.267 .0229721
1023.856 .0229810
1024.445 .0229888
1025.033 .0229947
1025.621 .0229991
1026.209 .0230024
1026.797 .0230053
1027.385 .0230080
1027.972 .0230105
1028.560 .0230130
1029.147 .0230148
1029.734 .0230159
1030.320 .0230164
1030.907 .0230160
1031.493 .0230153
1032.079 .0230152
1032.665 .0230162
1033.250 .0230173
1033.836 .0230195
1034.421 .0230221
1035.006 .0230246
1035.591 .0230272
1036.176 .0230297
1036.761 .0230318
1037.345 .0230340
1037.929 .0230374
1038.514 .0230410
1039.097 .0230460
1039.681 .0230522
1040.265 .0230590
1040.848 .0230663
1041.432 .0230739
1042.015 .0230815
1042.598 .0230894
1043.181 .0230982
1043.764 .0231075
1044.346 .0231175
1044.929 .0231281
1045.511 .0231388
1046.094 .0231498
1046.676 .0231608
1047.258 .0231720
1047.840 .0231826
1048.422 .0231926
1049.003 .0232012
1049.585 .0232091
1050.166 .0232158
1050.748 .0232214
1051.329 .0232270
1051.910 .0232321
1052.491 .0232365
1053.072 .0232405
1053.653 .0232442
1054.234 .0232478
1054.815 .0232507
1055.396 .0232519
1055.976 .0232509
1056.557 .0232483
1057.138 .0232442
1057.718 .0232389
1058.298 .0232334
1058.879 .0232278
1059.459 .0232213
1060.039 .0232151
1060.620 .0232078
1061.200 .0231996
1061.780 .0231907
1062.360 .0231812
1062.940 .0231706
1063.520 .0231589
1064.101 .0231475
1064.681 .0231360
1065.261 .0231255
1065.841 .0231154
1066.421 .0231059
1067.001 .0230959
1067.581 .0230860
1068.161 .0230762
1068.741 .0230675
1069.321 .0230608
1069.901 .0230551
1070.482 .0230511
1071.062 .0230479
1071.642 .0230445
1072.222 .0230418
1072.803 .0230382
1073.383 .0230351
1073.963 .0230305
1074.544 .0230261
1075.124 .0230219
1075.705 .0230193
1076.286 .0230179
1076.866 .0230171
1077.447 .0230174
1078.028 .0230177
1078.609 .0230166
1079.190 .0230144
1079.771 .0230130
1080.352 .0230115
1080.934 .0230103
1081.515 .0230099
1082.097 .0230099
1082.679 .0230118
1083.260 .0230133
1083.842 .0230145
1084.424 .0230154
1085.007 .0230163
1085.589 .0230156
1086.172 .0230126
1086.754 .0230095
1087.337 .0230057
1087.920 .0230017
1088.503 .0229987
1089.087 .0229964
1089.670 .0229942
1090.254 .0229928
1090.838 .0229911
1091.422 .0229884
1092.006 .0229856
1092.590 .0229818
1093.175 .0229775
1093.760 .0229735
1094.345 .0229708
1094.930 .0229694
1095.516 .0229719
1096.102 .0229798
1096.688 .0229907
1097.274 .0230039
1097.860 .0230186
1098.447 .0230325
1099.034 .0230448
1099.622 .0230537
1100.209 .0230583
1100.797 .0230600
1101.385 .0230590
1101.973 .0230546
1102.562 .0230480
1103.151 .0230398
1103.740 .0230304
1104.330 .0230196
1104.920 .0230074
1105.510 .0229936
1106.101 .0229795
1106.691 .0229661
1107.283 .0229550
1107.874 .0229469
1108.466 .0229407
1109.058 .0229382
1109.651 .0229392
1110.244 .0229420
1110.837 .0229444
1111.431 .0229470
1112.025 .0229479
1112.620 .0229478
1113.215 .0229479
1113.810 .0229466
1114.406 .0229462
1115.002 .0229482
1115.599 .0229481
1116.196 .0229445
1116.793 .0229382
1117.391 .0229273
1117.989 .0229111
1118.588 .0228919
1119.187 .0228681
1119.787 .0228414
1120.387 .0228152
1120.988 .0227928
1121.589 .0227742
1122.190 .0227626
1122.793 .0227579
1123.395 .0227581
1123.998 .0227660
1124.602 .0227785
1125.206 .0227955
1125.811 .0228165
1126.416 .0228418
1127.022 .0228691
1127.628 .0228981
1128.235 .0229283
1128.843 .0229582
1129.451 .0229880
1130.059 .0230184
1130.669 .0230450
1131.278 .0230702
1131.889 .0230928
1132.500 .0231147
1133.112 .0231355
1133.724 .0231577
1134.337 .0231813
1134.950 .0232058
1135.564 .0232308
1136.179 .0232578
1136.795 .0232838
1137.411 .0233133
1138.028 .0233434
1138.645 .0233802
1139.263 .0234211
1139.882 .0234683
1140.502 .0235223
1141.122 .0235812
1141.743 .0236438
1142.365 .0237019
1142.987 .0238117
1143.611 .0238864
1144.235 .0239123
1144.859 .0239110
1145.485 .0238090
