Measurement Sequence started on: 10-20-44-796
Integration time: 35
Scans to Average: 2 
>>>>>Begin Spectral Data<<<<<
432.953 .0210742
433.882 .0397837
434.810 .0384142
435.737 .0398475
436.662 .0378612
437.586 .0376480
438.509 .0380491
439.431 .0377948
440.351 .0376129
441.269 .0374372
442.187 .0373618
443.103 .0373191
444.018 .0373410
444.932 .0374279
445.844 .0375301
446.756 .0376219
447.666 .0377085
448.575 .0377659
449.482 .0378099
450.388 .0378184
451.294 .0378166
452.198 .0378077
453.100 .0377961
454.002 .0377762
454.902 .0377680
455.801 .0377476
456.699 .0377196
457.596 .0376714
458.492 .0376023
459.387 .0375142
460.280 .0374247
461.172 .0373349
462.064 .0372570
462.954 .0371811
463.843 .0371156
464.730 .0370537
465.617 .0370082
466.503 .0369639
467.387 .0369207
468.271 .0368713
469.153 .0368203
470.035 .0367636
470.915 .0367060
471.794 .0366432
472.673 .0365865
473.550 .0365293
474.426 .0364770
475.301 .0364264
476.175 .0363766
477.048 .0363261
477.920 .0362795
478.791 .0362359
479.661 .0361937
480.530 .0361504
481.398 .0361127
482.266 .0360811
483.132 .0360598
483.997 .0360466
484.861 .0360439
485.724 .0360513
486.587 .0360663
487.448 .0360802
488.308 .0360932
489.168 .0361033
490.026 .0361104
490.884 .0361097
491.741 .0361027
492.597 .0360865
493.452 .0360606
494.306 .0360280
495.159 .0359871
496.011 .0359328
496.862 .0358688
497.713 .0357920
498.562 .0357013
499.411 .0356014
500.259 .0354988
501.106 .0353932
501.952 .0352902
502.798 .0351895
503.642 .0350834
504.486 .0349730
505.329 .0348652
506.171 .0347527
507.012 .0346410
507.852 .0345320
508.692 .0344258
509.531 .0343290
510.369 .0342489
511.206 .0341805
512.043 .0341208
512.878 .0340671
513.713 .0340049
514.547 .0339251
515.381 .0338315
516.213 .0337243
517.045 .0336110
517.876 .0334963
518.706 .0333799
519.536 .0332650
520.365 .0331607
521.193 .0330645
522.020 .0329704
522.847 .0328748
523.673 .0327669
524.498 .0326347
525.323 .0324761
526.146 .0322942
526.969 .0320921
527.792 .0318742
528.614 .0316387
529.435 .0313875
530.255 .0311228
531.075 .0308361
531.894 .0305364
532.712 .0302333
533.530 .0299372
534.347 .0296470
535.163 .0293774
535.979 .0291484
536.794 .0289657
537.608 .0288424
538.422 .0287706
539.235 .0287597
540.048 .0288008
540.860 .0288763
541.671 .0289674
542.481 .0290769
543.292 .0291991
544.101 .0293206
544.910 .0294378
545.718 .0295483
546.526 .0296483
547.333 .0297403
548.139 .0298167
548.945 .0298822
549.750 .0299298
550.555 .0299687
551.359 .0299819
552.162 .0299826
552.965 .0299675
553.768 .0299417
554.569 .0299204
555.371 .0299086
556.171 .0299164
556.972 .0299412
557.771 .0299871
558.570 .0300548
559.369 .0301415
560.167 .0302455
560.964 .0303568
561.761 .0304788
562.558 .0306064
563.354 .0307363
564.149 .0308623
564.944 .0309927
565.738 .0311249
566.532 .0312599
567.325 .0313913
568.118 .0315123
568.910 .0316288
569.702 .0317339
570.494 .0318317
571.285 .0319192
572.075 .0319968
572.865 .0320685
573.654 .0321287
574.443 .0321797
575.232 .0322202
576.020 .0322525
576.807 .0322792
577.594 .0322982
578.381 .0323130
579.167 .0323216
579.952 .0323277
580.738 .0323331
581.522 .0323390
582.307 .0323453
583.091 .0323546
583.874 .0323639
584.657 .0323740
585.440 .0323843
586.222 .0323954
587.004 .0324067
587.785 .0324181
588.566 .0324326
589.346 .0324478
590.126 .0324648
590.906 .0324837
591.685 .0325012
592.464 .0325171
593.242 .0325321
594.020 .0325434
594.797 .0325521
595.575 .0325595
596.351 .0325659
597.128 .0325713
597.904 .0325789
598.679 .0325872
599.454 .0325946
600.229 .0326025
601.004 .0326088
601.778 .0326102
602.551 .0326085
603.325 .0326005
604.097 .0325871
604.870 .0325697
605.642 .0325496
606.414 .0325271
607.185 .0325054
607.956 .0324844
608.727 .0324642
609.497 .0324453
610.267 .0324279
611.037 .0324094
611.806 .0323900
612.575 .0323680
613.344 .0323424
614.112 .0323131
614.880 .0322812
615.647 .0322467
616.414 .0322131
617.181 .0321815
617.948 .0321526
618.714 .0321276
619.480 .0321067
620.245 .0320883
621.011 .0320716
621.775 .0320551
622.540 .0320370
623.304 .0320177
624.068 .0319978
624.832 .0319778
625.595 .0319591
626.358 .0319440
627.120 .0319329
627.883 .0319252
628.645 .0319209
629.406 .0319174
630.168 .0319121
630.929 .0319041
631.689 .0318915
632.450 .0318737
633.210 .0318508
633.970 .0318242
634.729 .0317948
635.489 .0317639
636.248 .0317313
637.006 .0316972
637.765 .0316620
638.523 .0316260
639.280 .0315889
640.038 .0315503
640.795 .0315116
641.552 .0314737
642.309 .0314370
643.065 .0314033
643.821 .0313727
644.577 .0313458
645.332 .0313213
646.088 .0312999
646.843 .0312803
647.597 .0312629
648.352 .0312479
649.106 .0312353
649.860 .0312249
650.613 .0312161
651.367 .0312076
652.120 .0311987
652.872 .0311900
653.625 .0311809
654.377 .0311703
655.129 .0311586
655.881 .0311442
656.632 .0311286
657.384 .0311121
658.135 .0310948
658.885 .0310770
659.636 .0310598
660.386 .0310419
661.136 .0310225
661.885 .0310023
662.635 .0309823
663.384 .0309623
664.133 .0309434
664.881 .0309253
665.630 .0309078
666.378 .0308907
667.126 .0308727
667.874 .0308541
668.621 .0308353
669.368 .0308152
670.115 .0307935
670.862 .0307714
671.608 .0307507
672.354 .0307308
673.100 .0307127
673.846 .0306963
674.591 .0306809
675.337 .0306660
676.082 .0306500
676.826 .0306337
677.571 .0306166
678.315 .0305991
679.059 .0305816
679.803 .0305654
680.547 .0305512
681.290 .0305390
682.033 .0305290
682.776 .0305206
683.518 .0305132
684.261 .0305052
685.003 .0304956
685.745 .0304842
686.487 .0304716
687.228 .0304572
687.969 .0304410
688.710 .0304246
689.451 .0304079
690.192 .0303907
690.932 .0303733
691.672 .0303548
692.412 .0303351
693.152 .0303139
693.891 .0302911
694.630 .0302667
695.369 .0302417
696.108 .0302161
696.846 .0301896
697.585 .0301627
698.323 .0301364
699.061 .0301103
699.798 .0300849
700.536 .0300607
701.273 .0300373
702.010 .0300149
702.746 .0299930
703.483 .0299715
704.219 .0299505
704.955 .0299299
705.691 .0299092
706.427 .0298890
707.162 .0298700
707.897 .0298514
708.632 .0298331
709.367 .0298158
710.101 .0297987
710.835 .0297809
711.569 .0297626
712.303 .0297433
713.037 .0297234
713.770 .0297034
714.503 .0296833
715.236 .0296637
715.969 .0296459
716.702 .0296296
717.434 .0296143
718.166 .0295997
718.898 .0295848
719.629 .0295691
720.361 .0295527
721.092 .0295351
721.823 .0295165
722.554 .0294972
723.284 .0294780
724.014 .0294584
724.744 .0294386
725.474 .0294178
726.204 .0293967
726.933 .0293745
727.662 .0293509
728.391 .0293258
729.120 .0293000
729.849 .0292744
730.577 .0292494
731.305 .0292254
732.033 .0292023
732.760 .0291797
733.488 .0291580
734.215 .0291361
734.942 .0291146
735.669 .0290926
736.395 .0290703
737.122 .0290483
737.848 .0290262
738.573 .0290037
739.299 .0289814
740.024 .0289599
740.750 .0289393
741.474 .0289191
742.199 .0289001
742.924 .0288825
743.648 .0288667
744.372 .0288528
745.096 .0288407
745.819 .0288305
746.543 .0288218
747.266 .0288144
747.989 .0288082
748.711 .0288030
749.434 .0287986
750.156 .0287958
750.878 .0287941
751.599 .0287934
752.321 .0287933
753.042 .0287926
753.763 .0287924
754.484 .0287910
755.205 .0287876
755.925 .0287821
756.645 .0287745
757.365 .0287651
758.085 .0287538
758.804 .0287409
759.523 .0287264
760.242 .0287107
760.961 .0286941
761.679 .0286755
762.397 .0286549
763.115 .0286329
763.833 .0286086
764.551 .0285823
765.268 .0285547
765.985 .0285260
766.702 .0284973
767.418 .0284696
768.134 .0284436
768.850 .0284199
769.566 .0283982
770.282 .0283781
770.997 .0283590
771.712 .0283410
772.427 .0283227
773.142 .0283037
773.856 .0282850
774.570 .0282673
775.284 .0282504
775.998 .0282355
776.711 .0282228
777.424 .0282127
778.137 .0282036
778.849 .0281947
779.562 .0281855
780.274 .0281747
780.986 .0281626
781.697 .0281493
782.409 .0281360
783.120 .0281242
783.831 .0281139
784.541 .0281067
785.252 .0281032
785.962 .0281022
786.671 .0281025
787.381 .0281025
788.090 .0281021
788.799 .0280992
789.508 .0280932
790.217 .0280846
790.925 .0280744
791.633 .0280629
792.341 .0280506
793.048 .0280374
793.755 .0280241
794.462 .0280102
795.169 .0279950
795.875 .0279779
796.581 .0279589
797.287 .0279377
797.993 .0279150
798.698 .0278915
799.403 .0278690
800.108 .0278474
800.812 .0278286
801.517 .0278121
802.221 .0277981
802.924 .0277858
803.628 .0277752
804.331 .0277660
805.034 .0277573
805.736 .0277482
806.439 .0277391
807.141 .0277299
807.843 .0277210
808.544 .0277117
809.245 .0277023
809.946 .0276922
810.647 .0276812
811.347 .0276684
812.047 .0276544
812.747 .0276397
813.447 .0276247
814.146 .0276102
814.845 .0275965
815.543 .0275837
816.242 .0275718
816.940 .0275605
817.638 .0275489
818.335 .0275374
819.032 .0275249
819.729 .0275111
820.426 .0274971
821.122 .0274828
821.818 .0274692
822.514 .0274563
823.209 .0274444
823.905 .0274329
824.599 .0274212
825.294 .0274090
825.988 .0273944
826.682 .0273781
827.376 .0273600
828.069 .0273397
828.762 .0273187
829.455 .0272972
830.147 .0272756
830.840 .0272547
831.531 .0272357
832.223 .0272183
832.914 .0272025
833.605 .0271881
834.296 .0271750
834.986 .0271626
835.676 .0271507
836.366 .0271389
837.055 .0271276
837.744 .0271174
838.433 .0271073
839.121 .0270969
839.809 .0270868
840.497 .0270766
841.185 .0270664
841.872 .0270557
842.559 .0270450
843.245 .0270335
843.932 .0270218
844.617 .0270104
845.303 .0269988
845.988 .0269880
846.673 .0269778
847.358 .0269682
848.042 .0269595
848.726 .0269511
849.410 .0269427
850.093 .0269345
850.776 .0269266
851.459 .0269187
852.141 .0269103
852.823 .0269021
853.505 .0268942
854.186 .0268863
854.867 .0268784
855.548 .0268706
856.228 .0268627
856.908 .0268544
857.588 .0268449
858.267 .0268350
858.946 .0268243
859.625 .0268130
860.303 .0268016
860.981 .0267899
861.659 .0267790
862.336 .0267685
863.013 .0267584
863.690 .0267492
864.366 .0267406
865.042 .0267320
865.718 .0267227
866.393 .0267129
867.068 .0267020
867.743 .0266892
868.417 .0266758
869.091 .0266614
869.765 .0266467
870.438 .0266324
871.111 .0266184
871.783 .0266046
872.456 .0265916
873.127 .0265781
873.799 .0265639
874.470 .0265491
875.141 .0265331
875.811 .0265162
876.481 .0264993
877.151 .0264832
877.820 .0264687
878.489 .0264560
879.158 .0264459
879.826 .0264372
880.494 .0264299
881.162 .0264232
881.829 .0264165
882.496 .0264096
883.163 .0264020
883.829 .0263938
884.495 .0263854
885.160 .0263773
885.825 .0263699
886.490 .0263632
887.154 .0263575
887.818 .0263520
888.482 .0263469
889.145 .0263413
889.808 .0263355
890.471 .0263296
891.133 .0263238
891.795 .0263186
892.456 .0263138
893.117 .0263090
893.778 .0263044
894.439 .0262996
895.099 .0262944
895.758 .0262879
896.417 .0262808
897.076 .0262729
897.735 .0262642
898.393 .0262552
899.051 .0262468
899.708 .0262382
900.365 .0262305
901.022 .0262227
901.678 .0262148
902.334 .0262061
902.990 .0261962
903.645 .0261850
904.300 .0261727
904.954 .0261593
905.608 .0261456
906.262 .0261317
906.915 .0261192
907.568 .0261076
908.221 .0260975
908.873 .0260890
909.525 .0260819
910.176 .0260755
910.828 .0260694
911.478 .0260633
912.129 .0260573
912.778 .0260503
913.428 .0260434
914.077 .0260365
914.726 .0260298
915.375 .0260230
916.023 .0260167
916.670 .0260107
917.318 .0260056
917.964 .0260001
918.611 .0259945
919.257 .0259882
919.903 .0259813
920.548 .0259730
921.193 .0259636
921.838 .0259540
922.482 .0259434
923.126 .0259324
923.770 .0259220
924.413 .0259107
925.056 .0258998
925.698 .0258888
926.340 .0258779
926.982 .0258671
927.623 .0258564
928.264 .0258453
928.904 .0258350
929.544 .0258250
930.184 .0258152
930.823 .0258051
931.462 .0257950
932.101 .0257838
932.739 .0257719
933.377 .0257596
934.014 .0257456
934.651 .0257309
935.288 .0257164
935.924 .0257007
936.560 .0256849
937.196 .0256685
937.831 .0256517
938.466 .0256342
939.100 .0256161
939.734 .0255970
940.368 .0255775
941.001 .0255585
941.634 .0255399
942.266 .0255216
942.899 .0255044
943.530 .0254874
944.162 .0254698
944.793 .0254518
945.423 .0254323
946.053 .0254117
946.683 .0253910
947.313 .0253704
947.942 .0253506
948.571 .0253318
949.199 .0253148
949.827 .0252986
950.455 .0252831
951.082 .0252679
951.709 .0252518
952.335 .0252356
952.961 .0252195
953.587 .0252033
954.212 .0251884
954.837 .0251750
955.462 .0251635
956.086 .0251538
956.710 .0251456
957.334 .0251377
957.957 .0251302
958.579 .0251225
959.202 .0251140
959.824 .0251044
960.445 .0250945
961.067 .0250839
961.688 .0250727
962.308 .0250617
962.928 .0250506
963.548 .0250394
964.168 .0250276
964.787 .0250148
965.406 .0250013
966.024 .0249865
966.642 .0249705
967.260 .0249537
967.877 .0249371
968.494 .0249204
969.110 .0249040
969.727 .0248883
970.342 .0248737
970.958 .0248603
971.573 .0248477
972.188 .0248359
972.802 .0248251
973.416 .0248150
974.030 .0248057
974.643 .0247973
975.256 .0247902
975.869 .0247836
976.481 .0247783
977.093 .0247742
977.705 .0247712
978.316 .0247690
978.927 .0247679
979.538 .0247680
980.148 .0247687
980.758 .0247692
981.367 .0247695
981.977 .0247703
982.586 .0247718
983.194 .0247730
983.802 .0247742
984.410 .0247750
985.018 .0247750
985.625 .0247736
986.232 .0247705
986.838 .0247659
987.445 .0247596
988.050 .0247517
988.656 .0247423
989.261 .0247318
989.866 .0247203
990.471 .0247089
991.075 .0246972
991.679 .0246859
992.282 .0246748
992.886 .0246640
993.489 .0246533
994.091 .0246434
994.694 .0246338
995.296 .0246252
995.897 .0246171
996.499 .0246101
997.100 .0246041
997.701 .0246002
998.301 .0245983
998.901 .0245988
999.501 .0246006
1000.101 .0246039
1000.700 .0246073
1001.299 .0246108
1001.898 .0246129
1002.496 .0246142
1003.094 .0246136
1003.692 .0246109
1004.289 .0246066
1004.887 .0246012
1005.484 .0245953
1006.080 .0245899
1006.677 .0245855
1007.273 .0245820
1007.868 .0245788
1008.464 .0245763
1009.059 .0245734
1009.654 .0245715
1010.249 .0245700
1010.843 .0245681
1011.437 .0245666
1012.031 .0245658
1012.625 .0245654
1013.218 .0245656
1013.811 .0245665
1014.404 .0245674
1014.997 .0245686
1015.589 .0245695
1016.181 .0245703
1016.773 .0245704
1017.365 .0245712
1017.956 .0245717
1018.547 .0245720
1019.138 .0245713
1019.728 .0245693
1020.319 .0245661
1020.909 .0245622
1021.499 .0245565
1022.088 .0245501
1022.678 .0245426
1023.267 .0245359
1023.856 .0245305
1024.445 .0245257
1025.033 .0245220
1025.621 .0245196
1026.209 .0245173
1026.797 .0245158
1027.385 .0245135
1027.972 .0245108
1028.560 .0245080
1029.147 .0245057
1029.734 .0245033
1030.320 .0245004
1030.907 .0244982
1031.493 .0244953
1032.079 .0244918
1032.665 .0244871
1033.250 .0244808
1033.836 .0244741
1034.421 .0244685
1035.006 .0244630
1035.591 .0244584
1036.176 .0244553
1036.761 .0244531
1037.345 .0244512
1037.929 .0244490
1038.514 .0244453
1039.097 .0244404
1039.681 .0244342
1040.265 .0244280
1040.848 .0244211
1041.432 .0244167
1042.015 .0244141
1042.598 .0244129
1043.181 .0244128
1043.764 .0244122
1044.346 .0244115
1044.929 .0244102
1045.511 .0244078
1046.094 .0244053
1046.676 .0244025
1047.258 .0244011
1047.840 .0244019
1048.422 .0244048
1049.003 .0244087
1049.585 .0244125
1050.166 .0244154
1050.748 .0244159
1051.329 .0244132
1051.910 .0244079
1052.491 .0244019
1053.072 .0243948
1053.653 .0243883
1054.234 .0243815
1054.815 .0243759
1055.396 .0243718
1055.976 .0243679
1056.557 .0243630
1057.138 .0243569
1057.718 .0243484
1058.298 .0243375
1058.879 .0243245
1059.459 .0243117
1060.039 .0242977
1060.620 .0242838
1061.200 .0242701
1061.780 .0242556
1062.360 .0242402
1062.940 .0242243
1063.520 .0242081
1064.101 .0241903
1064.681 .0241717
1065.261 .0241516
1065.841 .0241290
1066.421 .0241070
1067.001 .0240835
1067.581 .0240600
1068.161 .0240379
1068.741 .0240173
1069.321 .0240001
1069.901 .0239881
1070.482 .0239828
1071.062 .0239821
1071.642 .0239884
1072.222 .0240002
1072.803 .0240137
1073.383 .0240286
1073.963 .0240441
1074.544 .0240581
1075.124 .0240709
1075.705 .0240829
1076.286 .0240931
1076.866 .0241033
1077.447 .0241138
1078.028 .0241224
1078.609 .0241327
1079.190 .0241412
1079.771 .0241472
1080.352 .0241506
1080.934 .0241527
1081.515 .0241530
1082.097 .0241525
1082.679 .0241535
1083.260 .0241558
1083.842 .0241603
1084.424 .0241669
1085.007 .0241754
1085.589 .0241873
1086.172 .0242017
1086.754 .0242185
1087.337 .0242368
1087.920 .0242559
1088.503 .0242707
1089.087 .0242827
1089.670 .0242894
1090.254 .0242884
1090.838 .0242812
1091.422 .0242665
1092.006 .0242485
1092.590 .0242275
1093.175 .0242057
1093.760 .0241871
1094.345 .0241708
1094.930 .0241589
1095.516 .0241485
1096.102 .0241387
1096.688 .0241304
1097.274 .0241190
1097.860 .0241084
1098.447 .0240974
1099.034 .0240870
1099.622 .0240793
1100.209 .0240730
1100.797 .0240710
1101.385 .0240712
1101.973 .0240703
1102.562 .0240718
1103.151 .0240720
1103.740 .0240704
1104.330 .0240665
1104.920 .0240592
1105.510 .0240511
1106.101 .0240417
1106.691 .0240315
1107.283 .0240218
1107.874 .0240144
1108.466 .0240116
1109.058 .0240125
1109.651 .0240196
1110.244 .0240341
1110.837 .0240504
1111.431 .0240721
1112.025 .0240944
1112.620 .0241130
1113.215 .0241290
1113.810 .0241382
1114.406 .0241430
1115.002 .0241432
1115.599 .0241367
1116.196 .0241252
1116.793 .0241096
1117.391 .0240939
1117.989 .0240752
1118.588 .0240585
1119.187 .0240428
1119.787 .0240233
1120.387 .0240064
1120.988 .0239884
1121.589 .0239679
1122.190 .0239492
1122.793 .0239324
1123.395 .0239153
1123.998 .0238994
1124.602 .0238861
1125.206 .0238753
1125.811 .0238723
1126.416 .0238789
1127.022 .0238896
1127.628 .0239094
1128.235 .0239357
1128.843 .0239623
1129.451 .0239883
1130.059 .0240135
1130.669 .0240338
1131.278 .0240543
1131.889 .0240754
1132.500 .0241012
1133.112 .0241375
1133.724 .0241880
1134.337 .0242509
1134.950 .0243256
1135.564 .0244127
1136.179 .0245118
1136.795 .0246224
1137.411 .0247421
1138.028 .0248667
1138.645 .0250015
1139.263 .0251505
1139.882 .0253089
1140.502 .0254844
1141.122 .0256836
1141.743 .0259257
1142.365 .0261487
1142.987 .0263115
1143.611 .0267059
1144.235 .0270637
1144.859 .0278458
1145.485 .0266449
