Measurement Sequence started on: 10-20-44-796
Integration time: 35
Scans to Average: 2 
>>>>>Begin Spectral Data<<<<<
432.953 .0274808
433.882 .0333260
434.810 .0303357
435.737 .0294093
436.662 .0299710
437.586 .0298901
438.509 .0299261
439.431 .0298578
440.351 .0299423
441.269 .0300785
442.187 .0302127
443.103 .0303532
444.018 .0304760
444.932 .0305678
445.844 .0306100
446.756 .0306176
447.666 .0306078
448.575 .0305586
449.482 .0305213
450.388 .0304803
451.294 .0304532
452.198 .0304521
453.100 .0304700
454.002 .0305029
454.902 .0305464
455.801 .0306008
456.699 .0306573
457.596 .0307053
458.492 .0307554
459.387 .0308063
460.280 .0308618
461.172 .0309177
462.064 .0309727
462.954 .0310321
463.843 .0310979
464.730 .0311546
465.617 .0312071
466.503 .0312525
467.387 .0312791
468.271 .0312899
469.153 .0312871
470.035 .0312723
470.915 .0312460
471.794 .0312088
472.673 .0311684
473.550 .0311228
474.426 .0310744
475.301 .0310269
476.175 .0309827
477.048 .0309461
477.920 .0309117
478.791 .0308812
479.661 .0308588
480.530 .0308417
481.398 .0308310
482.266 .0308276
483.132 .0308293
483.997 .0308335
484.861 .0308380
485.724 .0308431
486.587 .0308486
487.448 .0308544
488.308 .0308547
489.168 .0308562
490.026 .0308584
490.884 .0308572
491.741 .0308499
492.597 .0308411
493.452 .0308307
494.306 .0308135
495.159 .0307940
496.011 .0307750
496.862 .0307556
497.713 .0307413
498.562 .0307247
499.411 .0307063
500.259 .0306881
501.106 .0306656
501.952 .0306352
502.798 .0306025
503.642 .0305625
504.486 .0305126
505.329 .0304557
506.171 .0303965
507.012 .0303304
507.852 .0302555
508.692 .0301730
509.531 .0300811
510.369 .0299779
511.206 .0298657
512.043 .0297431
512.878 .0296121
513.713 .0294765
514.547 .0293314
515.381 .0291844
516.213 .0290376
517.045 .0288947
517.876 .0287582
518.706 .0286272
519.536 .0285070
520.365 .0283900
521.193 .0282752
522.020 .0281684
522.847 .0280641
523.673 .0279553
524.498 .0278395
525.323 .0277152
526.146 .0275787
526.969 .0274436
527.792 .0273069
528.614 .0271684
529.435 .0270352
530.255 .0269050
531.075 .0267696
531.894 .0266250
532.712 .0264781
533.530 .0263171
534.347 .0261483
535.163 .0259761
535.979 .0257950
536.794 .0256260
537.608 .0254735
538.422 .0253374
539.235 .0252191
540.048 .0251168
540.860 .0250284
541.671 .0249468
542.481 .0248842
543.292 .0248393
544.101 .0248130
544.910 .0248141
545.718 .0248401
546.526 .0248892
547.333 .0249673
548.139 .0250608
548.945 .0251665
549.750 .0252778
550.555 .0253866
551.359 .0254896
552.162 .0255795
552.965 .0256596
553.768 .0257238
554.569 .0257795
555.371 .0258301
556.171 .0258662
556.972 .0258991
557.771 .0259293
558.570 .0259511
559.369 .0259673
560.167 .0259740
560.964 .0259779
561.761 .0259808
562.558 .0259890
563.354 .0260036
564.149 .0260303
564.944 .0260754
565.738 .0261411
566.532 .0262235
567.325 .0263254
568.118 .0264404
568.910 .0265665
569.702 .0267029
570.494 .0268430
571.285 .0269853
572.075 .0271318
572.865 .0272798
573.654 .0274224
574.443 .0275548
575.232 .0276779
576.020 .0277891
576.807 .0278888
577.594 .0279750
578.381 .0280515
579.167 .0281180
579.952 .0281781
580.738 .0282302
581.522 .0282772
582.307 .0283228
583.091 .0283651
583.874 .0284067
584.657 .0284483
585.440 .0284900
586.222 .0285325
587.004 .0285771
587.785 .0286235
588.566 .0286679
589.346 .0287086
590.126 .0287429
590.906 .0287712
591.685 .0287940
592.464 .0288128
593.242 .0288282
594.020 .0288432
594.797 .0288585
595.575 .0288736
596.351 .0288891
597.128 .0289024
597.904 .0289125
598.679 .0289189
599.454 .0289199
600.229 .0289162
601.004 .0289100
601.778 .0289032
602.551 .0288965
603.325 .0288920
604.097 .0288890
604.870 .0288853
605.642 .0288818
606.414 .0288778
607.185 .0288703
607.956 .0288595
608.727 .0288460
609.497 .0288293
610.267 .0288117
611.037 .0287937
611.806 .0287750
612.575 .0287578
613.344 .0287422
614.112 .0287267
614.880 .0287114
615.647 .0286982
616.414 .0286855
617.181 .0286727
617.948 .0286612
618.714 .0286494
619.480 .0286372
620.245 .0286250
621.011 .0286128
621.775 .0286002
622.540 .0285877
623.304 .0285749
624.068 .0285622
624.832 .0285508
625.595 .0285396
626.358 .0285277
627.120 .0285154
627.883 .0285020
628.645 .0284866
629.406 .0284696
630.168 .0284521
630.929 .0284341
631.689 .0284167
632.450 .0284005
633.210 .0283856
633.970 .0283726
634.729 .0283606
635.489 .0283494
636.248 .0283379
637.006 .0283250
637.765 .0283092
638.523 .0282916
639.280 .0282728
640.038 .0282522
640.795 .0282320
641.552 .0282129
642.309 .0281946
643.065 .0281774
643.821 .0281606
644.577 .0281424
645.332 .0281229
646.088 .0281025
646.843 .0280796
647.597 .0280550
648.352 .0280296
649.106 .0280046
649.860 .0279806
650.613 .0279595
651.367 .0279403
652.120 .0279226
652.872 .0279079
653.625 .0278941
654.377 .0278804
655.129 .0278678
655.881 .0278555
656.632 .0278429
657.384 .0278300
658.135 .0278169
658.885 .0278034
659.636 .0277902
660.386 .0277779
661.136 .0277660
661.885 .0277549
662.635 .0277453
663.384 .0277360
664.133 .0277275
664.881 .0277201
665.630 .0277127
666.378 .0277057
667.126 .0276986
667.874 .0276914
668.621 .0276844
669.368 .0276779
670.115 .0276728
670.862 .0276683
671.608 .0276657
672.354 .0276644
673.100 .0276640
673.846 .0276648
674.591 .0276665
675.337 .0276688
676.082 .0276714
676.826 .0276739
677.571 .0276765
678.315 .0276782
679.059 .0276793
679.803 .0276792
680.547 .0276783
681.290 .0276753
682.033 .0276708
682.776 .0276642
683.518 .0276561
684.261 .0276468
685.003 .0276369
685.745 .0276271
686.487 .0276175
687.228 .0276079
687.969 .0275975
688.710 .0275861
689.451 .0275734
690.192 .0275587
690.932 .0275430
691.672 .0275262
692.412 .0275089
693.152 .0274918
693.891 .0274756
694.630 .0274606
695.369 .0274474
696.108 .0274349
696.846 .0274219
697.585 .0274082
698.323 .0273928
699.061 .0273755
699.798 .0273570
700.536 .0273376
701.273 .0273184
702.010 .0273000
702.746 .0272823
703.483 .0272659
704.219 .0272510
704.955 .0272365
705.691 .0272222
706.427 .0272073
707.162 .0271914
707.897 .0271743
708.632 .0271564
709.367 .0271383
710.101 .0271201
710.835 .0271019
711.569 .0270834
712.303 .0270645
713.037 .0270456
713.770 .0270259
714.503 .0270056
715.236 .0269856
715.969 .0269651
716.702 .0269439
717.434 .0269228
718.166 .0269013
718.898 .0268802
719.629 .0268590
720.361 .0268380
721.092 .0268181
721.823 .0267983
722.554 .0267793
723.284 .0267606
724.014 .0267420
724.744 .0267228
725.474 .0267019
726.204 .0266796
726.933 .0266557
727.662 .0266293
728.391 .0266014
729.120 .0265719
729.849 .0265424
730.577 .0265129
731.305 .0264845
732.033 .0264579
732.760 .0264328
733.488 .0264094
734.215 .0263869
734.942 .0263651
735.669 .0263440
736.395 .0263234
737.122 .0263031
737.848 .0262838
738.573 .0262657
739.299 .0262486
740.024 .0262334
740.750 .0262199
741.474 .0262078
742.199 .0261965
742.924 .0261848
743.648 .0261722
744.372 .0261579
745.096 .0261429
745.819 .0261258
746.543 .0261081
747.266 .0260905
747.989 .0260734
748.711 .0260575
749.434 .0260436
750.156 .0260318
750.878 .0260222
751.599 .0260147
752.321 .0260084
753.042 .0260027
753.763 .0259982
754.484 .0259943
755.205 .0259909
755.925 .0259889
756.645 .0259876
757.365 .0259868
758.085 .0259871
758.804 .0259879
759.523 .0259880
760.242 .0259879
760.961 .0259873
761.679 .0259853
762.397 .0259817
763.115 .0259770
763.833 .0259704
764.551 .0259624
765.268 .0259530
765.985 .0259413
766.702 .0259277
767.418 .0259135
768.134 .0258975
768.850 .0258809
769.566 .0258645
770.282 .0258480
770.997 .0258319
771.712 .0258169
772.427 .0258024
773.142 .0257877
773.856 .0257728
774.570 .0257575
775.284 .0257406
775.998 .0257228
776.711 .0257041
777.424 .0256852
778.137 .0256664
778.849 .0256483
779.562 .0256310
780.274 .0256155
780.986 .0256017
781.697 .0255891
782.409 .0255777
783.120 .0255675
783.831 .0255581
784.541 .0255494
785.252 .0255418
785.962 .0255356
786.671 .0255305
787.381 .0255267
788.090 .0255236
788.799 .0255216
789.508 .0255197
790.217 .0255175
790.925 .0255146
791.633 .0255105
792.341 .0255050
793.048 .0254974
793.755 .0254879
794.462 .0254766
795.169 .0254633
795.875 .0254486
796.581 .0254326
797.287 .0254162
797.993 .0253990
798.698 .0253820
799.403 .0253647
800.108 .0253478
800.812 .0253313
801.517 .0253152
802.221 .0252998
802.924 .0252849
803.628 .0252705
804.331 .0252561
805.034 .0252420
805.736 .0252282
806.439 .0252146
807.141 .0252017
807.843 .0251891
808.544 .0251769
809.245 .0251647
809.946 .0251527
810.647 .0251407
811.347 .0251286
812.047 .0251162
812.747 .0251039
813.447 .0250921
814.146 .0250809
814.845 .0250708
815.543 .0250620
816.242 .0250548
816.940 .0250484
817.638 .0250416
818.335 .0250338
819.032 .0250248
819.729 .0250140
820.426 .0250012
821.122 .0249862
821.818 .0249696
822.514 .0249515
823.209 .0249332
823.905 .0249151
824.599 .0248968
825.294 .0248785
825.988 .0248604
826.682 .0248414
827.376 .0248214
828.069 .0248006
828.762 .0247793
829.455 .0247580
830.147 .0247372
830.840 .0247164
831.531 .0246963
832.223 .0246778
832.914 .0246604
833.605 .0246434
834.296 .0246272
834.986 .0246112
835.676 .0245945
836.366 .0245776
837.055 .0245597
837.744 .0245403
838.433 .0245201
839.121 .0244989
839.809 .0244763
840.497 .0244534
841.185 .0244309
841.872 .0244095
842.559 .0243901
843.245 .0243722
843.932 .0243553
844.617 .0243396
845.303 .0243245
845.988 .0243092
846.673 .0242934
847.358 .0242778
848.042 .0242626
848.726 .0242482
849.410 .0242345
850.093 .0242220
850.776 .0242112
851.459 .0242017
852.141 .0241926
852.823 .0241831
853.505 .0241731
854.186 .0241618
854.867 .0241500
855.548 .0241372
856.228 .0241240
856.908 .0241112
857.588 .0240982
858.267 .0240851
858.946 .0240720
859.625 .0240582
860.303 .0240439
860.981 .0240294
861.659 .0240148
862.336 .0239998
863.013 .0239853
863.690 .0239713
864.366 .0239579
865.042 .0239445
865.718 .0239310
866.393 .0239170
867.068 .0239034
867.743 .0238900
868.417 .0238768
869.091 .0238647
869.765 .0238542
870.438 .0238454
871.111 .0238384
871.783 .0238325
872.456 .0238276
873.127 .0238231
873.799 .0238186
874.470 .0238136
875.141 .0238075
875.811 .0238011
876.481 .0237947
877.151 .0237880
877.820 .0237812
878.489 .0237745
879.158 .0237677
879.826 .0237608
880.494 .0237538
881.162 .0237463
881.829 .0237380
882.496 .0237290
883.163 .0237193
883.829 .0237089
884.495 .0236984
885.160 .0236886
885.825 .0236791
886.490 .0236714
887.154 .0236644
887.818 .0236585
888.482 .0236543
889.145 .0236517
889.808 .0236502
890.471 .0236493
891.133 .0236488
891.795 .0236491
892.456 .0236492
893.117 .0236501
893.778 .0236509
894.439 .0236525
895.099 .0236542
895.758 .0236559
896.417 .0236571
897.076 .0236585
897.735 .0236594
898.393 .0236602
899.051 .0236602
899.708 .0236596
900.365 .0236582
901.022 .0236565
901.678 .0236547
902.334 .0236528
902.990 .0236503
903.645 .0236482
904.300 .0236460
904.954 .0236444
905.608 .0236422
906.262 .0236408
906.915 .0236405
907.568 .0236410
908.221 .0236426
908.873 .0236455
909.525 .0236501
910.176 .0236565
910.828 .0236631
911.478 .0236700
912.129 .0236760
912.778 .0236809
913.428 .0236840
914.077 .0236855
914.726 .0236856
915.375 .0236852
916.023 .0236843
916.670 .0236842
917.318 .0236843
917.964 .0236841
918.611 .0236831
919.257 .0236810
919.903 .0236771
920.548 .0236708
921.193 .0236627
921.838 .0236542
922.482 .0236450
923.126 .0236364
923.770 .0236288
924.413 .0236228
925.056 .0236178
925.698 .0236134
926.340 .0236079
926.982 .0236021
927.623 .0235949
928.264 .0235865
928.904 .0235770
929.544 .0235680
930.184 .0235590
930.823 .0235512
931.462 .0235443
932.101 .0235387
932.739 .0235334
933.377 .0235281
934.014 .0235213
934.651 .0235129
935.288 .0235027
935.924 .0234914
936.560 .0234791
937.196 .0234681
937.831 .0234570
938.466 .0234472
939.100 .0234385
939.734 .0234302
940.368 .0234208
941.001 .0234105
941.634 .0233978
942.266 .0233833
942.899 .0233659
943.530 .0233465
944.162 .0233256
944.793 .0233050
945.423 .0232843
946.053 .0232636
946.683 .0232432
947.313 .0232228
947.942 .0232009
948.571 .0231782
949.199 .0231535
949.827 .0231276
950.455 .0231006
951.082 .0230735
951.709 .0230467
952.335 .0230213
952.961 .0229974
953.587 .0229755
954.212 .0229550
954.837 .0229360
955.462 .0229175
956.086 .0228998
956.710 .0228830
957.334 .0228666
957.957 .0228508
958.579 .0228361
959.202 .0228224
959.824 .0228096
960.445 .0227972
961.067 .0227853
961.688 .0227733
962.308 .0227611
962.928 .0227481
963.548 .0227340
964.168 .0227193
964.787 .0227043
965.406 .0226895
966.024 .0226749
966.642 .0226610
967.260 .0226476
967.877 .0226352
968.494 .0226229
969.110 .0226099
969.727 .0225960
970.342 .0225816
970.958 .0225659
971.573 .0225495
972.188 .0225329
972.802 .0225168
973.416 .0225019
974.030 .0224882
974.643 .0224752
975.256 .0224630
975.869 .0224513
976.481 .0224398
977.093 .0224279
977.705 .0224163
978.316 .0224046
978.927 .0223940
979.538 .0223839
980.148 .0223747
980.758 .0223666
981.367 .0223598
981.977 .0223535
982.586 .0223476
983.194 .0223419
983.802 .0223360
984.410 .0223293
985.018 .0223222
985.625 .0223139
986.232 .0223049
986.838 .0222941
987.445 .0222817
988.050 .0222673
988.656 .0222519
989.261 .0222350
989.866 .0222179
990.471 .0222009
991.075 .0221847
991.679 .0221689
992.282 .0221534
992.886 .0221385
993.489 .0221244
994.091 .0221098
994.694 .0220956
995.296 .0220812
995.897 .0220671
996.499 .0220529
997.100 .0220400
997.701 .0220282
998.301 .0220183
998.901 .0220098
999.501 .0220016
1000.101 .0219940
1000.700 .0219870
1001.299 .0219787
1001.898 .0219700
1002.496 .0219613
1003.094 .0219516
1003.692 .0219403
1004.289 .0219289
1004.887 .0219172
1005.484 .0219059
1006.080 .0218952
1006.677 .0218842
1007.273 .0218729
1007.868 .0218624
1008.464 .0218520
1009.059 .0218415
1009.654 .0218331
1010.249 .0218265
1010.843 .0218209
1011.437 .0218179
1012.031 .0218166
1012.625 .0218175
1013.218 .0218214
1013.811 .0218279
1014.404 .0218362
1014.997 .0218464
1015.589 .0218587
1016.181 .0218718
1016.773 .0218861
1017.365 .0219017
1017.956 .0219168
1018.547 .0219314
1019.138 .0219450
1019.728 .0219568
1020.319 .0219664
1020.909 .0219747
1021.499 .0219800
1022.088 .0219829
1022.678 .0219834
1023.267 .0219812
1023.856 .0219763
1024.445 .0219701
1025.033 .0219623
1025.621 .0219521
1026.209 .0219408
1026.797 .0219288
1027.385 .0219156
1027.972 .0219028
1028.560 .0218901
1029.147 .0218785
1029.734 .0218680
1030.320 .0218589
1030.907 .0218502
1031.493 .0218437
1032.079 .0218392
1032.665 .0218358
1033.250 .0218343
1033.836 .0218348
1034.421 .0218367
1035.006 .0218406
1035.591 .0218449
1036.176 .0218495
1036.761 .0218540
1037.345 .0218579
1037.929 .0218602
1038.514 .0218624
1039.097 .0218642
1039.681 .0218670
1040.265 .0218712
1040.848 .0218777
1041.432 .0218847
1042.015 .0218928
1042.598 .0219007
1043.181 .0219080
1043.764 .0219149
1044.346 .0219204
1044.929 .0219245
1045.511 .0219297
1046.094 .0219359
1046.676 .0219430
1047.258 .0219520
1047.840 .0219635
1048.422 .0219755
1049.003 .0219876
1049.585 .0219986
1050.166 .0220073
1050.748 .0220138
1051.329 .0220184
1051.910 .0220209
1052.491 .0220227
1053.072 .0220244
1053.653 .0220253
1054.234 .0220259
1054.815 .0220267
1055.396 .0220268
1055.976 .0220260
1056.557 .0220262
1057.138 .0220262
1057.718 .0220252
1058.298 .0220243
1058.879 .0220248
1059.459 .0220260
1060.039 .0220288
1060.620 .0220341
1061.200 .0220412
1061.780 .0220507
1062.360 .0220621
1062.940 .0220740
1063.520 .0220854
1064.101 .0220964
1064.681 .0221040
1065.261 .0221073
1065.841 .0221077
1066.421 .0221046
1067.001 .0220978
1067.581 .0220917
1068.161 .0220864
1068.741 .0220822
1069.321 .0220790
1069.901 .0220776
1070.482 .0220750
1071.062 .0220719
1071.642 .0220671
1072.222 .0220598
1072.803 .0220501
1073.383 .0220403
1073.963 .0220273
1074.544 .0220158
1075.124 .0220071
1075.705 .0220004
1076.286 .0219960
1076.866 .0219961
1077.447 .0219993
1078.028 .0220064
1078.609 .0220150
1079.190 .0220272
1079.771 .0220387
1080.352 .0220520
1080.934 .0220640
1081.515 .0220742
1082.097 .0220835
1082.679 .0220927
1083.260 .0220998
1083.842 .0221090
1084.424 .0221171
1085.007 .0221274
1085.589 .0221368
1086.172 .0221465
1086.754 .0221541
1087.337 .0221578
1087.920 .0221572
1088.503 .0221544
1089.087 .0221467
1089.670 .0221376
1090.254 .0221261
1090.838 .0221169
1091.422 .0221102
1092.006 .0221082
1092.590 .0221106
1093.175 .0221177
1093.760 .0221285
1094.345 .0221431
1094.930 .0221548
1095.516 .0221662
1096.102 .0221760
1096.688 .0221859
1097.274 .0221960
1097.860 .0222048
1098.447 .0222114
1099.034 .0222182
1099.622 .0222224
1100.209 .0222252
1100.797 .0222265
1101.385 .0222277
1101.973 .0222289
1102.562 .0222310
1103.151 .0222333
1103.740 .0222377
1104.330 .0222448
1104.920 .0222560
1105.510 .0222681
1106.101 .0222824
1106.691 .0222954
1107.283 .0223083
1107.874 .0223230
1108.466 .0223365
1109.058 .0223482
1109.651 .0223619
1110.244 .0223709
1110.837 .0223744
1111.431 .0223723
1112.025 .0223626
1112.620 .0223463
1113.215 .0223271
1113.810 .0223043
1114.406 .0222843
1115.002 .0222684
1115.599 .0222574
1116.196 .0222470
1116.793 .0222383
1117.391 .0222278
1117.989 .0222093
1118.588 .0221865
1119.187 .0221594
1119.787 .0221282
1120.387 .0221023
1120.988 .0220806
1121.589 .0220673
1122.190 .0220626
1122.793 .0220641
1123.395 .0220672
1123.998 .0220702
1124.602 .0220691
1125.206 .0220645
1125.811 .0220565
1126.416 .0220510
1127.022 .0220473
1127.628 .0220487
1128.235 .0220604
1128.843 .0220804
1129.451 .0221101
1130.059 .0221461
1130.669 .0221809
1131.278 .0222170
1131.889 .0222489
1132.500 .0222782
1133.112 .0223038
1133.724 .0223313
1134.337 .0223658
1134.950 .0224035
1135.564 .0224441
1136.179 .0224885
1136.795 .0225351
1137.411 .0225852
1138.028 .0226345
1138.645 .0226830
1139.263 .0227330
1139.882 .0227858
1140.502 .0228371
1141.122 .0228902
1141.743 .0229343
1142.365 .0230006
1142.987 .0230731
1143.611 .0230781
1144.235 .0231850
1144.859 .0229287
1145.485 .0237250
