Measurement Sequence started on: 10-20-44-796
Integration time: 35
Scans to Average: 2 
>>>>>Begin Spectral Data<<<<<
432.953 .0394410
433.882 .0366097
434.810 .0377099
435.737 .0391834
436.662 .0399034
437.586 .0393211
438.509 .0393940
439.431 .0394521
440.351 .0393988
441.269 .0392641
442.187 .0391081
443.103 .0389536
444.018 .0388085
444.932 .0386707
445.844 .0385474
446.756 .0384254
447.666 .0383123
448.575 .0381914
449.482 .0380763
450.388 .0379702
451.294 .0378814
452.198 .0378033
453.100 .0377427
454.002 .0377006
454.902 .0376581
455.801 .0376190
456.699 .0375872
457.596 .0375546
458.492 .0375259
459.387 .0374884
460.280 .0374409
461.172 .0373829
462.064 .0373236
462.954 .0372584
463.843 .0371883
464.730 .0371253
465.617 .0370714
466.503 .0370241
467.387 .0369826
468.271 .0369459
469.153 .0369145
470.035 .0368868
470.915 .0368590
471.794 .0368242
472.673 .0367857
473.550 .0367440
474.426 .0367023
475.301 .0366600
476.175 .0366209
477.048 .0365828
477.920 .0365457
478.791 .0365093
479.661 .0364677
480.530 .0364230
481.398 .0363736
482.266 .0363232
483.132 .0362734
483.997 .0362256
484.861 .0361850
485.724 .0361514
486.587 .0361264
487.448 .0361076
488.308 .0360906
489.168 .0360738
490.026 .0360560
490.884 .0360366
491.741 .0360132
492.597 .0359868
493.452 .0359604
494.306 .0359336
495.159 .0359048
496.011 .0358719
496.862 .0358366
497.713 .0357959
498.562 .0357461
499.411 .0356831
500.259 .0356106
501.106 .0355268
501.952 .0354341
502.798 .0353365
503.642 .0352397
504.486 .0351443
505.329 .0350539
506.171 .0349676
507.012 .0348871
507.852 .0348067
508.692 .0347271
509.531 .0346402
510.369 .0345543
511.206 .0344602
512.043 .0343585
512.878 .0342470
513.713 .0341325
514.547 .0340119
515.381 .0338889
516.213 .0337619
517.045 .0336373
517.876 .0335057
518.706 .0333741
519.536 .0332345
520.365 .0330896
521.193 .0329306
522.020 .0327619
522.847 .0325760
523.673 .0323781
524.498 .0321612
525.323 .0319399
526.146 .0317207
526.969 .0315167
527.792 .0313255
528.614 .0311496
529.435 .0309970
530.255 .0308637
531.075 .0307334
531.894 .0306077
532.712 .0304790
533.530 .0303500
534.347 .0302176
535.163 .0300893
535.979 .0299747
536.794 .0298824
537.608 .0298215
538.422 .0297852
539.235 .0297726
540.048 .0297773
540.860 .0297911
541.671 .0298105
542.481 .0298305
543.292 .0298428
544.101 .0298477
544.910 .0298482
545.718 .0298445
546.526 .0298354
547.333 .0298271
548.139 .0298214
548.945 .0298220
549.750 .0298266
550.555 .0298369
551.359 .0298518
552.162 .0298723
552.965 .0298935
553.768 .0299128
554.569 .0299330
555.371 .0299465
556.171 .0299610
556.972 .0299761
557.771 .0299954
558.570 .0300173
559.369 .0300484
560.167 .0300869
560.964 .0301267
561.761 .0301692
562.558 .0302124
563.354 .0302543
564.149 .0302981
564.944 .0303394
565.738 .0303854
566.532 .0304367
567.325 .0304962
568.118 .0305568
568.910 .0306273
569.702 .0307027
570.494 .0307800
571.285 .0308539
572.075 .0309261
572.865 .0309947
573.654 .0310601
574.443 .0311222
575.232 .0311805
576.020 .0312385
576.807 .0312966
577.594 .0313541
578.381 .0314123
579.167 .0314691
579.952 .0315270
580.738 .0315823
581.522 .0316370
582.307 .0316877
583.091 .0317356
583.874 .0317825
584.657 .0318276
585.440 .0318715
586.222 .0319093
587.004 .0319436
587.785 .0319729
588.566 .0319980
589.346 .0320173
590.126 .0320317
590.906 .0320427
591.685 .0320512
592.464 .0320561
593.242 .0320579
594.020 .0320561
594.797 .0320515
595.575 .0320428
596.351 .0320291
597.128 .0320101
597.904 .0319882
598.679 .0319633
599.454 .0319370
600.229 .0319095
601.004 .0318825
601.778 .0318552
602.551 .0318286
603.325 .0318018
604.097 .0317748
604.870 .0317473
605.642 .0317194
606.414 .0316908
607.185 .0316611
607.956 .0316316
608.727 .0316029
609.497 .0315753
610.267 .0315494
611.037 .0315242
611.806 .0314999
612.575 .0314764
613.344 .0314530
614.112 .0314294
614.880 .0314056
615.647 .0313815
616.414 .0313576
617.181 .0313339
617.948 .0313109
618.714 .0312891
619.480 .0312681
620.245 .0312482
621.011 .0312274
621.775 .0312059
622.540 .0311841
623.304 .0311620
624.068 .0311406
624.832 .0311204
625.595 .0311021
626.358 .0310864
627.120 .0310731
627.883 .0310614
628.645 .0310508
629.406 .0310405
630.168 .0310291
630.929 .0310164
631.689 .0310025
632.450 .0309879
633.210 .0309731
633.970 .0309594
634.729 .0309464
635.489 .0309338
636.248 .0309213
637.006 .0309077
637.765 .0308926
638.523 .0308759
639.280 .0308569
640.038 .0308363
640.795 .0308148
641.552 .0307931
642.309 .0307718
643.065 .0307519
643.821 .0307334
644.577 .0307161
645.332 .0306996
646.088 .0306837
646.843 .0306677
647.597 .0306519
648.352 .0306359
649.106 .0306205
649.860 .0306055
650.613 .0305903
651.367 .0305756
652.120 .0305611
652.872 .0305469
653.625 .0305329
654.377 .0305188
655.129 .0305047
655.881 .0304896
656.632 .0304727
657.384 .0304535
658.135 .0304324
658.885 .0304092
659.636 .0303836
660.386 .0303567
661.136 .0303291
661.885 .0303011
662.635 .0302739
663.384 .0302472
664.133 .0302211
664.881 .0301953
665.630 .0301686
666.378 .0301410
667.126 .0301125
667.874 .0300829
668.621 .0300534
669.368 .0300245
670.115 .0299968
670.862 .0299705
671.608 .0299467
672.354 .0299254
673.100 .0299056
673.846 .0298867
674.591 .0298677
675.337 .0298486
676.082 .0298295
676.826 .0298093
677.571 .0297891
678.315 .0297692
679.059 .0297493
679.803 .0297294
680.547 .0297093
681.290 .0296886
682.033 .0296672
682.776 .0296450
683.518 .0296220
684.261 .0295981
685.003 .0295745
685.745 .0295509
686.487 .0295277
687.228 .0295041
687.969 .0294799
688.710 .0294544
689.451 .0294281
690.192 .0294011
690.932 .0293732
691.672 .0293454
692.412 .0293183
693.152 .0292925
693.891 .0292681
694.630 .0292450
695.369 .0292228
696.108 .0292011
696.846 .0291792
697.585 .0291566
698.323 .0291334
699.061 .0291105
699.798 .0290886
700.536 .0290682
701.273 .0290500
702.010 .0290345
702.746 .0290206
703.483 .0290090
704.219 .0289979
704.955 .0289867
705.691 .0289748
706.427 .0289620
707.162 .0289483
707.897 .0289340
708.632 .0289197
709.367 .0289057
710.101 .0288919
710.835 .0288788
711.569 .0288654
712.303 .0288521
713.037 .0288384
713.770 .0288244
714.503 .0288097
715.236 .0287953
715.969 .0287808
716.702 .0287674
717.434 .0287554
718.166 .0287446
718.898 .0287349
719.629 .0287263
720.361 .0287184
721.092 .0287112
721.823 .0287039
722.554 .0286965
723.284 .0286889
724.014 .0286811
724.744 .0286723
725.474 .0286625
726.204 .0286527
726.933 .0286422
727.662 .0286305
728.391 .0286180
729.120 .0286050
729.849 .0285916
730.577 .0285786
731.305 .0285656
732.033 .0285531
732.760 .0285413
733.488 .0285294
734.215 .0285177
734.942 .0285060
735.669 .0284943
736.395 .0284827
737.122 .0284712
737.848 .0284602
738.573 .0284486
739.299 .0284372
740.024 .0284259
740.750 .0284146
741.474 .0284030
742.199 .0283905
742.924 .0283773
743.648 .0283634
744.372 .0283486
745.096 .0283331
745.819 .0283171
746.543 .0283009
747.266 .0282843
747.989 .0282671
748.711 .0282498
749.434 .0282324
750.156 .0282152
750.878 .0281986
751.599 .0281825
752.321 .0281667
753.042 .0281517
753.763 .0281374
754.484 .0281238
755.205 .0281107
755.925 .0280991
756.645 .0280879
757.365 .0280774
758.085 .0280672
758.804 .0280568
759.523 .0280458
760.242 .0280339
760.961 .0280202
761.679 .0280048
762.397 .0279872
763.115 .0279677
763.833 .0279461
764.551 .0279236
765.268 .0278998
765.985 .0278746
766.702 .0278485
767.418 .0278213
768.134 .0277928
768.850 .0277631
769.566 .0277326
770.282 .0277019
770.997 .0276714
771.712 .0276418
772.427 .0276138
773.142 .0275878
773.856 .0275640
774.570 .0275419
775.284 .0275208
775.998 .0275006
776.711 .0274805
777.424 .0274602
778.137 .0274399
778.849 .0274194
779.562 .0273987
780.274 .0273779
780.986 .0273571
781.697 .0273361
782.409 .0273151
783.120 .0272944
783.831 .0272740
784.541 .0272544
785.252 .0272363
785.962 .0272193
786.671 .0272039
787.381 .0271900
788.090 .0271769
788.799 .0271638
789.508 .0271502
790.217 .0271356
790.925 .0271202
791.633 .0271041
792.341 .0270872
793.048 .0270701
793.755 .0270532
794.462 .0270363
795.169 .0270189
795.875 .0270014
796.581 .0269834
797.287 .0269645
797.993 .0269449
798.698 .0269249
799.403 .0269051
800.108 .0268860
800.812 .0268682
801.517 .0268524
802.221 .0268383
802.924 .0268258
803.628 .0268146
804.331 .0268050
805.034 .0267965
805.736 .0267887
806.439 .0267824
807.141 .0267770
807.843 .0267723
808.544 .0267676
809.245 .0267625
809.946 .0267568
810.647 .0267503
811.347 .0267426
812.047 .0267342
812.747 .0267258
813.447 .0267172
814.146 .0267093
814.845 .0267029
815.543 .0266976
816.242 .0266936
816.940 .0266906
817.638 .0266886
818.335 .0266869
819.032 .0266854
819.729 .0266836
820.426 .0266820
821.122 .0266801
821.818 .0266778
822.514 .0266749
823.209 .0266724
823.905 .0266694
824.599 .0266658
825.294 .0266618
825.988 .0266570
826.682 .0266508
827.376 .0266437
828.069 .0266347
828.762 .0266242
829.455 .0266121
830.147 .0265991
830.840 .0265849
831.531 .0265709
832.223 .0265573
832.914 .0265444
833.605 .0265325
834.296 .0265218
834.986 .0265116
835.676 .0265029
836.366 .0264952
837.055 .0264882
837.744 .0264823
838.433 .0264775
839.121 .0264735
839.809 .0264709
840.497 .0264694
841.185 .0264687
841.872 .0264687
842.559 .0264694
843.245 .0264702
843.932 .0264711
844.617 .0264716
845.303 .0264715
845.988 .0264706
846.673 .0264688
847.358 .0264653
848.042 .0264603
848.726 .0264544
849.410 .0264478
850.093 .0264408
850.776 .0264340
851.459 .0264275
852.141 .0264215
852.823 .0264155
853.505 .0264096
854.186 .0264032
854.867 .0263966
855.548 .0263893
856.228 .0263820
856.908 .0263751
857.588 .0263689
858.267 .0263638
858.946 .0263600
859.625 .0263571
860.303 .0263548
860.981 .0263522
861.659 .0263486
862.336 .0263434
863.013 .0263367
863.690 .0263281
864.366 .0263185
865.042 .0263083
865.718 .0262980
866.393 .0262878
867.068 .0262780
867.743 .0262684
868.417 .0262585
869.091 .0262483
869.765 .0262370
870.438 .0262244
871.111 .0262105
871.783 .0261952
872.456 .0261791
873.127 .0261626
873.799 .0261463
874.470 .0261301
875.141 .0261150
875.811 .0261006
876.481 .0260869
877.151 .0260739
877.820 .0260613
878.489 .0260487
879.158 .0260358
879.826 .0260220
880.494 .0260074
881.162 .0259922
881.829 .0259769
882.496 .0259614
883.163 .0259460
883.829 .0259313
884.495 .0259171
885.160 .0259036
885.825 .0258909
886.490 .0258787
887.154 .0258667
887.818 .0258549
888.482 .0258434
889.145 .0258318
889.808 .0258203
890.471 .0258094
891.133 .0257994
891.795 .0257902
892.456 .0257820
893.117 .0257745
893.778 .0257684
894.439 .0257631
895.099 .0257581
895.758 .0257526
896.417 .0257462
897.076 .0257382
897.735 .0257282
898.393 .0257162
899.051 .0257021
899.708 .0256859
900.365 .0256689
901.022 .0256510
901.678 .0256331
902.334 .0256153
902.990 .0255977
903.645 .0255804
904.300 .0255632
904.954 .0255451
905.608 .0255264
906.262 .0255076
906.915 .0254889
907.568 .0254700
908.221 .0254521
908.873 .0254347
909.525 .0254179
910.176 .0254019
910.828 .0253860
911.478 .0253696
912.129 .0253526
912.778 .0253345
913.428 .0253154
914.077 .0252957
914.726 .0252754
915.375 .0252547
916.023 .0252343
916.670 .0252142
917.318 .0251937
917.964 .0251723
918.611 .0251504
919.257 .0251275
919.903 .0251040
920.548 .0250800
921.193 .0250561
921.838 .0250328
922.482 .0250105
923.126 .0249897
923.770 .0249699
924.413 .0249507
925.056 .0249320
925.698 .0249136
926.340 .0248951
926.982 .0248764
927.623 .0248579
928.264 .0248397
928.904 .0248226
929.544 .0248061
930.184 .0247903
930.823 .0247754
931.462 .0247613
932.101 .0247475
932.739 .0247337
933.377 .0247201
934.014 .0247060
934.651 .0246917
935.288 .0246772
935.924 .0246618
936.560 .0246463
937.196 .0246305
937.831 .0246148
938.466 .0245985
939.100 .0245821
939.734 .0245654
940.368 .0245487
941.001 .0245318
941.634 .0245149
942.266 .0244978
942.899 .0244806
943.530 .0244636
944.162 .0244466
944.793 .0244294
945.423 .0244118
946.053 .0243936
946.683 .0243752
947.313 .0243564
947.942 .0243374
948.571 .0243181
949.199 .0242986
949.827 .0242791
950.455 .0242598
951.082 .0242411
951.709 .0242231
952.335 .0242062
952.961 .0241898
953.587 .0241744
954.212 .0241593
954.837 .0241444
955.462 .0241295
956.086 .0241153
956.710 .0241012
957.334 .0240870
957.957 .0240732
958.579 .0240596
959.202 .0240465
959.824 .0240344
960.445 .0240227
961.067 .0240115
961.688 .0240011
962.308 .0239911
962.928 .0239808
963.548 .0239706
964.168 .0239596
964.787 .0239478
965.406 .0239351
966.024 .0239216
966.642 .0239072
967.260 .0238936
967.877 .0238813
968.494 .0238700
969.110 .0238604
969.727 .0238522
970.342 .0238449
970.958 .0238383
971.573 .0238318
972.188 .0238250
972.802 .0238181
973.416 .0238111
974.030 .0238040
974.643 .0237975
975.256 .0237924
975.869 .0237887
976.481 .0237871
977.093 .0237875
977.705 .0237896
978.316 .0237931
978.927 .0237975
979.538 .0238019
980.148 .0238062
980.758 .0238100
981.367 .0238134
981.977 .0238169
982.586 .0238207
983.194 .0238248
983.802 .0238298
984.410 .0238352
985.018 .0238411
985.625 .0238469
986.232 .0238532
986.838 .0238588
987.445 .0238636
988.050 .0238679
988.656 .0238713
989.261 .0238738
989.866 .0238753
990.471 .0238753
991.075 .0238748
991.679 .0238736
992.282 .0238725
992.886 .0238713
993.489 .0238710
994.091 .0238709
994.694 .0238715
995.296 .0238717
995.897 .0238713
996.499 .0238693
997.100 .0238660
997.701 .0238620
998.301 .0238573
998.901 .0238532
999.501 .0238508
1000.101 .0238508
1000.700 .0238537
1001.299 .0238581
1001.898 .0238647
1002.496 .0238714
1003.094 .0238780
1003.692 .0238838
1004.289 .0238888
1004.887 .0238937
1005.484 .0238993
1006.080 .0239060
1006.677 .0239148
1007.273 .0239248
1007.868 .0239356
1008.464 .0239465
1009.059 .0239572
1009.654 .0239672
1010.249 .0239765
1010.843 .0239854
1011.437 .0239954
1012.031 .0240053
1012.625 .0240164
1013.218 .0240281
1013.811 .0240402
1014.404 .0240525
1014.997 .0240644
1015.589 .0240759
1016.181 .0240866
1016.773 .0240966
1017.365 .0241065
1017.956 .0241155
1018.547 .0241241
1019.138 .0241311
1019.728 .0241367
1020.319 .0241412
1020.909 .0241439
1021.499 .0241451
1022.088 .0241452
1022.678 .0241444
1023.267 .0241430
1023.856 .0241413
1024.445 .0241396
1025.033 .0241378
1025.621 .0241357
1026.209 .0241341
1026.797 .0241326
1027.385 .0241318
1027.972 .0241322
1028.560 .0241338
1029.147 .0241363
1029.734 .0241397
1030.320 .0241437
1030.907 .0241483
1031.493 .0241525
1032.079 .0241569
1032.665 .0241615
1033.250 .0241663
1033.836 .0241709
1034.421 .0241758
1035.006 .0241810
1035.591 .0241865
1036.176 .0241916
1036.761 .0241966
1037.345 .0242014
1037.929 .0242068
1038.514 .0242122
1039.097 .0242184
1039.681 .0242253
1040.265 .0242319
1040.848 .0242380
1041.432 .0242439
1042.015 .0242478
1042.598 .0242501
1043.181 .0242511
1043.764 .0242520
1044.346 .0242520
1044.929 .0242533
1045.511 .0242551
1046.094 .0242582
1046.676 .0242624
1047.258 .0242659
1047.840 .0242677
1048.422 .0242685
1049.003 .0242673
1049.585 .0242642
1050.166 .0242610
1050.748 .0242588
1051.329 .0242571
1051.910 .0242584
1052.491 .0242616
1053.072 .0242661
1053.653 .0242714
1054.234 .0242771
1054.815 .0242807
1055.396 .0242825
1055.976 .0242823
1056.557 .0242799
1057.138 .0242765
1057.718 .0242735
1058.298 .0242704
1058.879 .0242692
1059.459 .0242693
1060.039 .0242692
1060.620 .0242675
1061.200 .0242648
1061.780 .0242596
1062.360 .0242501
1062.940 .0242378
1063.520 .0242226
1064.101 .0242059
1064.681 .0241894
1065.261 .0241732
1065.841 .0241581
1066.421 .0241447
1067.001 .0241329
1067.581 .0241206
1068.161 .0241064
1068.741 .0240906
1069.321 .0240724
1069.901 .0240524
1070.482 .0240307
1071.062 .0240078
1071.642 .0239852
1072.222 .0239651
1072.803 .0239459
1073.383 .0239298
1073.963 .0239153
1074.544 .0239031
1075.124 .0238921
1075.705 .0238819
1076.286 .0238724
1076.866 .0238639
1077.447 .0238557
1078.028 .0238499
1078.609 .0238457
1079.190 .0238438
1079.771 .0238433
1080.352 .0238450
1080.934 .0238487
1081.515 .0238525
1082.097 .0238562
1082.679 .0238598
1083.260 .0238608
1083.842 .0238620
1084.424 .0238591
1085.007 .0238553
1085.589 .0238507
1086.172 .0238458
1086.754 .0238415
1087.337 .0238390
1087.920 .0238384
1088.503 .0238387
1089.087 .0238398
1089.670 .0238416
1090.254 .0238424
1090.838 .0238427
1091.422 .0238405
1092.006 .0238383
1092.590 .0238338
1093.175 .0238289
1093.760 .0238202
1094.345 .0238105
1094.930 .0237993
1095.516 .0237858
1096.102 .0237710
1096.688 .0237552
1097.274 .0237392
1097.860 .0237244
1098.447 .0237093
1099.034 .0236972
1099.622 .0236845
1100.209 .0236734
1100.797 .0236610
1101.385 .0236480
1101.973 .0236350
1102.562 .0236232
1103.151 .0236124
1103.740 .0236042
1104.330 .0235982
1104.920 .0235927
1105.510 .0235872
1106.101 .0235827
1106.691 .0235781
1107.283 .0235737
1107.874 .0235669
1108.466 .0235593
1109.058 .0235502
1109.651 .0235420
1110.244 .0235321
1110.837 .0235202
1111.431 .0235080
1112.025 .0234918
1112.620 .0234734
1113.215 .0234535
1113.810 .0234359
1114.406 .0234241
1115.002 .0234153
1115.599 .0234115
1116.196 .0234094
1116.793 .0234078
1117.391 .0234038
1117.989 .0233980
1118.588 .0233923
1119.187 .0233822
1119.787 .0233696
1120.387 .0233561
1120.988 .0233444
1121.589 .0233353
1122.190 .0233282
1122.793 .0233247
1123.395 .0233224
1123.998 .0233216
1124.602 .0233202
1125.206 .0233217
1125.811 .0233264
1126.416 .0233342
1127.022 .0233418
1127.628 .0233520
1128.235 .0233616
1128.843 .0233658
1129.451 .0233696
1130.059 .0233715
1130.669 .0233743
1131.278 .0233791
1131.889 .0233867
1132.500 .0234002
1133.112 .0234192
1133.724 .0234453
1134.337 .0234707
1134.950 .0234983
1135.564 .0235297
1136.179 .0235614
1136.795 .0235969
1137.411 .0236385
1138.028 .0236868
1138.645 .0237500
1139.263 .0238265
1139.882 .0239084
1140.502 .0240029
1141.122 .0241145
1141.743 .0242416
1142.365 .0243467
1142.987 .0243427
1143.611 .0246482
1144.235 .0249241
1144.859 .0251435
1145.485 .0242928
