Measurement Sequence started on: 10-20-44-796
Integration time: 35
Scans to Average: 2 
>>>>>Begin Spectral Data<<<<<
432.953 .0572485
433.882 .0442710
434.810 .0413439
435.737 .0433718
436.662 .0435585
437.586 .0429850
438.509 .0423025
439.431 .0421172
440.351 .0420253
441.269 .0419002
442.187 .0417901
443.103 .0417080
444.018 .0416341
444.932 .0415359
445.844 .0413974
446.756 .0412571
447.666 .0411294
448.575 .0409989
449.482 .0408987
450.388 .0408180
451.294 .0407504
452.198 .0406936
453.100 .0406328
454.002 .0405673
454.902 .0404929
455.801 .0404162
456.699 .0403487
457.596 .0403015
458.492 .0402727
459.387 .0402623
460.280 .0402827
461.172 .0403146
462.064 .0403475
462.954 .0403705
463.843 .0403878
464.730 .0403846
465.617 .0403672
466.503 .0403352
467.387 .0402910
468.271 .0402419
469.153 .0401859
470.035 .0401231
470.915 .0400610
471.794 .0399929
472.673 .0399163
473.550 .0398316
474.426 .0397466
475.301 .0396484
476.175 .0395447
477.048 .0394439
477.920 .0393490
478.791 .0392543
479.661 .0391664
480.530 .0390867
481.398 .0390179
482.266 .0389596
483.132 .0389082
483.997 .0388639
484.861 .0388334
485.724 .0388087
486.587 .0387886
487.448 .0387708
488.308 .0387569
489.168 .0387406
490.026 .0387216
490.884 .0386992
491.741 .0386671
492.597 .0386296
493.452 .0385897
494.306 .0385479
495.159 .0385052
496.011 .0384591
496.862 .0384085
497.713 .0383514
498.562 .0382823
499.411 .0381971
500.259 .0380944
501.106 .0379803
501.952 .0378549
502.798 .0377220
503.642 .0375858
504.486 .0374562
505.329 .0373366
506.171 .0372270
507.012 .0371265
507.852 .0370356
508.692 .0369486
509.531 .0368620
510.369 .0367741
511.206 .0366883
512.043 .0366029
512.878 .0365184
513.713 .0364368
514.547 .0363575
515.381 .0362762
516.213 .0361948
517.045 .0361046
517.876 .0360072
518.706 .0358962
519.536 .0357702
520.365 .0356359
521.193 .0354860
522.020 .0353190
522.847 .0351387
523.673 .0349453
524.498 .0347382
525.323 .0344991
526.146 .0342407
526.969 .0339773
527.792 .0337002
528.614 .0334191
529.435 .0331438
530.255 .0328883
531.075 .0326595
531.894 .0324581
532.712 .0322875
533.530 .0321473
534.347 .0320418
535.163 .0319578
535.979 .0318866
536.794 .0318382
537.608 .0317987
538.422 .0317644
539.235 .0317560
540.048 .0317733
540.860 .0318083
541.671 .0318756
542.481 .0319753
543.292 .0320962
544.101 .0322276
544.910 .0323549
545.718 .0324612
546.526 .0325459
547.333 .0326007
548.139 .0326074
548.945 .0325864
549.750 .0325547
550.555 .0325126
551.359 .0324727
552.162 .0324503
552.965 .0324433
553.768 .0324517
554.569 .0324745
555.371 .0324941
556.171 .0325131
556.972 .0325332
557.771 .0325386
558.570 .0325389
559.369 .0325419
560.167 .0325459
560.964 .0325564
561.761 .0325852
562.558 .0326212
563.354 .0326651
564.149 .0327113
564.944 .0327513
565.738 .0327826
566.532 .0328065
567.325 .0328183
568.118 .0328221
568.910 .0328232
569.702 .0328239
570.494 .0328270
571.285 .0328434
572.075 .0328673
572.865 .0328983
573.654 .0329356
574.443 .0329712
575.232 .0330034
576.020 .0330326
576.807 .0330570
577.594 .0330814
578.381 .0331059
579.167 .0331311
579.952 .0331621
580.738 .0331981
581.522 .0332377
582.307 .0332810
583.091 .0333282
583.874 .0333735
584.657 .0334140
585.440 .0334506
586.222 .0334824
587.004 .0335094
587.785 .0335338
588.566 .0335529
589.346 .0335682
590.126 .0335810
590.906 .0335894
591.685 .0335955
592.464 .0335997
593.242 .0336017
594.020 .0336012
594.797 .0336008
595.575 .0335967
596.351 .0335882
597.128 .0335760
597.904 .0335606
598.679 .0335397
599.454 .0335150
600.229 .0334860
601.004 .0334547
601.778 .0334225
602.551 .0333906
603.325 .0333575
604.097 .0333261
604.870 .0332951
605.642 .0332646
606.414 .0332346
607.185 .0332064
607.956 .0331785
608.727 .0331532
609.497 .0331302
610.267 .0331092
611.037 .0330901
611.806 .0330746
612.575 .0330609
613.344 .0330492
614.112 .0330385
614.880 .0330278
615.647 .0330159
616.414 .0330037
617.181 .0329902
617.948 .0329765
618.714 .0329627
619.480 .0329481
620.245 .0329316
621.011 .0329137
621.775 .0328934
622.540 .0328691
623.304 .0328415
624.068 .0328114
624.832 .0327789
625.595 .0327455
626.358 .0327130
627.120 .0326824
627.883 .0326539
628.645 .0326274
629.406 .0326010
630.168 .0325734
630.929 .0325442
631.689 .0325115
632.450 .0324750
633.210 .0324359
633.970 .0323951
634.729 .0323519
635.489 .0323090
636.248 .0322668
637.006 .0322244
637.765 .0321816
638.523 .0321386
639.280 .0320943
640.038 .0320484
640.795 .0320018
641.552 .0319549
642.309 .0319094
643.065 .0318669
643.821 .0318264
644.577 .0317882
645.332 .0317529
646.088 .0317197
646.843 .0316867
647.597 .0316556
648.352 .0316260
649.106 .0315975
649.860 .0315702
650.613 .0315449
651.367 .0315209
652.120 .0314981
652.872 .0314764
653.625 .0314540
654.377 .0314319
655.129 .0314092
655.881 .0313849
656.632 .0313592
657.384 .0313332
658.135 .0313073
658.885 .0312805
659.636 .0312528
660.386 .0312245
661.136 .0311950
661.885 .0311645
662.635 .0311331
663.384 .0311014
664.133 .0310703
664.881 .0310406
665.630 .0310123
666.378 .0309865
667.126 .0309636
667.874 .0309425
668.621 .0309222
669.368 .0309021
670.115 .0308812
670.862 .0308584
671.608 .0308344
672.354 .0308101
673.100 .0307855
673.846 .0307618
674.591 .0307391
675.337 .0307180
676.082 .0306983
676.826 .0306791
677.571 .0306602
678.315 .0306411
679.059 .0306212
679.803 .0306004
680.547 .0305794
681.290 .0305584
682.033 .0305380
682.776 .0305183
683.518 .0304999
684.261 .0304836
685.003 .0304685
685.745 .0304546
686.487 .0304423
687.228 .0304313
687.969 .0304212
688.710 .0304107
689.451 .0304002
690.192 .0303889
690.932 .0303768
691.672 .0303636
692.412 .0303491
693.152 .0303342
693.891 .0303201
694.630 .0303067
695.369 .0302949
696.108 .0302841
696.846 .0302748
697.585 .0302668
698.323 .0302597
699.061 .0302524
699.798 .0302447
700.536 .0302364
701.273 .0302274
702.010 .0302166
702.746 .0302044
703.483 .0301903
704.219 .0301759
704.955 .0301606
705.691 .0301450
706.427 .0301290
707.162 .0301138
707.897 .0300994
708.632 .0300855
709.367 .0300713
710.101 .0300566
710.835 .0300402
711.569 .0300226
712.303 .0300028
713.037 .0299815
713.770 .0299593
714.503 .0299372
715.236 .0299154
715.969 .0298938
716.702 .0298726
717.434 .0298520
718.166 .0298312
718.898 .0298106
719.629 .0297890
720.361 .0297672
721.092 .0297448
721.823 .0297218
722.554 .0296986
723.284 .0296752
724.014 .0296502
724.744 .0296241
725.474 .0295961
726.204 .0295670
726.933 .0295365
727.662 .0295054
728.391 .0294751
729.120 .0294460
729.849 .0294179
730.577 .0293907
731.305 .0293639
732.033 .0293376
732.760 .0293099
733.488 .0292813
734.215 .0292517
734.942 .0292208
735.669 .0291901
736.395 .0291604
737.122 .0291324
737.848 .0291065
738.573 .0290822
739.299 .0290588
740.024 .0290358
740.750 .0290121
741.474 .0289870
742.199 .0289605
742.924 .0289335
743.648 .0289050
744.372 .0288758
745.096 .0288473
745.819 .0288198
746.543 .0287934
747.266 .0287689
747.989 .0287461
748.711 .0287247
749.434 .0287046
750.156 .0286860
750.878 .0286685
751.599 .0286529
752.321 .0286388
753.042 .0286258
753.763 .0286141
754.484 .0286039
755.205 .0285941
755.925 .0285854
756.645 .0285768
757.365 .0285680
758.085 .0285583
758.804 .0285477
759.523 .0285355
760.242 .0285214
760.961 .0285060
761.679 .0284888
762.397 .0284693
763.115 .0284481
763.833 .0284245
764.551 .0283993
765.268 .0283725
765.985 .0283442
766.702 .0283148
767.418 .0282847
768.134 .0282551
768.850 .0282261
769.566 .0281988
770.282 .0281740
770.997 .0281519
771.712 .0281324
772.427 .0281152
773.142 .0280998
773.856 .0280860
774.570 .0280733
775.284 .0280620
775.998 .0280517
776.711 .0280426
777.424 .0280353
778.137 .0280297
778.849 .0280256
779.562 .0280233
780.274 .0280213
780.986 .0280198
781.697 .0280180
782.409 .0280157
783.120 .0280131
783.831 .0280105
784.541 .0280086
785.252 .0280075
785.962 .0280073
786.671 .0280076
787.381 .0280081
788.090 .0280094
788.799 .0280104
789.508 .0280111
790.217 .0280116
790.925 .0280116
791.633 .0280111
792.341 .0280102
793.048 .0280085
793.755 .0280055
794.462 .0280006
795.169 .0279936
795.875 .0279847
796.581 .0279741
797.287 .0279625
797.993 .0279503
798.698 .0279388
799.403 .0279285
800.108 .0279195
800.812 .0279122
801.517 .0279065
802.221 .0279022
802.924 .0278990
803.628 .0278962
804.331 .0278948
805.034 .0278937
805.736 .0278932
806.439 .0278932
807.141 .0278933
807.843 .0278931
808.544 .0278920
809.245 .0278900
809.946 .0278872
810.647 .0278834
811.347 .0278786
812.047 .0278727
812.747 .0278671
813.447 .0278613
814.146 .0278554
814.845 .0278502
815.543 .0278451
816.242 .0278399
816.940 .0278343
817.638 .0278287
818.335 .0278226
819.032 .0278163
819.729 .0278100
820.426 .0278037
821.122 .0277975
821.818 .0277913
822.514 .0277851
823.209 .0277795
823.905 .0277741
824.599 .0277669
825.294 .0277573
825.988 .0277450
826.682 .0277296
827.376 .0277108
828.069 .0276899
828.762 .0276675
829.455 .0276452
830.147 .0276244
830.840 .0276063
831.531 .0275912
832.223 .0275798
832.914 .0275712
833.605 .0275645
834.296 .0275587
834.986 .0275523
835.676 .0275453
836.366 .0275382
837.055 .0275308
837.744 .0275238
838.433 .0275174
839.121 .0275127
839.809 .0275091
840.497 .0275068
841.185 .0275048
841.872 .0275025
842.559 .0274991
843.245 .0274938
843.932 .0274864
844.617 .0274767
845.303 .0274646
845.988 .0274512
846.673 .0274369
847.358 .0274218
848.042 .0274060
848.726 .0273907
849.410 .0273753
850.093 .0273595
850.776 .0273432
851.459 .0273256
852.141 .0273065
852.823 .0272864
853.505 .0272641
854.186 .0272400
854.867 .0272154
855.548 .0271900
856.228 .0271650
856.908 .0271416
857.588 .0271197
858.267 .0270997
858.946 .0270816
859.625 .0270651
860.303 .0270493
860.981 .0270347
861.659 .0270207
862.336 .0270068
863.013 .0269935
863.690 .0269803
864.366 .0269663
865.042 .0269526
865.718 .0269380
866.393 .0269228
867.068 .0269068
867.743 .0268895
868.417 .0268707
869.091 .0268505
869.765 .0268292
870.438 .0268066
871.111 .0267835
871.783 .0267601
872.456 .0267351
873.127 .0267097
873.799 .0266839
874.470 .0266582
875.141 .0266333
875.811 .0266096
876.481 .0265876
877.151 .0265673
877.820 .0265482
878.489 .0265300
879.158 .0265137
879.826 .0264989
880.494 .0264844
881.162 .0264703
881.829 .0264570
882.496 .0264430
883.163 .0264296
883.829 .0264164
884.495 .0264036
885.160 .0263911
885.825 .0263784
886.490 .0263651
887.154 .0263518
887.818 .0263386
888.482 .0263254
889.145 .0263118
889.808 .0262986
890.471 .0262840
891.133 .0262687
891.795 .0262533
892.456 .0262375
893.117 .0262212
893.778 .0262051
894.439 .0261890
895.099 .0261736
895.758 .0261590
896.417 .0261461
897.076 .0261349
897.735 .0261249
898.393 .0261163
899.051 .0261082
899.708 .0261006
900.365 .0260931
901.022 .0260856
901.678 .0260781
902.334 .0260695
902.990 .0260604
903.645 .0260500
904.300 .0260389
904.954 .0260276
905.608 .0260149
906.262 .0260018
906.915 .0259884
907.568 .0259740
908.221 .0259583
908.873 .0259424
909.525 .0259255
910.176 .0259072
910.828 .0258885
911.478 .0258698
912.129 .0258503
912.778 .0258319
913.428 .0258148
914.077 .0257986
914.726 .0257840
915.375 .0257707
916.023 .0257582
916.670 .0257474
917.318 .0257380
917.964 .0257286
918.611 .0257197
919.257 .0257116
919.903 .0257029
920.548 .0256941
921.193 .0256863
921.838 .0256790
922.482 .0256724
923.126 .0256668
923.770 .0256614
924.413 .0256554
925.056 .0256494
925.698 .0256433
926.340 .0256372
926.982 .0256316
927.623 .0256267
928.264 .0256224
928.904 .0256196
929.544 .0256174
930.184 .0256152
930.823 .0256127
931.462 .0256094
932.101 .0256040
932.739 .0255969
933.377 .0255884
934.014 .0255791
934.651 .0255692
935.288 .0255597
935.924 .0255500
936.560 .0255405
937.196 .0255304
937.831 .0255195
938.466 .0255075
939.100 .0254938
939.734 .0254782
940.368 .0254619
941.001 .0254450
941.634 .0254290
942.266 .0254143
942.899 .0254016
943.530 .0253903
944.162 .0253810
944.793 .0253732
945.423 .0253661
946.053 .0253593
946.683 .0253528
947.313 .0253456
947.942 .0253379
948.571 .0253292
949.199 .0253195
949.827 .0253094
950.455 .0252990
951.082 .0252883
951.709 .0252781
952.335 .0252690
952.961 .0252610
953.587 .0252539
954.212 .0252479
954.837 .0252416
955.462 .0252345
956.086 .0252269
956.710 .0252191
957.334 .0252109
957.957 .0252029
958.579 .0251955
959.202 .0251891
959.824 .0251844
960.445 .0251808
961.067 .0251788
961.688 .0251782
962.308 .0251783
962.928 .0251775
963.548 .0251762
964.168 .0251737
964.787 .0251696
965.406 .0251643
966.024 .0251579
966.642 .0251507
967.260 .0251438
967.877 .0251377
968.494 .0251328
969.110 .0251292
969.727 .0251266
970.342 .0251241
970.958 .0251222
971.573 .0251194
972.188 .0251163
972.802 .0251128
973.416 .0251098
974.030 .0251066
974.643 .0251047
975.256 .0251046
975.869 .0251058
976.481 .0251085
977.093 .0251124
977.705 .0251174
978.316 .0251234
978.927 .0251292
979.538 .0251357
980.148 .0251421
980.758 .0251485
981.367 .0251543
981.977 .0251598
982.586 .0251644
983.194 .0251687
983.802 .0251725
984.410 .0251762
985.018 .0251799
985.625 .0251850
986.232 .0251915
986.838 .0251998
987.445 .0252097
988.050 .0252199
988.656 .0252298
989.261 .0252391
989.866 .0252452
990.471 .0252489
991.075 .0252505
991.679 .0252502
992.282 .0252483
992.886 .0252464
993.489 .0252452
994.091 .0252443
994.694 .0252437
995.296 .0252430
995.897 .0252400
996.499 .0252350
997.100 .0252282
997.701 .0252203
998.301 .0252124
998.901 .0252062
999.501 .0252022
1000.101 .0252017
1000.700 .0252046
1001.299 .0252095
1001.898 .0252153
1002.496 .0252226
1003.094 .0252286
1003.692 .0252323
1004.289 .0252349
1004.887 .0252372
1005.484 .0252387
1006.080 .0252405
1006.677 .0252428
1007.273 .0252443
1007.868 .0252453
1008.464 .0252453
1009.059 .0252430
1009.654 .0252406
1010.249 .0252381
1010.843 .0252356
1011.437 .0252348
1012.031 .0252351
1012.625 .0252358
1013.218 .0252362
1013.811 .0252366
1014.404 .0252348
1014.997 .0252307
1015.589 .0252252
1016.181 .0252189
1016.773 .0252131
1017.365 .0252095
1017.956 .0252073
1018.547 .0252063
1019.138 .0252057
1019.728 .0252035
1020.319 .0251994
1020.909 .0251935
1021.499 .0251852
1022.088 .0251763
1022.678 .0251669
1023.267 .0251594
1023.856 .0251528
1024.445 .0251485
1025.033 .0251452
1025.621 .0251419
1026.209 .0251373
1026.797 .0251299
1027.385 .0251200
1027.972 .0251082
1028.560 .0250958
1029.147 .0250840
1029.734 .0250735
1030.320 .0250645
1030.907 .0250574
1031.493 .0250521
1032.079 .0250466
1032.665 .0250412
1033.250 .0250352
1033.836 .0250302
1034.421 .0250259
1035.006 .0250234
1035.591 .0250232
1036.176 .0250250
1036.761 .0250286
1037.345 .0250320
1037.929 .0250331
1038.514 .0250311
1039.097 .0250247
1039.681 .0250150
1040.265 .0250021
1040.848 .0249872
1041.432 .0249704
1042.015 .0249546
1042.598 .0249411
1043.181 .0249287
1043.764 .0249167
1044.346 .0249068
1044.929 .0248970
1045.511 .0248874
1046.094 .0248782
1046.676 .0248697
1047.258 .0248619
1047.840 .0248569
1048.422 .0248529
1049.003 .0248495
1049.585 .0248464
1050.166 .0248425
1050.748 .0248363
1051.329 .0248279
1051.910 .0248162
1052.491 .0248005
1053.072 .0247832
1053.653 .0247662
1054.234 .0247478
1054.815 .0247300
1055.396 .0247130
1055.976 .0246961
1056.557 .0246794
1057.138 .0246624
1057.718 .0246443
1058.298 .0246271
1058.879 .0246111
1059.459 .0245964
1060.039 .0245841
1060.620 .0245748
1061.200 .0245682
1061.780 .0245632
1062.360 .0245603
1062.940 .0245581
1063.520 .0245549
1064.101 .0245513
1064.681 .0245453
1065.261 .0245377
1065.841 .0245265
1066.421 .0245130
1067.001 .0244960
1067.581 .0244772
1068.161 .0244563
1068.741 .0244351
1069.321 .0244137
1069.901 .0243937
1070.482 .0243731
1071.062 .0243530
1071.642 .0243334
1072.222 .0243130
1072.803 .0242912
1073.383 .0242696
1073.963 .0242464
1074.544 .0242246
1075.124 .0242018
1075.705 .0241816
1076.286 .0241648
1076.866 .0241540
1077.447 .0241465
1078.028 .0241441
1078.609 .0241466
1079.190 .0241528
1079.771 .0241614
1080.352 .0241723
1080.934 .0241841
1081.515 .0241954
1082.097 .0242063
1082.679 .0242148
1083.260 .0242220
1083.842 .0242295
1084.424 .0242362
1085.007 .0242426
1085.589 .0242496
1086.172 .0242570
1086.754 .0242661
1087.337 .0242775
1087.920 .0242901
1088.503 .0243016
1089.087 .0243115
1089.670 .0243170
1090.254 .0243197
1090.838 .0243183
1091.422 .0243163
1092.006 .0243121
1092.590 .0243074
1093.175 .0243004
1093.760 .0242903
1094.345 .0242785
1094.930 .0242638
1095.516 .0242447
1096.102 .0242195
1096.688 .0241858
1097.274 .0241464
1097.860 .0241030
1098.447 .0240593
1099.034 .0240171
1099.622 .0239808
1100.209 .0239515
1100.797 .0239286
1101.385 .0239123
1101.973 .0239032
1102.562 .0238985
1103.151 .0238961
1103.740 .0238946
1104.330 .0238921
1104.920 .0238882
1105.510 .0238885
1106.101 .0238905
1106.691 .0238954
1107.283 .0239046
1107.874 .0239136
1108.466 .0239216
1109.058 .0239289
1109.651 .0239345
1110.244 .0239355
1110.837 .0239348
1111.431 .0239314
1112.025 .0239199
1112.620 .0239099
1113.215 .0239019
1113.810 .0238943
1114.406 .0238908
1115.002 .0238932
1115.599 .0238974
1116.196 .0239060
1116.793 .0239189
1117.391 .0239314
1117.989 .0239445
1118.588 .0239581
1119.187 .0239658
1119.787 .0239680
1120.387 .0239668
1120.988 .0239603
1121.589 .0239503
1122.190 .0239454
1122.793 .0239409
1123.395 .0239417
1123.998 .0239532
1124.602 .0239745
1125.206 .0240063
1125.811 .0240478
1126.416 .0240954
1127.022 .0241490
1127.628 .0242058
1128.235 .0242618
1128.843 .0243163
1129.451 .0243726
1130.059 .0244312
1130.669 .0244919
1131.278 .0245577
1131.889 .0246254
1132.500 .0246946
1133.112 .0247623
1133.724 .0248226
1134.337 .0248780
1134.950 .0249248
1135.564 .0249660
1136.179 .0250029
1136.795 .0250395
1137.411 .0250751
1138.028 .0251093
1138.645 .0251480
1139.263 .0251864
1139.882 .0252258
1140.502 .0252740
1141.122 .0253426
1141.743 .0254255
1142.365 .0255002
1142.987 .0254466
1143.611 .0257594
1144.235 .0262405
1144.859 .0260817
1145.485 .0254459
