Measurement Sequence started on: 10-20-44-796
Integration time: 35
Scans to Average: 2 
>>>>>Begin Spectral Data<<<<<
432.953 .0340538
433.882 .0395304
434.810 .0396117
435.737 .0368410
436.662 .0384186
437.586 .0377213
438.509 .0376802
439.431 .0374571
440.351 .0372597
441.269 .0371570
442.187 .0370315
443.103 .0369593
444.018 .0369526
444.932 .0369745
445.844 .0370333
446.756 .0371234
447.666 .0372440
448.575 .0373551
449.482 .0374680
450.388 .0375687
451.294 .0376554
452.198 .0377409
453.100 .0378260
454.002 .0379087
454.902 .0379876
455.801 .0380607
456.699 .0381260
457.596 .0381833
458.492 .0382348
459.387 .0382706
460.280 .0382903
461.172 .0382913
462.064 .0382797
462.954 .0382504
463.843 .0382091
464.730 .0381587
465.617 .0381035
466.503 .0380471
467.387 .0379867
468.271 .0379255
469.153 .0378678
470.035 .0378051
470.915 .0377448
471.794 .0376829
472.673 .0376214
473.550 .0375608
474.426 .0375016
475.301 .0374418
476.175 .0373840
477.048 .0373242
477.920 .0372655
478.791 .0372070
479.661 .0371531
480.530 .0371000
481.398 .0370470
482.266 .0369984
483.132 .0369548
483.997 .0369099
484.861 .0368679
485.724 .0368249
486.587 .0367841
487.448 .0367408
488.308 .0366957
489.168 .0366494
490.026 .0366059
490.884 .0365660
491.741 .0365288
492.597 .0364937
493.452 .0364665
494.306 .0364411
495.159 .0364202
496.011 .0364027
496.862 .0363869
497.713 .0363674
498.562 .0363462
499.411 .0363201
500.259 .0362909
501.106 .0362545
501.952 .0362143
502.798 .0361714
503.642 .0361287
504.486 .0360820
505.329 .0360309
506.171 .0359773
507.012 .0359200
507.852 .0358511
508.692 .0357713
509.531 .0356774
510.369 .0355714
511.206 .0354548
512.043 .0353303
512.878 .0351993
513.713 .0350701
514.547 .0349403
515.381 .0348118
516.213 .0346828
517.045 .0345492
517.876 .0344097
518.706 .0342683
519.536 .0341228
520.365 .0339722
521.193 .0338208
522.020 .0336722
522.847 .0335226
523.673 .0333715
524.498 .0332191
525.323 .0330599
526.146 .0328961
526.969 .0327325
527.792 .0325612
528.614 .0323927
529.435 .0322306
530.255 .0320739
531.075 .0319249
531.894 .0317775
532.712 .0316263
533.530 .0314729
534.347 .0313218
535.163 .0311688
535.979 .0310183
536.794 .0308850
537.608 .0307652
538.422 .0306678
539.235 .0305921
540.048 .0305360
540.860 .0304983
541.671 .0304748
542.481 .0304538
543.292 .0304339
544.101 .0304183
544.910 .0303994
545.718 .0303793
546.526 .0303622
547.333 .0303422
548.139 .0303229
548.945 .0303059
549.750 .0302902
550.555 .0302826
551.359 .0302858
552.162 .0302967
552.965 .0303189
553.768 .0303535
554.569 .0303964
555.371 .0304420
556.171 .0304919
556.972 .0305446
557.771 .0305958
558.570 .0306479
559.369 .0307048
560.167 .0307668
560.964 .0308437
561.761 .0309320
562.558 .0310310
563.354 .0311404
564.149 .0312519
564.944 .0313595
565.738 .0314626
566.532 .0315582
567.325 .0316433
568.118 .0317163
568.910 .0317863
569.702 .0318521
570.494 .0319141
571.285 .0319758
572.075 .0320343
572.865 .0320870
573.654 .0321332
574.443 .0321687
575.232 .0321953
576.020 .0322165
576.807 .0322329
577.594 .0322488
578.381 .0322679
579.167 .0322913
579.952 .0323206
580.738 .0323559
581.522 .0323968
582.307 .0324378
583.091 .0324793
583.874 .0325213
584.657 .0325620
585.440 .0326020
586.222 .0326393
587.004 .0326759
587.785 .0327124
588.566 .0327475
589.346 .0327799
590.126 .0328095
590.906 .0328341
591.685 .0328539
592.464 .0328676
593.242 .0328748
594.020 .0328753
594.797 .0328719
595.575 .0328646
596.351 .0328558
597.128 .0328455
597.904 .0328355
598.679 .0328273
599.454 .0328213
600.229 .0328156
601.004 .0328092
601.778 .0328014
602.551 .0327919
603.325 .0327794
604.097 .0327650
604.870 .0327490
605.642 .0327326
606.414 .0327160
607.185 .0326994
607.956 .0326831
608.727 .0326676
609.497 .0326515
610.267 .0326349
611.037 .0326166
611.806 .0325970
612.575 .0325755
613.344 .0325530
614.112 .0325307
614.880 .0325084
615.647 .0324858
616.414 .0324632
617.181 .0324407
617.948 .0324184
618.714 .0323959
619.480 .0323735
620.245 .0323509
621.011 .0323281
621.775 .0323049
622.540 .0322817
623.304 .0322583
624.068 .0322356
624.832 .0322120
625.595 .0321884
626.358 .0321646
627.120 .0321402
627.883 .0321149
628.645 .0320892
629.406 .0320631
630.168 .0320363
630.929 .0320085
631.689 .0319801
632.450 .0319514
633.210 .0319241
633.970 .0318971
634.729 .0318715
635.489 .0318470
636.248 .0318236
637.006 .0317997
637.765 .0317753
638.523 .0317498
639.280 .0317226
640.038 .0316935
640.795 .0316626
641.552 .0316308
642.309 .0316001
643.065 .0315700
643.821 .0315424
644.577 .0315172
645.332 .0314945
646.088 .0314734
646.843 .0314531
647.597 .0314326
648.352 .0314116
649.106 .0313900
649.860 .0313675
650.613 .0313445
651.367 .0313224
652.120 .0313014
652.872 .0312824
653.625 .0312657
654.377 .0312511
655.129 .0312370
655.881 .0312240
656.632 .0312104
657.384 .0311956
658.135 .0311793
658.885 .0311611
659.636 .0311413
660.386 .0311196
661.136 .0310960
661.885 .0310709
662.635 .0310451
663.384 .0310196
664.133 .0309937
664.881 .0309688
665.630 .0309446
666.378 .0309218
667.126 .0309002
667.874 .0308795
668.621 .0308595
669.368 .0308398
670.115 .0308202
670.862 .0308008
671.608 .0307818
672.354 .0307640
673.100 .0307475
673.846 .0307334
674.591 .0307211
675.337 .0307111
676.082 .0307027
676.826 .0306953
677.571 .0306881
678.315 .0306805
679.059 .0306713
679.803 .0306609
680.547 .0306492
681.290 .0306363
682.033 .0306223
682.776 .0306073
683.518 .0305914
684.261 .0305750
685.003 .0305581
685.745 .0305412
686.487 .0305246
687.228 .0305087
687.969 .0304926
688.710 .0304760
689.451 .0304588
690.192 .0304403
690.932 .0304207
691.672 .0304001
692.412 .0303788
693.152 .0303576
693.891 .0303366
694.630 .0303168
695.369 .0302984
696.108 .0302807
696.846 .0302635
697.585 .0302454
698.323 .0302268
699.061 .0302061
699.798 .0301833
700.536 .0301594
701.273 .0301352
702.010 .0301111
702.746 .0300873
703.483 .0300646
704.219 .0300432
704.955 .0300225
705.691 .0300019
706.427 .0299806
707.162 .0299586
707.897 .0299356
708.632 .0299115
709.367 .0298865
710.101 .0298613
710.835 .0298361
711.569 .0298112
712.303 .0297868
713.037 .0297630
713.770 .0297401
714.503 .0297180
715.236 .0296970
715.969 .0296769
716.702 .0296573
717.434 .0296384
718.166 .0296198
718.898 .0296012
719.629 .0295820
720.361 .0295624
721.092 .0295422
721.823 .0295215
722.554 .0295000
723.284 .0294781
724.014 .0294549
724.744 .0294308
725.474 .0294054
726.204 .0293785
726.933 .0293501
727.662 .0293203
728.391 .0292893
729.120 .0292574
729.849 .0292251
730.577 .0291931
731.305 .0291618
732.033 .0291321
732.760 .0291033
733.488 .0290760
734.215 .0290503
734.942 .0290263
735.669 .0290035
736.395 .0289827
737.122 .0289638
737.848 .0289464
738.573 .0289304
739.299 .0289158
740.024 .0289021
740.750 .0288888
741.474 .0288755
742.199 .0288620
742.924 .0288483
743.648 .0288347
744.372 .0288204
745.096 .0288066
745.819 .0287931
746.543 .0287798
747.266 .0287670
747.989 .0287550
748.711 .0287435
749.434 .0287320
750.156 .0287209
750.878 .0287102
751.599 .0287000
752.321 .0286908
753.042 .0286829
753.763 .0286766
754.484 .0286721
755.205 .0286685
755.925 .0286656
756.645 .0286628
757.365 .0286591
758.085 .0286545
758.804 .0286484
759.523 .0286402
760.242 .0286304
760.961 .0286190
761.679 .0286064
762.397 .0285923
763.115 .0285772
763.833 .0285602
764.551 .0285418
765.268 .0285217
765.985 .0284993
766.702 .0284757
767.418 .0284517
768.134 .0284274
768.850 .0284041
769.566 .0283820
770.282 .0283614
770.997 .0283425
771.712 .0283257
772.427 .0283098
773.142 .0282949
773.856 .0282809
774.570 .0282675
775.284 .0282544
775.998 .0282419
776.711 .0282298
777.424 .0282182
778.137 .0282073
778.849 .0281960
779.562 .0281846
780.274 .0281731
780.986 .0281615
781.697 .0281505
782.409 .0281402
783.120 .0281314
783.831 .0281235
784.541 .0281171
785.252 .0281122
785.962 .0281077
786.671 .0281039
787.381 .0280999
788.090 .0280960
788.799 .0280916
789.508 .0280869
790.217 .0280818
790.925 .0280766
791.633 .0280715
792.341 .0280658
793.048 .0280595
793.755 .0280522
794.462 .0280435
795.169 .0280332
795.875 .0280216
796.581 .0280090
797.287 .0279952
797.993 .0279813
798.698 .0279673
799.403 .0279540
800.108 .0279412
800.812 .0279290
801.517 .0279177
802.221 .0279070
802.924 .0278968
803.628 .0278866
804.331 .0278769
805.034 .0278674
805.736 .0278577
806.439 .0278484
807.141 .0278390
807.843 .0278304
808.544 .0278220
809.245 .0278140
809.946 .0278057
810.647 .0277976
811.347 .0277897
812.047 .0277817
812.747 .0277739
813.447 .0277656
814.146 .0277573
814.845 .0277492
815.543 .0277408
816.242 .0277325
816.940 .0277244
817.638 .0277164
818.335 .0277078
819.032 .0276991
819.729 .0276895
820.426 .0276792
821.122 .0276679
821.818 .0276552
822.514 .0276415
823.209 .0276264
823.905 .0276100
824.599 .0275921
825.294 .0275738
825.988 .0275548
826.682 .0275354
827.376 .0275163
828.069 .0274976
828.762 .0274792
829.455 .0274612
830.147 .0274435
830.840 .0274255
831.531 .0274074
832.223 .0273892
832.914 .0273705
833.605 .0273520
834.296 .0273337
834.986 .0273159
835.676 .0272991
836.366 .0272834
837.055 .0272679
837.744 .0272530
838.433 .0272385
839.121 .0272238
839.809 .0272089
840.497 .0271939
841.185 .0271792
841.872 .0271652
842.559 .0271522
843.245 .0271398
843.932 .0271283
844.617 .0271176
845.303 .0271074
845.988 .0270973
846.673 .0270874
847.358 .0270776
848.042 .0270685
848.726 .0270599
849.410 .0270516
850.093 .0270436
850.776 .0270355
851.459 .0270267
852.141 .0270167
852.823 .0270048
853.505 .0269913
854.186 .0269762
854.867 .0269606
855.548 .0269447
856.228 .0269298
856.908 .0269163
857.588 .0269044
858.267 .0268934
858.946 .0268832
859.625 .0268731
860.303 .0268629
860.981 .0268520
861.659 .0268402
862.336 .0268276
863.013 .0268146
863.690 .0268016
864.366 .0267890
865.042 .0267767
865.718 .0267655
866.393 .0267546
867.068 .0267433
867.743 .0267315
868.417 .0267189
869.091 .0267048
869.765 .0266896
870.438 .0266731
871.111 .0266556
871.783 .0266376
872.456 .0266199
873.127 .0266025
873.799 .0265863
874.470 .0265712
875.141 .0265571
875.811 .0265437
876.481 .0265309
877.151 .0265175
877.820 .0265038
878.489 .0264892
879.158 .0264738
879.826 .0264572
880.494 .0264403
881.162 .0264230
881.829 .0264064
882.496 .0263896
883.163 .0263732
883.829 .0263569
884.495 .0263411
885.160 .0263255
885.825 .0263104
886.490 .0262960
887.154 .0262827
887.818 .0262704
888.482 .0262596
889.145 .0262500
889.808 .0262426
890.471 .0262360
891.133 .0262310
891.795 .0262268
892.456 .0262233
893.117 .0262206
893.778 .0262189
894.439 .0262177
895.099 .0262169
895.758 .0262159
896.417 .0262147
897.076 .0262125
897.735 .0262098
898.393 .0262063
899.051 .0262021
899.708 .0261968
900.365 .0261905
901.022 .0261835
901.678 .0261764
902.334 .0261686
902.990 .0261603
903.645 .0261513
904.300 .0261414
904.954 .0261306
905.608 .0261186
906.262 .0261064
906.915 .0260940
907.568 .0260809
908.221 .0260672
908.873 .0260527
909.525 .0260376
910.176 .0260221
910.828 .0260066
911.478 .0259918
912.129 .0259771
912.778 .0259632
913.428 .0259501
914.077 .0259382
914.726 .0259268
915.375 .0259158
916.023 .0259053
916.670 .0258951
917.318 .0258844
917.964 .0258732
918.611 .0258621
919.257 .0258510
919.903 .0258396
920.548 .0258275
921.193 .0258148
921.838 .0258018
922.482 .0257881
923.126 .0257742
923.770 .0257606
924.413 .0257478
925.056 .0257352
925.698 .0257236
926.340 .0257128
926.982 .0257029
927.623 .0256938
928.264 .0256857
928.904 .0256786
929.544 .0256723
930.184 .0256668
930.823 .0256624
931.462 .0256583
932.101 .0256542
932.739 .0256494
933.377 .0256428
934.014 .0256342
934.651 .0256231
935.288 .0256090
935.924 .0255929
936.560 .0255751
937.196 .0255563
937.831 .0255363
938.466 .0255154
939.100 .0254936
939.734 .0254706
940.368 .0254463
941.001 .0254211
941.634 .0253953
942.266 .0253702
942.899 .0253459
943.530 .0253230
944.162 .0253018
944.793 .0252824
945.423 .0252647
946.053 .0252475
946.683 .0252303
947.313 .0252133
947.942 .0251957
948.571 .0251779
949.199 .0251600
949.827 .0251429
950.455 .0251268
951.082 .0251120
951.709 .0250986
952.335 .0250858
952.961 .0250739
953.587 .0250623
954.212 .0250504
954.837 .0250386
955.462 .0250264
956.086 .0250142
956.710 .0250028
957.334 .0249928
957.957 .0249843
958.579 .0249772
959.202 .0249713
959.824 .0249657
960.445 .0249598
961.067 .0249534
961.688 .0249464
962.308 .0249389
962.928 .0249313
963.548 .0249227
964.168 .0249142
964.787 .0249056
965.406 .0248970
966.024 .0248884
966.642 .0248791
967.260 .0248687
967.877 .0248571
968.494 .0248438
969.110 .0248296
969.727 .0248147
970.342 .0248001
970.958 .0247856
971.573 .0247718
972.188 .0247587
972.802 .0247464
973.416 .0247351
974.030 .0247245
974.643 .0247140
975.256 .0247041
975.869 .0246945
976.481 .0246854
977.093 .0246776
977.705 .0246724
978.316 .0246697
978.927 .0246696
979.538 .0246711
980.148 .0246734
980.758 .0246760
981.367 .0246781
981.977 .0246795
982.586 .0246803
983.194 .0246808
983.802 .0246815
984.410 .0246819
985.018 .0246829
985.625 .0246844
986.232 .0246863
986.838 .0246882
987.445 .0246893
988.050 .0246889
988.656 .0246868
989.261 .0246835
989.866 .0246789
990.471 .0246739
991.075 .0246687
991.679 .0246635
992.282 .0246586
992.886 .0246543
993.489 .0246509
994.091 .0246480
994.694 .0246465
995.296 .0246456
995.897 .0246443
996.499 .0246433
997.100 .0246417
997.701 .0246405
998.301 .0246393
998.901 .0246379
999.501 .0246365
1000.101 .0246355
1000.700 .0246349
1001.299 .0246345
1001.898 .0246352
1002.496 .0246371
1003.094 .0246392
1003.692 .0246414
1004.289 .0246435
1004.887 .0246456
1005.484 .0246476
1006.080 .0246501
1006.677 .0246525
1007.273 .0246548
1007.868 .0246575
1008.464 .0246610
1009.059 .0246654
1009.654 .0246702
1010.249 .0246751
1010.843 .0246799
1011.437 .0246846
1012.031 .0246882
1012.625 .0246905
1013.218 .0246918
1013.811 .0246924
1014.404 .0246918
1014.997 .0246903
1015.589 .0246891
1016.181 .0246886
1016.773 .0246889
1017.365 .0246899
1017.956 .0246916
1018.547 .0246931
1019.138 .0246938
1019.728 .0246937
1020.319 .0246928
1020.909 .0246913
1021.499 .0246898
1022.088 .0246886
1022.678 .0246884
1023.267 .0246897
1023.856 .0246919
1024.445 .0246954
1025.033 .0246999
1025.621 .0247041
1026.209 .0247078
1026.797 .0247103
1027.385 .0247112
1027.972 .0247105
1028.560 .0247088
1029.147 .0247064
1029.734 .0247049
1030.320 .0247045
1030.907 .0247052
1031.493 .0247069
1032.079 .0247097
1032.665 .0247126
1033.250 .0247147
1033.836 .0247161
1034.421 .0247158
1035.006 .0247138
1035.591 .0247111
1036.176 .0247072
1036.761 .0247035
1037.345 .0247012
1037.929 .0247001
1038.514 .0246993
1039.097 .0246996
1039.681 .0247005
1040.265 .0247019
1040.848 .0247041
1041.432 .0247070
1042.015 .0247098
1042.598 .0247121
1043.181 .0247142
1043.764 .0247152
1044.346 .0247156
1044.929 .0247157
1045.511 .0247147
1046.094 .0247131
1046.676 .0247107
1047.258 .0247077
1047.840 .0247038
1048.422 .0246998
1049.003 .0246956
1049.585 .0246892
1050.166 .0246811
1050.748 .0246711
1051.329 .0246591
1051.910 .0246460
1052.491 .0246337
1053.072 .0246220
1053.653 .0246119
1054.234 .0246039
1054.815 .0245976
1055.396 .0245930
1055.976 .0245900
1056.557 .0245886
1057.138 .0245872
1057.718 .0245852
1058.298 .0245836
1058.879 .0245804
1059.459 .0245770
1060.039 .0245728
1060.620 .0245670
1061.200 .0245591
1061.780 .0245499
1062.360 .0245377
1062.940 .0245232
1063.520 .0245082
1064.101 .0244933
1064.681 .0244780
1065.261 .0244637
1065.841 .0244496
1066.421 .0244357
1067.001 .0244222
1067.581 .0244111
1068.161 .0244003
1068.741 .0243924
1069.321 .0243871
1069.901 .0243849
1070.482 .0243855
1071.062 .0243904
1071.642 .0243975
1072.222 .0244073
1072.803 .0244190
1073.383 .0244307
1073.963 .0244403
1074.544 .0244495
1075.124 .0244572
1075.705 .0244642
1076.286 .0244709
1076.866 .0244780
1077.447 .0244833
1078.028 .0244895
1078.609 .0244953
1079.190 .0244990
1079.771 .0245000
1080.352 .0244987
1080.934 .0244932
1081.515 .0244852
1082.097 .0244755
1082.679 .0244645
1083.260 .0244539
1083.842 .0244468
1084.424 .0244419
1085.007 .0244386
1085.589 .0244371
1086.172 .0244353
1086.754 .0244326
1087.337 .0244301
1087.920 .0244262
1088.503 .0244222
1089.087 .0244206
1089.670 .0244206
1090.254 .0244214
1090.838 .0244232
1091.422 .0244255
1092.006 .0244274
1092.590 .0244283
1093.175 .0244268
1093.760 .0244227
1094.345 .0244166
1094.930 .0244092
1095.516 .0244013
1096.102 .0243942
1096.688 .0243875
1097.274 .0243806
1097.860 .0243735
1098.447 .0243641
1099.034 .0243540
1099.622 .0243421
1100.209 .0243303
1100.797 .0243198
1101.385 .0243101
1101.973 .0243011
1102.562 .0242933
1103.151 .0242855
1103.740 .0242754
1104.330 .0242625
1104.920 .0242477
1105.510 .0242296
1106.101 .0242135
1106.691 .0241989
1107.283 .0241881
1107.874 .0241821
1108.466 .0241810
1109.058 .0241826
1109.651 .0241874
1110.244 .0241932
1110.837 .0241984
1111.431 .0242040
1112.025 .0242099
1112.620 .0242156
1113.215 .0242221
1113.810 .0242303
1114.406 .0242400
1115.002 .0242478
1115.599 .0242534
1116.196 .0242520
1116.793 .0242448
1117.391 .0242305
1117.989 .0242079
1118.588 .0241803
1119.187 .0241484
1119.787 .0241147
1120.387 .0240830
1120.988 .0240558
1121.589 .0240350
1122.190 .0240193
1122.793 .0240101
1123.395 .0240042
1123.998 .0240026
1124.602 .0240061
1125.206 .0240168
1125.811 .0240339
1126.416 .0240597
1127.022 .0240950
1127.628 .0241390
1128.235 .0241914
1128.843 .0242500
1129.451 .0243112
1130.059 .0243754
1130.669 .0244377
1131.278 .0244965
1131.889 .0245484
1132.500 .0245961
1133.112 .0246361
1133.724 .0246724
1134.337 .0247073
1134.950 .0247382
1135.564 .0247681
1136.179 .0247995
1136.795 .0248320
1137.411 .0248673
1138.028 .0249056
1138.645 .0249501
1139.263 .0250026
1139.882 .0250612
1140.502 .0251308
1141.122 .0252110
1141.743 .0253037
1142.365 .0254118
1142.987 .0254246
1143.611 .0256938
1144.235 .0257534
1144.859 .0258350
1145.485 .0261670
