Measurement Sequence started on: 10-20-44-796
Integration time: 35
Scans to Average: 2 
>>>>>Begin Spectral Data<<<<<
432.953 .0297726
433.882 .0326923
434.810 .0318998
435.737 .0322242
436.662 .0321690
437.586 .0323256
438.509 .0324676
439.431 .0325284
440.351 .0326158
441.269 .0326960
442.187 .0327700
443.103 .0328255
444.018 .0328866
444.932 .0329406
445.844 .0329598
446.756 .0329550
447.666 .0329440
448.575 .0329090
449.482 .0328483
450.388 .0327691
451.294 .0326732
452.198 .0325717
453.100 .0324660
454.002 .0323739
454.902 .0322917
455.801 .0322292
456.699 .0321930
457.596 .0321786
458.492 .0321838
459.387 .0321951
460.280 .0322148
461.172 .0322328
462.064 .0322544
462.954 .0322786
463.843 .0323104
464.730 .0323579
465.617 .0324140
466.503 .0324777
467.387 .0325437
468.271 .0326066
469.153 .0326558
470.035 .0326897
470.915 .0327109
471.794 .0327138
472.673 .0327074
473.550 .0326984
474.426 .0326920
475.301 .0326889
476.175 .0326823
477.048 .0326659
477.920 .0326358
478.791 .0325908
479.661 .0325311
480.530 .0324609
481.398 .0323835
482.266 .0323070
483.132 .0322351
483.997 .0321732
484.861 .0321180
485.724 .0320692
486.587 .0320281
487.448 .0319868
488.308 .0319432
489.168 .0318962
490.026 .0318494
490.884 .0318101
491.741 .0317766
492.597 .0317534
493.452 .0317366
494.306 .0317258
495.159 .0317185
496.011 .0317123
496.862 .0317026
497.713 .0316901
498.562 .0316724
499.411 .0316539
500.259 .0316338
501.106 .0316109
501.952 .0315862
502.798 .0315583
503.642 .0315226
504.486 .0314716
505.329 .0314029
506.171 .0313201
507.012 .0312213
507.852 .0311142
508.692 .0309989
509.531 .0308802
510.369 .0307630
511.206 .0306475
512.043 .0305299
512.878 .0304075
513.713 .0302780
514.547 .0301377
515.381 .0299853
516.213 .0298235
517.045 .0296536
517.876 .0294884
518.706 .0293291
519.536 .0291848
520.365 .0290574
521.193 .0289471
522.020 .0288476
522.847 .0287520
523.673 .0286557
524.498 .0285457
525.323 .0284206
526.146 .0282797
526.969 .0281269
527.792 .0279677
528.614 .0277981
529.435 .0276265
530.255 .0274626
531.075 .0273011
531.894 .0271394
532.712 .0269841
533.530 .0268290
534.347 .0266710
535.163 .0265044
535.979 .0263384
536.794 .0261869
537.608 .0260429
538.422 .0259212
539.235 .0258202
540.048 .0257477
540.860 .0257000
541.671 .0256732
542.481 .0256760
543.292 .0257011
544.101 .0257451
544.910 .0258087
545.718 .0258873
546.526 .0259910
547.333 .0261075
548.139 .0262388
548.945 .0263809
549.750 .0265210
550.555 .0266506
551.359 .0267760
552.162 .0268896
552.965 .0269969
553.768 .0270899
554.569 .0271772
555.371 .0272546
556.171 .0273182
556.972 .0273709
557.771 .0274096
558.570 .0274371
559.369 .0274556
560.167 .0274621
560.964 .0274655
561.761 .0274694
562.558 .0274807
563.354 .0275082
564.149 .0275497
564.944 .0276030
565.738 .0276676
566.532 .0277399
567.325 .0278212
568.118 .0279003
568.910 .0279784
569.702 .0280609
570.494 .0281451
571.285 .0282297
572.075 .0283180
572.865 .0284137
573.654 .0285131
574.443 .0286122
575.232 .0287112
576.020 .0288050
576.807 .0288918
577.594 .0289723
578.381 .0290437
579.167 .0291078
579.952 .0291664
580.738 .0292232
581.522 .0292831
582.307 .0293448
583.091 .0294101
583.874 .0294773
584.657 .0295435
585.440 .0296078
586.222 .0296651
587.004 .0297167
587.785 .0297631
588.566 .0298065
589.346 .0298441
590.126 .0298791
590.906 .0299124
591.685 .0299434
592.464 .0299713
593.242 .0299961
594.020 .0300146
594.797 .0300277
595.575 .0300353
596.351 .0300372
597.128 .0300337
597.904 .0300281
598.679 .0300206
599.454 .0300118
600.229 .0300021
601.004 .0299933
601.778 .0299837
602.551 .0299761
603.325 .0299666
604.097 .0299558
604.870 .0299435
605.642 .0299297
606.414 .0299150
607.185 .0299000
607.956 .0298857
608.727 .0298735
609.497 .0298631
610.267 .0298555
611.037 .0298487
611.806 .0298420
612.575 .0298341
613.344 .0298240
614.112 .0298100
614.880 .0297919
615.647 .0297698
616.414 .0297469
617.181 .0297228
617.948 .0296998
618.714 .0296786
619.480 .0296588
620.245 .0296415
621.011 .0296241
621.775 .0296053
622.540 .0295847
623.304 .0295613
624.068 .0295365
624.832 .0295102
625.595 .0294850
626.358 .0294629
627.120 .0294448
627.883 .0294315
628.645 .0294226
629.406 .0294171
630.168 .0294139
630.929 .0294110
631.689 .0294075
632.450 .0294023
633.210 .0293943
633.970 .0293842
634.729 .0293726
635.489 .0293601
636.248 .0293472
637.006 .0293341
637.765 .0293206
638.523 .0293064
639.280 .0292911
640.038 .0292745
640.795 .0292565
641.552 .0292374
642.309 .0292180
643.065 .0291985
643.821 .0291801
644.577 .0291632
645.332 .0291478
646.088 .0291339
646.843 .0291213
647.597 .0291086
648.352 .0290956
649.106 .0290829
649.860 .0290697
650.613 .0290567
651.367 .0290451
652.120 .0290351
652.872 .0290261
653.625 .0290187
654.377 .0290117
655.129 .0290036
655.881 .0289945
656.632 .0289830
657.384 .0289689
658.135 .0289534
658.885 .0289366
659.636 .0289189
660.386 .0289023
661.136 .0288872
661.885 .0288730
662.635 .0288605
663.384 .0288489
664.133 .0288372
664.881 .0288245
665.630 .0288119
666.378 .0287980
667.126 .0287844
667.874 .0287712
668.621 .0287583
669.368 .0287459
670.115 .0287348
670.862 .0287234
671.608 .0287120
672.354 .0287007
673.100 .0286900
673.846 .0286783
674.591 .0286671
675.337 .0286560
676.082 .0286458
676.826 .0286362
677.571 .0286273
678.315 .0286183
679.059 .0286093
679.803 .0285997
680.547 .0285893
681.290 .0285787
682.033 .0285677
682.776 .0285558
683.518 .0285433
684.261 .0285306
685.003 .0285178
685.745 .0285039
686.487 .0284898
687.228 .0284750
687.969 .0284588
688.710 .0284411
689.451 .0284214
690.192 .0284004
690.932 .0283784
691.672 .0283554
692.412 .0283315
693.152 .0283076
693.891 .0282844
694.630 .0282616
695.369 .0282396
696.108 .0282188
696.846 .0281986
697.585 .0281787
698.323 .0281601
699.061 .0281422
699.798 .0281251
700.536 .0281093
701.273 .0280941
702.010 .0280796
702.746 .0280656
703.483 .0280512
704.219 .0280363
704.955 .0280210
705.691 .0280050
706.427 .0279872
707.162 .0279690
707.897 .0279510
708.632 .0279328
709.367 .0279151
710.101 .0278978
710.835 .0278808
711.569 .0278642
712.303 .0278472
713.037 .0278300
713.770 .0278126
714.503 .0277952
715.236 .0277769
715.969 .0277582
716.702 .0277399
717.434 .0277219
718.166 .0277036
718.898 .0276854
719.629 .0276671
720.361 .0276481
721.092 .0276284
721.823 .0276078
722.554 .0275867
723.284 .0275652
724.014 .0275433
724.744 .0275209
725.474 .0274988
726.204 .0274777
726.933 .0274567
727.662 .0274364
728.391 .0274169
729.120 .0273979
729.849 .0273792
730.577 .0273615
731.305 .0273446
732.033 .0273284
732.760 .0273126
733.488 .0272971
734.215 .0272819
734.942 .0272669
735.669 .0272515
736.395 .0272361
737.122 .0272209
737.848 .0272055
738.573 .0271899
739.299 .0271754
740.024 .0271615
740.750 .0271483
741.474 .0271355
742.199 .0271224
742.924 .0271093
743.648 .0270963
744.372 .0270828
745.096 .0270698
745.819 .0270575
746.543 .0270456
747.266 .0270338
747.989 .0270231
748.711 .0270125
749.434 .0270020
750.156 .0269918
750.878 .0269818
751.599 .0269720
752.321 .0269627
753.042 .0269541
753.763 .0269469
754.484 .0269408
755.205 .0269353
755.925 .0269299
756.645 .0269246
757.365 .0269184
758.085 .0269115
758.804 .0269038
759.523 .0268956
760.242 .0268870
760.961 .0268780
761.679 .0268689
762.397 .0268595
763.115 .0268493
763.833 .0268382
764.551 .0268265
765.268 .0268132
765.985 .0267979
766.702 .0267815
767.418 .0267641
768.134 .0267460
768.850 .0267278
769.566 .0267099
770.282 .0266929
770.997 .0266769
771.712 .0266617
772.427 .0266468
773.142 .0266325
773.856 .0266180
774.570 .0266028
775.284 .0265866
775.998 .0265693
776.711 .0265510
777.424 .0265322
778.137 .0265130
778.849 .0264944
779.562 .0264762
780.274 .0264595
780.986 .0264440
781.697 .0264296
782.409 .0264158
783.120 .0264031
783.831 .0263910
784.541 .0263788
785.252 .0263672
785.962 .0263564
786.671 .0263463
787.381 .0263374
788.090 .0263289
788.799 .0263214
789.508 .0263146
790.217 .0263079
790.925 .0263007
791.633 .0262933
792.341 .0262852
793.048 .0262760
793.755 .0262660
794.462 .0262554
795.169 .0262433
795.875 .0262306
796.581 .0262173
797.287 .0262033
797.993 .0261892
798.698 .0261752
799.403 .0261613
800.108 .0261479
800.812 .0261342
801.517 .0261206
802.221 .0261068
802.924 .0260931
803.628 .0260788
804.331 .0260645
805.034 .0260508
805.736 .0260378
806.439 .0260253
807.141 .0260141
807.843 .0260042
808.544 .0259951
809.245 .0259853
809.946 .0259748
810.647 .0259630
811.347 .0259502
812.047 .0259360
812.747 .0259215
813.447 .0259064
814.146 .0258916
814.845 .0258771
815.543 .0258636
816.242 .0258509
816.940 .0258382
817.638 .0258254
818.335 .0258127
819.032 .0257992
819.729 .0257850
820.426 .0257706
821.122 .0257575
821.818 .0257444
822.514 .0257312
823.209 .0257178
823.905 .0257046
824.599 .0256909
825.294 .0256764
825.988 .0256609
826.682 .0256448
827.376 .0256280
828.069 .0256102
828.762 .0255913
829.455 .0255718
830.147 .0255514
830.840 .0255303
831.531 .0255086
832.223 .0254866
832.914 .0254645
833.605 .0254433
834.296 .0254237
834.986 .0254057
835.676 .0253887
836.366 .0253732
837.055 .0253592
837.744 .0253460
838.433 .0253329
839.121 .0253206
839.809 .0253086
840.497 .0252973
841.185 .0252863
841.872 .0252759
842.559 .0252667
843.245 .0252582
843.932 .0252497
844.617 .0252407
845.303 .0252313
845.988 .0252212
846.673 .0252101
847.358 .0251987
848.042 .0251867
848.726 .0251747
849.410 .0251630
850.093 .0251516
850.776 .0251407
851.459 .0251298
852.141 .0251187
852.823 .0251069
853.505 .0250940
854.186 .0250799
854.867 .0250648
855.548 .0250494
856.228 .0250337
856.908 .0250187
857.588 .0250045
858.267 .0249917
858.946 .0249802
859.625 .0249695
860.303 .0249595
860.981 .0249498
861.659 .0249399
862.336 .0249294
863.013 .0249186
863.690 .0249080
864.366 .0248979
865.042 .0248887
865.718 .0248808
866.393 .0248742
867.068 .0248682
867.743 .0248624
868.417 .0248557
869.091 .0248478
869.765 .0248383
870.438 .0248274
871.111 .0248155
871.783 .0248037
872.456 .0247922
873.127 .0247819
873.799 .0247733
874.470 .0247663
875.141 .0247599
875.811 .0247539
876.481 .0247476
877.151 .0247405
877.820 .0247325
878.489 .0247237
879.158 .0247147
879.826 .0247060
880.494 .0246976
881.162 .0246901
881.829 .0246838
882.496 .0246780
883.163 .0246719
883.829 .0246657
884.495 .0246590
885.160 .0246513
885.825 .0246425
886.490 .0246340
887.154 .0246256
887.818 .0246178
888.482 .0246106
889.145 .0246043
889.808 .0245998
890.471 .0245966
891.133 .0245940
891.795 .0245922
892.456 .0245905
893.117 .0245889
893.778 .0245870
894.439 .0245851
895.099 .0245830
895.758 .0245802
896.417 .0245768
897.076 .0245728
897.735 .0245674
898.393 .0245611
899.051 .0245542
899.708 .0245466
900.365 .0245382
901.022 .0245288
901.678 .0245191
902.334 .0245093
902.990 .0244993
903.645 .0244893
904.300 .0244793
904.954 .0244699
905.608 .0244606
906.262 .0244521
906.915 .0244451
907.568 .0244392
908.221 .0244344
908.873 .0244307
909.525 .0244271
910.176 .0244232
910.828 .0244190
911.478 .0244145
912.129 .0244096
912.778 .0244044
913.428 .0243986
914.077 .0243929
914.726 .0243870
915.375 .0243811
916.023 .0243748
916.670 .0243689
917.318 .0243629
917.964 .0243562
918.611 .0243493
919.257 .0243421
919.903 .0243351
920.548 .0243285
921.193 .0243217
921.838 .0243155
922.482 .0243089
923.126 .0243021
923.770 .0242955
924.413 .0242889
925.056 .0242824
925.698 .0242764
926.340 .0242705
926.982 .0242647
927.623 .0242585
928.264 .0242517
928.904 .0242445
929.544 .0242368
930.184 .0242286
930.823 .0242199
931.462 .0242116
932.101 .0242038
932.739 .0241958
933.377 .0241886
934.014 .0241806
934.651 .0241714
935.288 .0241613
935.924 .0241500
936.560 .0241374
937.196 .0241246
937.831 .0241120
938.466 .0240993
939.100 .0240868
939.734 .0240748
940.368 .0240622
941.001 .0240494
941.634 .0240363
942.266 .0240222
942.899 .0240076
943.530 .0239923
944.162 .0239760
944.793 .0239593
945.423 .0239431
946.053 .0239268
946.683 .0239105
947.313 .0238948
947.942 .0238788
948.571 .0238621
949.199 .0238457
949.827 .0238286
950.455 .0238105
951.082 .0237922
951.709 .0237735
952.335 .0237545
952.961 .0237358
953.587 .0237169
954.212 .0236983
954.837 .0236806
955.462 .0236636
956.086 .0236460
956.710 .0236293
957.334 .0236130
957.957 .0235961
958.579 .0235791
959.202 .0235617
959.824 .0235438
960.445 .0235260
961.067 .0235083
961.688 .0234908
962.308 .0234743
962.928 .0234587
963.548 .0234440
964.168 .0234306
964.787 .0234181
965.406 .0234056
966.024 .0233938
966.642 .0233828
967.260 .0233722
967.877 .0233622
968.494 .0233535
969.110 .0233451
969.727 .0233381
970.342 .0233317
970.958 .0233251
971.573 .0233187
972.188 .0233127
972.802 .0233061
973.416 .0232993
974.030 .0232925
974.643 .0232858
975.256 .0232803
975.869 .0232769
976.481 .0232749
977.093 .0232743
977.705 .0232755
978.316 .0232771
978.927 .0232784
979.538 .0232797
980.148 .0232799
980.758 .0232787
981.367 .0232768
981.977 .0232738
982.586 .0232698
983.194 .0232653
983.802 .0232603
984.410 .0232537
985.018 .0232463
985.625 .0232371
986.232 .0232257
986.838 .0232128
987.445 .0231986
988.050 .0231829
988.656 .0231668
989.261 .0231511
989.866 .0231358
990.471 .0231216
991.075 .0231090
991.679 .0230971
992.282 .0230869
992.886 .0230775
993.489 .0230697
994.091 .0230633
994.694 .0230588
995.296 .0230553
995.897 .0230531
996.499 .0230524
997.100 .0230529
997.701 .0230543
998.301 .0230562
998.901 .0230585
999.501 .0230613
1000.101 .0230636
1000.700 .0230655
1001.299 .0230665
1001.898 .0230677
1002.496 .0230686
1003.094 .0230692
1003.692 .0230698
1004.289 .0230702
1004.887 .0230713
1005.484 .0230728
1006.080 .0230744
1006.677 .0230759
1007.273 .0230767
1007.868 .0230769
1008.464 .0230764
1009.059 .0230756
1009.654 .0230740
1010.249 .0230722
1010.843 .0230709
1011.437 .0230698
1012.031 .0230678
1012.625 .0230659
1013.218 .0230634
1013.811 .0230597
1014.404 .0230551
1014.997 .0230495
1015.589 .0230430
1016.181 .0230362
1016.773 .0230291
1017.365 .0230216
1017.956 .0230132
1018.547 .0230051
1019.138 .0229954
1019.728 .0229854
1020.319 .0229757
1020.909 .0229654
1021.499 .0229553
1022.088 .0229472
1022.678 .0229398
1023.267 .0229339
1023.856 .0229287
1024.445 .0229244
1025.033 .0229192
1025.621 .0229143
1026.209 .0229097
1026.797 .0229043
1027.385 .0229004
1027.972 .0228985
1028.560 .0228972
1029.147 .0228985
1029.734 .0229016
1030.320 .0229063
1030.907 .0229121
1031.493 .0229184
1032.079 .0229252
1032.665 .0229319
1033.250 .0229390
1033.836 .0229466
1034.421 .0229543
1035.006 .0229638
1035.591 .0229728
1036.176 .0229817
1036.761 .0229908
1037.345 .0229986
1037.929 .0230053
1038.514 .0230099
1039.097 .0230123
1039.681 .0230130
1040.265 .0230110
1040.848 .0230081
1041.432 .0230048
1042.015 .0230017
1042.598 .0229986
1043.181 .0229961
1043.764 .0229943
1044.346 .0229924
1044.929 .0229898
1045.511 .0229874
1046.094 .0229847
1046.676 .0229822
1047.258 .0229797
1047.840 .0229771
1048.422 .0229747
1049.003 .0229727
1049.585 .0229695
1050.166 .0229655
1050.748 .0229603
1051.329 .0229548
1051.910 .0229480
1052.491 .0229418
1053.072 .0229377
1053.653 .0229345
1054.234 .0229340
1054.815 .0229350
1055.396 .0229375
1055.976 .0229413
1056.557 .0229453
1057.138 .0229496
1057.718 .0229527
1058.298 .0229568
1058.879 .0229603
1059.459 .0229643
1060.039 .0229700
1060.620 .0229747
1061.200 .0229776
1061.780 .0229785
1062.360 .0229759
1062.940 .0229685
1063.520 .0229578
1064.101 .0229440
1064.681 .0229275
1065.261 .0229100
1065.841 .0228913
1066.421 .0228729
1067.001 .0228545
1067.581 .0228385
1068.161 .0228226
1068.741 .0228088
1069.321 .0227976
1069.901 .0227890
1070.482 .0227855
1071.062 .0227870
1071.642 .0227903
1072.222 .0227965
1072.803 .0228033
1073.383 .0228092
1073.963 .0228127
1074.544 .0228147
1075.124 .0228137
1075.705 .0228085
1076.286 .0228011
1076.866 .0227927
1077.447 .0227837
1078.028 .0227764
1078.609 .0227696
1079.190 .0227640
1079.771 .0227593
1080.352 .0227525
1080.934 .0227444
1081.515 .0227361
1082.097 .0227291
1082.679 .0227238
1083.260 .0227226
1083.842 .0227258
1084.424 .0227342
1085.007 .0227467
1085.589 .0227629
1086.172 .0227803
1086.754 .0227970
1087.337 .0228096
1087.920 .0228198
1088.503 .0228282
1089.087 .0228315
1089.670 .0228315
1090.254 .0228309
1090.838 .0228289
1091.422 .0228260
1092.006 .0228226
1092.590 .0228195
1093.175 .0228169
1093.760 .0228159
1094.345 .0228150
1094.930 .0228122
1095.516 .0228099
1096.102 .0228057
1096.688 .0227992
1097.274 .0227899
1097.860 .0227778
1098.447 .0227632
1099.034 .0227502
1099.622 .0227381
1100.209 .0227284
1100.797 .0227216
1101.385 .0227187
1101.973 .0227194
1102.562 .0227204
1103.151 .0227210
1103.740 .0227197
1104.330 .0227164
1104.920 .0227108
1105.510 .0227032
1106.101 .0226972
1106.691 .0226922
1107.283 .0226926
1107.874 .0226969
1108.466 .0227008
1109.058 .0227051
1109.651 .0227082
1110.244 .0227061
1110.837 .0227004
1111.431 .0226933
1112.025 .0226828
1112.620 .0226733
1113.215 .0226682
1113.810 .0226671
1114.406 .0226707
1115.002 .0226820
1115.599 .0226992
1116.196 .0227195
1116.793 .0227440
1117.391 .0227673
1117.989 .0227892
1118.588 .0228124
1119.187 .0228343
1119.787 .0228530
1120.387 .0228711
1120.988 .0228869
1121.589 .0228997
1122.190 .0229099
1122.793 .0229178
1123.395 .0229216
1123.998 .0229235
1124.602 .0229246
1125.206 .0229251
1125.811 .0229256
1126.416 .0229273
1127.022 .0229319
1127.628 .0229414
1128.235 .0229545
1128.843 .0229731
1129.451 .0229977
1130.059 .0230316
1130.669 .0230731
1131.278 .0231208
1131.889 .0231717
1132.500 .0232222
1133.112 .0232711
1133.724 .0233148
1134.337 .0233528
1134.950 .0233874
1135.564 .0234198
1136.179 .0234529
1136.795 .0234862
1137.411 .0235237
1138.028 .0235639
1138.645 .0236052
1139.263 .0236480
1139.882 .0236909
1140.502 .0237347
1141.122 .0237826
1141.743 .0238208
1142.365 .0238692
1142.987 .0239194
1143.611 .0240134
1144.235 .0241123
1144.859 .0238146
1145.485 .0242267
