Measurement Sequence started on: 10-20-44-796
Integration time: 35
Scans to Average: 2 
>>>>>Begin Spectral Data<<<<<
432.953 .0378438
433.882 .0406625
434.810 .0415764
435.737 .0384731
436.662 .0348138
437.586 .0362295
438.509 .0355198
439.431 .0348194
440.351 .0342151
441.269 .0337964
442.187 .0335294
443.103 .0333038
444.018 .0331363
444.932 .0330491
445.844 .0329876
446.756 .0329354
447.666 .0328761
448.575 .0327949
449.482 .0326969
450.388 .0325996
451.294 .0325035
452.198 .0324218
453.100 .0323589
454.002 .0323313
454.902 .0323275
455.801 .0323356
456.699 .0323513
457.596 .0323608
458.492 .0323532
459.387 .0323343
460.280 .0323136
461.172 .0322957
462.064 .0322890
462.954 .0322907
463.843 .0323090
464.730 .0323380
465.617 .0323728
466.503 .0324041
467.387 .0324307
468.271 .0324447
469.153 .0324461
470.035 .0324328
470.915 .0324126
471.794 .0323843
472.673 .0323536
473.550 .0323201
474.426 .0322898
475.301 .0322575
476.175 .0322237
477.048 .0321842
477.920 .0321462
478.791 .0321054
479.661 .0320676
480.530 .0320326
481.398 .0320019
482.266 .0319806
483.132 .0319681
483.997 .0319621
484.861 .0319641
485.724 .0319700
486.587 .0319758
487.448 .0319784
488.308 .0319788
489.168 .0319723
490.026 .0319612
490.884 .0319464
491.741 .0319247
492.597 .0318968
493.452 .0318631
494.306 .0318225
495.159 .0317734
496.011 .0317200
496.862 .0316568
497.713 .0315864
498.562 .0315075
499.411 .0314179
500.259 .0313219
501.106 .0312245
501.952 .0311240
502.798 .0310225
503.642 .0309250
504.486 .0308354
505.329 .0307489
506.171 .0306708
507.012 .0305989
507.852 .0305295
508.692 .0304597
509.531 .0303847
510.369 .0303056
511.206 .0302213
512.043 .0301260
512.878 .0300206
513.713 .0299089
514.547 .0297892
515.381 .0296595
516.213 .0295220
517.045 .0293804
517.876 .0292281
518.706 .0290597
519.536 .0288766
520.365 .0286794
521.193 .0284675
522.020 .0282436
522.847 .0280036
523.673 .0277624
524.498 .0275114
525.323 .0272544
526.146 .0269970
526.969 .0267486
527.792 .0265120
528.614 .0262883
529.435 .0260921
530.255 .0259273
531.075 .0257865
531.894 .0256727
532.712 .0255730
533.530 .0254932
534.347 .0254188
535.163 .0253482
535.979 .0252852
536.794 .0252473
537.608 .0252281
538.422 .0252309
539.235 .0252596
540.048 .0253071
540.860 .0253609
541.671 .0254112
542.481 .0254549
543.292 .0254891
544.101 .0255134
544.910 .0255378
545.718 .0255636
546.526 .0256064
547.333 .0256635
548.139 .0257356
548.945 .0258205
549.750 .0259111
550.555 .0259997
551.359 .0260802
552.162 .0261566
552.965 .0262257
553.768 .0262919
554.569 .0263534
555.371 .0264201
556.171 .0264882
556.972 .0265569
557.771 .0266256
558.570 .0266835
559.369 .0267340
560.167 .0267783
560.964 .0268171
561.761 .0268551
562.558 .0268946
563.354 .0269469
564.149 .0270065
564.944 .0270767
565.738 .0271536
566.532 .0272369
567.325 .0273282
568.118 .0274222
568.910 .0275115
569.702 .0276026
570.494 .0276945
571.285 .0277863
572.075 .0278800
572.865 .0279741
573.654 .0280676
574.443 .0281604
575.232 .0282516
576.020 .0283394
576.807 .0284184
577.594 .0284921
578.381 .0285569
579.167 .0286139
579.952 .0286634
580.738 .0287095
581.522 .0287558
582.307 .0288048
583.091 .0288558
583.874 .0289066
584.657 .0289580
585.440 .0290086
586.222 .0290536
587.004 .0290915
587.785 .0291224
588.566 .0291462
589.346 .0291634
590.126 .0291764
590.906 .0291867
591.685 .0291974
592.464 .0292087
593.242 .0292213
594.020 .0292352
594.797 .0292500
595.575 .0292637
596.351 .0292746
597.128 .0292826
597.904 .0292870
598.679 .0292884
599.454 .0292882
600.229 .0292865
601.004 .0292855
601.778 .0292861
602.551 .0292889
603.325 .0292933
604.097 .0292984
604.870 .0293030
605.642 .0293059
606.414 .0293065
607.185 .0293033
607.956 .0292970
608.727 .0292890
609.497 .0292793
610.267 .0292682
611.037 .0292563
611.806 .0292435
612.575 .0292290
613.344 .0292130
614.112 .0291946
614.880 .0291724
615.647 .0291479
616.414 .0291217
617.181 .0290952
617.948 .0290696
618.714 .0290462
619.480 .0290263
620.245 .0290090
621.011 .0289931
621.775 .0289769
622.540 .0289604
623.304 .0289437
624.068 .0289263
624.832 .0289088
625.595 .0288929
626.358 .0288804
627.120 .0288704
627.883 .0288625
628.645 .0288559
629.406 .0288494
630.168 .0288413
630.929 .0288301
631.689 .0288152
632.450 .0287966
633.210 .0287767
633.970 .0287564
634.729 .0287368
635.489 .0287179
636.248 .0286992
637.006 .0286812
637.765 .0286625
638.523 .0286427
639.280 .0286209
640.038 .0285979
640.795 .0285747
641.552 .0285502
642.309 .0285257
643.065 .0285018
643.821 .0284796
644.577 .0284589
645.332 .0284384
646.088 .0284170
646.843 .0283951
647.597 .0283727
648.352 .0283504
649.106 .0283293
649.860 .0283099
650.613 .0282927
651.367 .0282780
652.120 .0282655
652.872 .0282548
653.625 .0282457
654.377 .0282385
655.129 .0282315
655.881 .0282256
656.632 .0282187
657.384 .0282112
658.135 .0282044
658.885 .0281970
659.636 .0281891
660.386 .0281802
661.136 .0281702
661.885 .0281593
662.635 .0281473
663.384 .0281344
664.133 .0281211
664.881 .0281074
665.630 .0280927
666.378 .0280774
667.126 .0280623
667.874 .0280471
668.621 .0280322
669.368 .0280172
670.115 .0280026
670.862 .0279872
671.608 .0279726
672.354 .0279581
673.100 .0279447
673.846 .0279330
674.591 .0279224
675.337 .0279128
676.082 .0279046
676.826 .0278973
677.571 .0278913
678.315 .0278867
679.059 .0278838
679.803 .0278815
680.547 .0278803
681.290 .0278789
682.033 .0278781
682.776 .0278763
683.518 .0278734
684.261 .0278688
685.003 .0278628
685.745 .0278551
686.487 .0278459
687.228 .0278354
687.969 .0278243
688.710 .0278117
689.451 .0277978
690.192 .0277808
690.932 .0277621
691.672 .0277416
692.412 .0277192
693.152 .0276956
693.891 .0276725
694.630 .0276498
695.369 .0276288
696.108 .0276094
696.846 .0275918
697.585 .0275751
698.323 .0275597
699.061 .0275439
699.798 .0275280
700.536 .0275115
701.273 .0274953
702.010 .0274789
702.746 .0274633
703.483 .0274479
704.219 .0274325
704.955 .0274172
705.691 .0274013
706.427 .0273836
707.162 .0273652
707.897 .0273456
708.632 .0273262
709.367 .0273072
710.101 .0272889
710.835 .0272720
711.569 .0272566
712.303 .0272420
713.037 .0272277
713.770 .0272136
714.503 .0271994
715.236 .0271844
715.969 .0271689
716.702 .0271529
717.434 .0271362
718.166 .0271195
718.898 .0271024
719.629 .0270842
720.361 .0270658
721.092 .0270462
721.823 .0270253
722.554 .0270039
723.284 .0269816
724.014 .0269588
724.744 .0269355
725.474 .0269115
726.204 .0268868
726.933 .0268617
727.662 .0268366
728.391 .0268116
729.120 .0267876
729.849 .0267661
730.577 .0267469
731.305 .0267308
732.033 .0267172
732.760 .0267053
733.488 .0266947
734.215 .0266838
734.942 .0266716
735.669 .0266575
736.395 .0266422
737.122 .0266258
737.848 .0266093
738.573 .0265932
739.299 .0265782
740.024 .0265639
740.750 .0265496
741.474 .0265344
742.199 .0265169
742.924 .0264968
743.648 .0264741
744.372 .0264491
745.096 .0264231
745.819 .0263971
746.543 .0263725
747.266 .0263506
747.989 .0263323
748.711 .0263165
749.434 .0263035
750.156 .0262929
750.878 .0262833
751.599 .0262745
752.321 .0262664
753.042 .0262598
753.763 .0262546
754.484 .0262516
755.205 .0262503
755.925 .0262507
756.645 .0262527
757.365 .0262548
758.085 .0262566
758.804 .0262574
759.523 .0262558
760.242 .0262510
760.961 .0262435
761.679 .0262329
762.397 .0262195
763.115 .0262041
763.833 .0261867
764.551 .0261677
765.268 .0261466
765.985 .0261242
766.702 .0261003
767.418 .0260761
768.134 .0260511
768.850 .0260253
769.566 .0259997
770.282 .0259744
770.997 .0259497
771.712 .0259266
772.427 .0259051
773.142 .0258860
773.856 .0258694
774.570 .0258554
775.284 .0258441
775.998 .0258356
776.711 .0258294
777.424 .0258250
778.137 .0258217
778.849 .0258192
779.562 .0258164
780.274 .0258136
780.986 .0258106
781.697 .0258069
782.409 .0258032
783.120 .0257990
783.831 .0257942
784.541 .0257891
785.252 .0257833
785.962 .0257762
786.671 .0257679
787.381 .0257581
788.090 .0257472
788.799 .0257350
789.508 .0257215
790.217 .0257076
790.925 .0256932
791.633 .0256789
792.341 .0256649
793.048 .0256510
793.755 .0256378
794.462 .0256243
795.169 .0256109
795.875 .0255977
796.581 .0255845
797.287 .0255719
797.993 .0255594
798.698 .0255480
799.403 .0255370
800.108 .0255260
800.812 .0255156
801.517 .0255058
802.221 .0254966
802.924 .0254874
803.628 .0254784
804.331 .0254701
805.034 .0254629
805.736 .0254560
806.439 .0254501
807.141 .0254460
807.843 .0254432
808.544 .0254410
809.245 .0254392
809.946 .0254379
810.647 .0254365
811.347 .0254354
812.047 .0254336
812.747 .0254314
813.447 .0254286
814.146 .0254245
814.845 .0254196
815.543 .0254136
816.242 .0254068
816.940 .0253987
817.638 .0253897
818.335 .0253801
819.032 .0253687
819.729 .0253567
820.426 .0253437
821.122 .0253296
821.818 .0253143
822.514 .0252975
823.209 .0252793
823.905 .0252608
824.599 .0252415
825.294 .0252219
825.988 .0252023
826.682 .0251830
827.376 .0251639
828.069 .0251454
828.762 .0251275
829.455 .0251100
830.147 .0250928
830.840 .0250769
831.531 .0250610
832.223 .0250467
832.914 .0250335
833.605 .0250212
834.296 .0250100
834.986 .0249991
835.676 .0249883
836.366 .0249779
837.055 .0249673
837.744 .0249567
838.433 .0249457
839.121 .0249351
839.809 .0249239
840.497 .0249131
841.185 .0249025
841.872 .0248914
842.559 .0248798
843.245 .0248670
843.932 .0248525
844.617 .0248371
845.303 .0248205
845.988 .0248032
846.673 .0247859
847.358 .0247690
848.042 .0247525
848.726 .0247371
849.410 .0247226
850.093 .0247089
850.776 .0246958
851.459 .0246829
852.141 .0246696
852.823 .0246566
853.505 .0246443
854.186 .0246325
854.867 .0246221
855.548 .0246126
856.228 .0246038
856.908 .0245961
857.588 .0245886
858.267 .0245815
858.946 .0245741
859.625 .0245663
860.303 .0245582
860.981 .0245504
861.659 .0245427
862.336 .0245351
863.013 .0245280
863.690 .0245212
864.366 .0245138
865.042 .0245054
865.718 .0244953
866.393 .0244843
867.068 .0244723
867.743 .0244589
868.417 .0244445
869.091 .0244298
869.765 .0244147
870.438 .0243994
871.111 .0243840
871.783 .0243682
872.456 .0243517
873.127 .0243343
873.799 .0243151
874.470 .0242950
875.141 .0242748
875.811 .0242543
876.481 .0242345
877.151 .0242160
877.820 .0241989
878.489 .0241830
879.158 .0241691
879.826 .0241565
880.494 .0241448
881.162 .0241341
881.829 .0241238
882.496 .0241136
883.163 .0241043
883.829 .0240952
884.495 .0240869
885.160 .0240797
885.825 .0240727
886.490 .0240654
887.154 .0240583
887.818 .0240511
888.482 .0240441
889.145 .0240367
889.808 .0240304
890.471 .0240244
891.133 .0240192
891.795 .0240144
892.456 .0240097
893.117 .0240051
893.778 .0240007
894.439 .0239957
895.099 .0239904
895.758 .0239855
896.417 .0239815
897.076 .0239779
897.735 .0239753
898.393 .0239729
899.051 .0239709
899.708 .0239684
900.365 .0239651
901.022 .0239600
901.678 .0239540
902.334 .0239471
902.990 .0239392
903.645 .0239316
904.300 .0239242
904.954 .0239171
905.608 .0239100
906.262 .0239029
906.915 .0238955
907.568 .0238877
908.221 .0238796
908.873 .0238715
909.525 .0238637
910.176 .0238560
910.828 .0238487
911.478 .0238417
912.129 .0238351
912.778 .0238281
913.428 .0238206
914.077 .0238128
914.726 .0238045
915.375 .0237960
916.023 .0237871
916.670 .0237787
917.318 .0237708
917.964 .0237629
918.611 .0237550
919.257 .0237470
919.903 .0237386
920.548 .0237295
921.193 .0237203
921.838 .0237111
922.482 .0237023
923.126 .0236937
923.770 .0236856
924.413 .0236784
925.056 .0236720
925.698 .0236663
926.340 .0236615
926.982 .0236579
927.623 .0236552
928.264 .0236529
928.904 .0236509
929.544 .0236488
930.184 .0236463
930.823 .0236430
931.462 .0236384
932.101 .0236325
932.739 .0236254
933.377 .0236170
934.014 .0236081
934.651 .0235990
935.288 .0235898
935.924 .0235809
936.560 .0235722
937.196 .0235638
937.831 .0235543
938.466 .0235445
939.100 .0235339
939.734 .0235216
940.368 .0235083
941.001 .0234939
941.634 .0234792
942.266 .0234650
942.899 .0234508
943.530 .0234370
944.162 .0234238
944.793 .0234111
945.423 .0233977
946.053 .0233840
946.683 .0233701
947.313 .0233554
947.942 .0233400
948.571 .0233246
949.199 .0233087
949.827 .0232937
950.455 .0232798
951.082 .0232668
951.709 .0232554
952.335 .0232450
952.961 .0232355
953.587 .0232271
954.212 .0232193
954.837 .0232115
955.462 .0232032
956.086 .0231946
956.710 .0231858
957.334 .0231762
957.957 .0231667
958.579 .0231571
959.202 .0231481
959.824 .0231394
960.445 .0231303
961.067 .0231214
961.688 .0231127
962.308 .0231033
962.928 .0230940
963.548 .0230836
964.168 .0230727
964.787 .0230611
965.406 .0230491
966.024 .0230374
966.642 .0230265
967.260 .0230166
967.877 .0230082
968.494 .0230006
969.110 .0229948
969.727 .0229895
970.342 .0229847
970.958 .0229810
971.573 .0229773
972.188 .0229739
972.802 .0229706
973.416 .0229673
974.030 .0229642
974.643 .0229608
975.256 .0229577
975.869 .0229540
976.481 .0229493
977.093 .0229439
977.705 .0229368
978.316 .0229288
978.927 .0229198
979.538 .0229090
980.148 .0228973
980.758 .0228850
981.367 .0228719
981.977 .0228586
982.586 .0228455
983.194 .0228344
983.802 .0228240
984.410 .0228150
985.018 .0228075
985.625 .0228010
986.232 .0227956
986.838 .0227909
987.445 .0227866
988.050 .0227824
988.656 .0227782
989.261 .0227745
989.866 .0227707
990.471 .0227676
991.075 .0227648
991.679 .0227620
992.282 .0227592
992.886 .0227567
993.489 .0227530
994.091 .0227494
994.694 .0227462
995.296 .0227431
995.897 .0227407
996.499 .0227392
997.100 .0227394
997.701 .0227404
998.301 .0227428
998.901 .0227461
999.501 .0227490
1000.101 .0227520
1000.700 .0227540
1001.299 .0227545
1001.898 .0227540
1002.496 .0227525
1003.094 .0227498
1003.692 .0227461
1004.289 .0227419
1004.887 .0227368
1005.484 .0227311
1006.080 .0227246
1006.677 .0227173
1007.273 .0227087
1007.868 .0227000
1008.464 .0226911
1009.059 .0226831
1009.654 .0226766
1010.249 .0226719
1010.843 .0226693
1011.437 .0226689
1012.031 .0226701
1012.625 .0226725
1013.218 .0226755
1013.811 .0226782
1014.404 .0226811
1014.997 .0226833
1015.589 .0226853
1016.181 .0226875
1016.773 .0226902
1017.365 .0226932
1017.956 .0226958
1018.547 .0226978
1019.138 .0226976
1019.728 .0226951
1020.319 .0226896
1020.909 .0226811
1021.499 .0226704
1022.088 .0226581
1022.678 .0226450
1023.267 .0226322
1023.856 .0226209
1024.445 .0226109
1025.033 .0226020
1025.621 .0225942
1026.209 .0225861
1026.797 .0225778
1027.385 .0225684
1027.972 .0225593
1028.560 .0225501
1029.147 .0225414
1029.734 .0225338
1030.320 .0225274
1030.907 .0225221
1031.493 .0225183
1032.079 .0225156
1032.665 .0225132
1033.250 .0225111
1033.836 .0225097
1034.421 .0225090
1035.006 .0225098
1035.591 .0225125
1036.176 .0225173
1036.761 .0225238
1037.345 .0225323
1037.929 .0225404
1038.514 .0225475
1039.097 .0225532
1039.681 .0225567
1040.265 .0225574
1040.848 .0225558
1041.432 .0225522
1042.015 .0225480
1042.598 .0225438
1043.181 .0225403
1043.764 .0225367
1044.346 .0225337
1044.929 .0225310
1045.511 .0225270
1046.094 .0225225
1046.676 .0225175
1047.258 .0225115
1047.840 .0225061
1048.422 .0225007
1049.003 .0224954
1049.585 .0224915
1050.166 .0224887
1050.748 .0224884
1051.329 .0224901
1051.910 .0224936
1052.491 .0224978
1053.072 .0225030
1053.653 .0225083
1054.234 .0225115
1054.815 .0225130
1055.396 .0225135
1055.976 .0225106
1056.557 .0225045
1057.138 .0224965
1057.718 .0224865
1058.298 .0224769
1058.879 .0224686
1059.459 .0224614
1060.039 .0224560
1060.620 .0224509
1061.200 .0224449
1061.780 .0224371
1062.360 .0224283
1062.940 .0224176
1063.520 .0224033
1064.101 .0223891
1064.681 .0223739
1065.261 .0223578
1065.841 .0223428
1066.421 .0223302
1067.001 .0223182
1067.581 .0223075
1068.161 .0222971
1068.741 .0222858
1069.321 .0222744
1069.901 .0222646
1070.482 .0222547
1071.062 .0222457
1071.642 .0222382
1072.222 .0222311
1072.803 .0222233
1073.383 .0222178
1073.963 .0222126
1074.544 .0222090
1075.124 .0222092
1075.705 .0222119
1076.286 .0222156
1076.866 .0222224
1077.447 .0222292
1078.028 .0222368
1078.609 .0222452
1079.190 .0222531
1079.771 .0222585
1080.352 .0222634
1080.934 .0222686
1081.515 .0222728
1082.097 .0222769
1082.679 .0222811
1083.260 .0222832
1083.842 .0222831
1084.424 .0222779
1085.007 .0222671
1085.589 .0222536
1086.172 .0222397
1086.754 .0222242
1087.337 .0222095
1087.920 .0221970
1088.503 .0221867
1089.087 .0221787
1089.670 .0221732
1090.254 .0221692
1090.838 .0221647
1091.422 .0221601
1092.006 .0221552
1092.590 .0221509
1093.175 .0221509
1093.760 .0221538
1094.345 .0221609
1094.930 .0221692
1095.516 .0221778
1096.102 .0221833
1096.688 .0221863
1097.274 .0221873
1097.860 .0221839
1098.447 .0221770
1099.034 .0221676
1099.622 .0221585
1100.209 .0221506
1100.797 .0221452
1101.385 .0221438
1101.973 .0221438
1102.562 .0221442
1103.151 .0221425
1103.740 .0221387
1104.330 .0221333
1104.920 .0221267
1105.510 .0221170
1106.101 .0221062
1106.691 .0220964
1107.283 .0220879
1107.874 .0220804
1108.466 .0220758
1109.058 .0220751
1109.651 .0220725
1110.244 .0220693
1110.837 .0220641
1111.431 .0220538
1112.025 .0220424
1112.620 .0220285
1113.215 .0220122
1113.810 .0219951
1114.406 .0219804
1115.002 .0219654
1115.599 .0219548
1116.196 .0219516
1116.793 .0219523
1117.391 .0219597
1117.989 .0219756
1118.588 .0219994
1119.187 .0220295
1119.787 .0220700
1120.387 .0221168
1120.988 .0221688
1121.589 .0222291
1122.190 .0222893
1122.793 .0223498
1123.395 .0224108
1123.998 .0224705
1124.602 .0225239
1125.206 .0225705
1125.811 .0226127
1126.416 .0226466
1127.022 .0226765
1127.628 .0226959
1128.235 .0227050
1128.843 .0227029
1129.451 .0226881
1130.059 .0226584
1130.669 .0226207
1131.278 .0225815
1131.889 .0225396
1132.500 .0225016
1133.112 .0224742
1133.724 .0224534
1134.337 .0224402
1134.950 .0224345
1135.564 .0224357
1136.179 .0224353
1136.795 .0224370
1137.411 .0224395
1138.028 .0224500
1138.645 .0224741
1139.263 .0225130
1139.882 .0225512
1140.502 .0226003
1141.122 .0226618
1141.743 .0227229
1142.365 .0228351
1142.987 .0226408
1143.611 .0227936
1144.235 .0230635
1144.859 .0230942
1145.485 .0245330
