Measurement Sequence started on: 10-20-44-796
Integration time: 35
Scans to Average: 2 
>>>>>Begin Spectral Data<<<<<
432.953 .0362709
433.882 .0335077
434.810 .0319957
435.737 .0303010
436.662 .0307175
437.586 .0315022
438.509 .0312702
439.431 .0311776
440.351 .0311383
441.269 .0311358
442.187 .0311145
443.103 .0310830
444.018 .0310837
444.932 .0310935
445.844 .0311226
446.756 .0311504
447.666 .0311750
448.575 .0311777
449.482 .0311671
450.388 .0311384
451.294 .0310944
452.198 .0310406
453.100 .0309858
454.002 .0309438
454.902 .0309161
455.801 .0309028
456.699 .0308970
457.596 .0308976
458.492 .0308961
459.387 .0308922
460.280 .0308807
461.172 .0308565
462.064 .0308283
462.954 .0307955
463.843 .0307603
464.730 .0307280
465.617 .0307011
466.503 .0306803
467.387 .0306594
468.271 .0306389
469.153 .0306125
470.035 .0305824
470.915 .0305520
471.794 .0305216
472.673 .0304934
473.550 .0304693
474.426 .0304502
475.301 .0304356
476.175 .0304252
477.048 .0304145
477.920 .0304009
478.791 .0303859
479.661 .0303695
480.530 .0303518
481.398 .0303353
482.266 .0303247
483.132 .0303199
483.997 .0303218
484.861 .0303284
485.724 .0303376
486.587 .0303499
487.448 .0303626
488.308 .0303731
489.168 .0303810
490.026 .0303864
490.884 .0303904
491.741 .0303905
492.597 .0303903
493.452 .0303869
494.306 .0303796
495.159 .0303677
496.011 .0303510
496.862 .0303291
497.713 .0303000
498.562 .0302639
499.411 .0302208
500.259 .0301667
501.106 .0301032
501.952 .0300274
502.798 .0299456
503.642 .0298586
504.486 .0297695
505.329 .0296785
506.171 .0295921
507.012 .0295098
507.852 .0294276
508.692 .0293445
509.531 .0292593
510.369 .0291684
511.206 .0290713
512.043 .0289675
512.878 .0288559
513.713 .0287399
514.547 .0286251
515.381 .0285060
516.213 .0283844
517.045 .0282564
517.876 .0281148
518.706 .0279581
519.536 .0277876
520.365 .0275989
521.193 .0273979
522.020 .0271914
522.847 .0269828
523.673 .0267739
524.498 .0265665
525.323 .0263599
526.146 .0261564
526.969 .0259568
527.792 .0257599
528.614 .0255574
529.435 .0253653
530.255 .0251820
531.075 .0250108
531.894 .0248615
532.712 .0247351
533.530 .0246243
534.347 .0245315
535.163 .0244466
535.979 .0243694
536.794 .0242939
537.608 .0242285
538.422 .0241670
539.235 .0241139
540.048 .0240758
540.860 .0240465
541.671 .0240316
542.481 .0240422
543.292 .0240617
544.101 .0240914
544.910 .0241246
545.718 .0241623
546.526 .0242025
547.333 .0242491
548.139 .0243055
548.945 .0243707
549.750 .0244524
550.555 .0245514
551.359 .0246577
552.162 .0247758
552.965 .0249014
553.768 .0250264
554.569 .0251459
555.371 .0252544
556.171 .0253500
556.972 .0254394
557.771 .0255264
558.570 .0256093
559.369 .0256911
560.167 .0257747
560.964 .0258563
561.761 .0259341
562.558 .0260107
563.354 .0260817
564.149 .0261460
564.944 .0262068
565.738 .0262612
566.532 .0263116
567.325 .0263609
568.118 .0264097
568.910 .0264578
569.702 .0265061
570.494 .0265541
571.285 .0266020
572.075 .0266562
572.865 .0267143
573.654 .0267738
574.443 .0268362
575.232 .0269013
576.020 .0269670
576.807 .0270331
577.594 .0271017
578.381 .0271718
579.167 .0272442
579.952 .0273172
580.738 .0273900
581.522 .0274627
582.307 .0275338
583.091 .0276026
583.874 .0276664
584.657 .0277258
585.440 .0277805
586.222 .0278309
587.004 .0278787
587.785 .0279247
588.566 .0279680
589.346 .0280076
590.126 .0280440
590.906 .0280745
591.685 .0280998
592.464 .0281209
593.242 .0281385
594.020 .0281538
594.797 .0281672
595.575 .0281804
596.351 .0281929
597.128 .0282047
597.904 .0282151
598.679 .0282224
599.454 .0282254
600.229 .0282228
601.004 .0282150
601.778 .0282025
602.551 .0281872
603.325 .0281706
604.097 .0281535
604.870 .0281371
605.642 .0281216
606.414 .0281068
607.185 .0280916
607.956 .0280773
608.727 .0280622
609.497 .0280462
610.267 .0280300
611.037 .0280132
611.806 .0279963
612.575 .0279804
613.344 .0279659
614.112 .0279530
614.880 .0279415
615.647 .0279313
616.414 .0279210
617.181 .0279117
617.948 .0279022
618.714 .0278922
619.480 .0278818
620.245 .0278710
621.011 .0278589
621.775 .0278459
622.540 .0278325
623.304 .0278187
624.068 .0278057
624.832 .0277936
625.595 .0277820
626.358 .0277720
627.120 .0277636
627.883 .0277564
628.645 .0277507
629.406 .0277464
630.168 .0277424
630.929 .0277383
631.689 .0277340
632.450 .0277286
633.210 .0277221
633.970 .0277146
634.729 .0277054
635.489 .0276952
636.248 .0276843
637.006 .0276724
637.765 .0276598
638.523 .0276474
639.280 .0276342
640.038 .0276199
640.795 .0276047
641.552 .0275880
642.309 .0275702
643.065 .0275522
643.821 .0275340
644.577 .0275166
645.332 .0275005
646.088 .0274856
646.843 .0274718
647.597 .0274596
648.352 .0274482
649.106 .0274373
649.860 .0274265
650.613 .0274148
651.367 .0274022
652.120 .0273889
652.872 .0273751
653.625 .0273612
654.377 .0273481
655.129 .0273350
655.881 .0273222
656.632 .0273103
657.384 .0272987
658.135 .0272874
658.885 .0272762
659.636 .0272648
660.386 .0272531
661.136 .0272410
661.885 .0272284
662.635 .0272157
663.384 .0272036
664.133 .0271915
664.881 .0271790
665.630 .0271664
666.378 .0271540
667.126 .0271411
667.874 .0271275
668.621 .0271130
669.368 .0270975
670.115 .0270812
670.862 .0270642
671.608 .0270478
672.354 .0270323
673.100 .0270175
673.846 .0270035
674.591 .0269899
675.337 .0269765
676.082 .0269629
676.826 .0269493
677.571 .0269357
678.315 .0269222
679.059 .0269085
679.803 .0268947
680.547 .0268816
681.290 .0268685
682.033 .0268547
682.776 .0268398
683.518 .0268233
684.261 .0268048
685.003 .0267848
685.745 .0267640
686.487 .0267430
687.228 .0267225
687.969 .0267027
688.710 .0266837
689.451 .0266658
690.192 .0266487
690.932 .0266315
691.672 .0266145
692.412 .0265974
693.152 .0265798
693.891 .0265627
694.630 .0265469
695.369 .0265324
696.108 .0265196
696.846 .0265083
697.585 .0264980
698.323 .0264878
699.061 .0264778
699.798 .0264671
700.536 .0264557
701.273 .0264435
702.010 .0264304
702.746 .0264165
703.483 .0264026
704.219 .0263882
704.955 .0263734
705.691 .0263588
706.427 .0263440
707.162 .0263285
707.897 .0263126
708.632 .0262963
709.367 .0262794
710.101 .0262621
710.835 .0262448
711.569 .0262275
712.303 .0262105
713.037 .0261941
713.770 .0261784
714.503 .0261635
715.236 .0261489
715.969 .0261345
716.702 .0261198
717.434 .0261052
718.166 .0260901
718.898 .0260744
719.629 .0260589
720.361 .0260435
721.092 .0260288
721.823 .0260146
722.554 .0260008
723.284 .0259878
724.014 .0259745
724.744 .0259610
725.474 .0259465
726.204 .0259313
726.933 .0259151
727.662 .0258985
728.391 .0258823
729.120 .0258666
729.849 .0258519
730.577 .0258384
731.305 .0258258
732.033 .0258136
732.760 .0258015
733.488 .0257890
734.215 .0257759
734.942 .0257626
735.669 .0257482
736.395 .0257337
737.122 .0257193
737.848 .0257049
738.573 .0256907
739.299 .0256772
740.024 .0256638
740.750 .0256505
741.474 .0256378
742.199 .0256255
742.924 .0256133
743.648 .0256017
744.372 .0255901
745.096 .0255788
745.819 .0255677
746.543 .0255562
747.266 .0255448
747.989 .0255343
748.711 .0255244
749.434 .0255154
750.156 .0255079
750.878 .0255023
751.599 .0254980
752.321 .0254953
753.042 .0254942
753.763 .0254944
754.484 .0254952
755.205 .0254967
755.925 .0254987
756.645 .0255010
757.365 .0255030
758.085 .0255048
758.804 .0255062
759.523 .0255063
760.242 .0255050
760.961 .0255020
761.679 .0254975
762.397 .0254909
763.115 .0254823
763.833 .0254720
764.551 .0254602
765.268 .0254462
765.985 .0254302
766.702 .0254123
767.418 .0253930
768.134 .0253720
768.850 .0253502
769.566 .0253283
770.282 .0253069
770.997 .0252862
771.712 .0252662
772.427 .0252478
773.142 .0252305
773.856 .0252140
774.570 .0251980
775.284 .0251823
775.998 .0251667
776.711 .0251514
777.424 .0251362
778.137 .0251215
778.849 .0251073
779.562 .0250936
780.274 .0250803
780.986 .0250678
781.697 .0250558
782.409 .0250444
783.120 .0250335
783.831 .0250236
784.541 .0250140
785.252 .0250054
785.962 .0249971
786.671 .0249896
787.381 .0249821
788.090 .0249750
788.799 .0249672
789.508 .0249588
790.217 .0249496
790.925 .0249394
791.633 .0249283
792.341 .0249163
793.048 .0249032
793.755 .0248893
794.462 .0248747
795.169 .0248595
795.875 .0248433
796.581 .0248265
797.287 .0248089
797.993 .0247909
798.698 .0247727
799.403 .0247543
800.108 .0247359
800.812 .0247178
801.517 .0247000
802.221 .0246826
802.924 .0246657
803.628 .0246494
804.331 .0246343
805.034 .0246200
805.736 .0246063
806.439 .0245930
807.141 .0245801
807.843 .0245676
808.544 .0245550
809.245 .0245417
809.946 .0245280
810.647 .0245137
811.347 .0244993
812.047 .0244845
812.747 .0244699
813.447 .0244555
814.146 .0244417
814.845 .0244284
815.543 .0244154
816.242 .0244027
816.940 .0243900
817.638 .0243768
818.335 .0243634
819.032 .0243492
819.729 .0243348
820.426 .0243199
821.122 .0243046
821.818 .0242889
822.514 .0242733
823.209 .0242576
823.905 .0242421
824.599 .0242267
825.294 .0242116
825.988 .0241963
826.682 .0241810
827.376 .0241657
828.069 .0241505
828.762 .0241353
829.455 .0241199
830.147 .0241041
830.840 .0240890
831.531 .0240743
832.223 .0240605
832.914 .0240477
833.605 .0240362
834.296 .0240256
834.986 .0240158
835.676 .0240065
836.366 .0239975
837.055 .0239885
837.744 .0239790
838.433 .0239688
839.121 .0239584
839.809 .0239475
840.497 .0239365
841.185 .0239260
841.872 .0239156
842.559 .0239054
843.245 .0238952
843.932 .0238847
844.617 .0238742
845.303 .0238634
845.988 .0238522
846.673 .0238405
847.358 .0238289
848.042 .0238174
848.726 .0238062
849.410 .0237960
850.093 .0237866
850.776 .0237777
851.459 .0237696
852.141 .0237616
852.823 .0237538
853.505 .0237466
854.186 .0237395
854.867 .0237325
855.548 .0237255
856.228 .0237188
856.908 .0237123
857.588 .0237057
858.267 .0236996
858.946 .0236934
859.625 .0236873
860.303 .0236810
860.981 .0236742
861.659 .0236674
862.336 .0236602
863.013 .0236523
863.690 .0236440
864.366 .0236350
865.042 .0236257
865.718 .0236166
866.393 .0236079
867.068 .0236003
867.743 .0235939
868.417 .0235892
869.091 .0235858
869.765 .0235838
870.438 .0235824
871.111 .0235812
871.783 .0235802
872.456 .0235785
873.127 .0235758
873.799 .0235728
874.470 .0235698
875.141 .0235670
875.811 .0235649
876.481 .0235632
877.151 .0235621
877.820 .0235615
878.489 .0235603
879.158 .0235583
879.826 .0235549
880.494 .0235500
881.162 .0235437
881.829 .0235368
882.496 .0235293
883.163 .0235217
883.829 .0235147
884.495 .0235083
885.160 .0235027
885.825 .0234981
886.490 .0234939
887.154 .0234906
887.818 .0234876
888.482 .0234849
889.145 .0234821
889.808 .0234801
890.471 .0234785
891.133 .0234778
891.795 .0234779
892.456 .0234788
893.117 .0234807
893.778 .0234837
894.439 .0234873
895.099 .0234912
895.758 .0234949
896.417 .0234980
897.076 .0234999
897.735 .0235009
898.393 .0235002
899.051 .0234987
899.708 .0234965
900.365 .0234942
901.022 .0234920
901.678 .0234903
902.334 .0234888
902.990 .0234873
903.645 .0234857
904.300 .0234835
904.954 .0234805
905.608 .0234769
906.262 .0234732
906.915 .0234703
907.568 .0234682
908.221 .0234671
908.873 .0234673
909.525 .0234685
910.176 .0234697
910.828 .0234705
911.478 .0234700
912.129 .0234680
912.778 .0234648
913.428 .0234604
914.077 .0234550
914.726 .0234490
915.375 .0234425
916.023 .0234352
916.670 .0234275
917.318 .0234187
917.964 .0234085
918.611 .0233978
919.257 .0233865
919.903 .0233747
920.548 .0233630
921.193 .0233522
921.838 .0233424
922.482 .0233340
923.126 .0233270
923.770 .0233202
924.413 .0233141
925.056 .0233087
925.698 .0233037
926.340 .0232990
926.982 .0232953
927.623 .0232922
928.264 .0232900
928.904 .0232885
929.544 .0232866
930.184 .0232840
930.823 .0232811
931.462 .0232771
932.101 .0232716
932.739 .0232648
933.377 .0232566
934.014 .0232471
934.651 .0232371
935.288 .0232261
935.924 .0232145
936.560 .0232027
937.196 .0231908
937.831 .0231783
938.466 .0231653
939.100 .0231520
939.734 .0231383
940.368 .0231240
941.001 .0231093
941.634 .0230935
942.266 .0230778
942.899 .0230618
943.530 .0230457
944.162 .0230296
944.793 .0230137
945.423 .0229973
946.053 .0229802
946.683 .0229624
947.313 .0229440
947.942 .0229246
948.571 .0229051
949.199 .0228855
949.827 .0228657
950.455 .0228462
951.082 .0228271
951.709 .0228083
952.335 .0227902
952.961 .0227721
953.587 .0227540
954.212 .0227356
954.837 .0227171
955.462 .0226980
956.086 .0226792
956.710 .0226612
957.334 .0226435
957.957 .0226262
958.579 .0226099
959.202 .0225940
959.824 .0225788
960.445 .0225637
961.067 .0225485
961.688 .0225335
962.308 .0225186
962.928 .0225032
963.548 .0224878
964.168 .0224730
964.787 .0224582
965.406 .0224438
966.024 .0224302
966.642 .0224171
967.260 .0224049
967.877 .0223937
968.494 .0223831
969.110 .0223729
969.727 .0223628
970.342 .0223524
970.958 .0223414
971.573 .0223303
972.188 .0223185
972.802 .0223065
973.416 .0222947
974.030 .0222831
974.643 .0222715
975.256 .0222607
975.869 .0222505
976.481 .0222406
977.093 .0222304
977.705 .0222199
978.316 .0222090
978.927 .0221976
979.538 .0221849
980.148 .0221716
980.758 .0221576
981.367 .0221440
981.977 .0221306
982.586 .0221181
983.194 .0221071
983.802 .0220972
984.410 .0220878
985.018 .0220786
985.625 .0220689
986.232 .0220581
986.838 .0220457
987.445 .0220327
988.050 .0220184
988.656 .0220040
989.261 .0219897
989.866 .0219760
990.471 .0219632
991.075 .0219513
991.679 .0219394
992.282 .0219276
992.886 .0219158
993.489 .0219035
994.091 .0218909
994.694 .0218786
995.296 .0218668
995.897 .0218556
996.499 .0218452
997.100 .0218356
997.701 .0218265
998.301 .0218188
998.901 .0218120
999.501 .0218060
1000.101 .0218010
1000.700 .0217968
1001.299 .0217930
1001.898 .0217899
1002.496 .0217875
1003.094 .0217851
1003.692 .0217825
1004.289 .0217792
1004.887 .0217751
1005.484 .0217701
1006.080 .0217650
1006.677 .0217596
1007.273 .0217541
1007.868 .0217491
1008.464 .0217445
1009.059 .0217399
1009.654 .0217361
1010.249 .0217327
1010.843 .0217297
1011.437 .0217263
1012.031 .0217229
1012.625 .0217187
1013.218 .0217141
1013.811 .0217100
1014.404 .0217065
1014.997 .0217031
1015.589 .0217006
1016.181 .0216987
1016.773 .0216976
1017.365 .0216968
1017.956 .0216963
1018.547 .0216955
1019.138 .0216944
1019.728 .0216925
1020.319 .0216901
1020.909 .0216867
1021.499 .0216833
1022.088 .0216798
1022.678 .0216758
1023.267 .0216719
1023.856 .0216677
1024.445 .0216638
1025.033 .0216605
1025.621 .0216573
1026.209 .0216544
1026.797 .0216514
1027.385 .0216486
1027.972 .0216447
1028.560 .0216391
1029.147 .0216325
1029.734 .0216247
1030.320 .0216154
1030.907 .0216055
1031.493 .0215962
1032.079 .0215881
1032.665 .0215818
1033.250 .0215769
1033.836 .0215729
1034.421 .0215697
1035.006 .0215664
1035.591 .0215624
1036.176 .0215574
1036.761 .0215520
1037.345 .0215462
1037.929 .0215406
1038.514 .0215361
1039.097 .0215324
1039.681 .0215306
1040.265 .0215300
1040.848 .0215302
1041.432 .0215299
1042.015 .0215292
1042.598 .0215277
1043.181 .0215262
1043.764 .0215248
1044.346 .0215239
1044.929 .0215247
1045.511 .0215271
1046.094 .0215311
1046.676 .0215373
1047.258 .0215447
1047.840 .0215531
1048.422 .0215618
1049.003 .0215709
1049.585 .0215786
1050.166 .0215856
1050.748 .0215922
1051.329 .0215982
1051.910 .0216035
1052.491 .0216081
1053.072 .0216115
1053.653 .0216154
1054.234 .0216191
1054.815 .0216212
1055.396 .0216228
1055.976 .0216241
1056.557 .0216237
1057.138 .0216227
1057.718 .0216219
1058.298 .0216222
1058.879 .0216235
1059.459 .0216271
1060.039 .0216323
1060.620 .0216387
1061.200 .0216458
1061.780 .0216516
1062.360 .0216561
1062.940 .0216597
1063.520 .0216612
1064.101 .0216606
1064.681 .0216601
1065.261 .0216603
1065.841 .0216597
1066.421 .0216603
1067.001 .0216613
1067.581 .0216626
1068.161 .0216630
1068.741 .0216630
1069.321 .0216624
1069.901 .0216626
1070.482 .0216639
1071.062 .0216653
1071.642 .0216679
1072.222 .0216718
1072.803 .0216745
1073.383 .0216769
1073.963 .0216786
1074.544 .0216787
1075.124 .0216776
1075.705 .0216772
1076.286 .0216774
1076.866 .0216801
1077.447 .0216845
1078.028 .0216898
1078.609 .0216943
1079.190 .0216971
1079.771 .0216948
1080.352 .0216883
1080.934 .0216803
1081.515 .0216704
1082.097 .0216622
1082.679 .0216594
1083.260 .0216614
1083.842 .0216699
1084.424 .0216842
1085.007 .0217023
1085.589 .0217203
1086.172 .0217377
1086.754 .0217516
1087.337 .0217607
1087.920 .0217680
1088.503 .0217725
1089.087 .0217772
1089.670 .0217850
1090.254 .0217949
1090.838 .0218072
1091.422 .0218224
1092.006 .0218377
1092.590 .0218501
1093.175 .0218599
1093.760 .0218658
1094.345 .0218669
1094.930 .0218637
1095.516 .0218586
1096.102 .0218518
1096.688 .0218456
1097.274 .0218403
1097.860 .0218349
1098.447 .0218309
1099.034 .0218266
1099.622 .0218212
1100.209 .0218166
1100.797 .0218120
1101.385 .0218079
1101.973 .0218036
1102.562 .0218008
1103.151 .0217972
1103.740 .0217948
1104.330 .0217943
1104.920 .0217949
1105.510 .0217975
1106.101 .0218031
1106.691 .0218095
1107.283 .0218176
1107.874 .0218262
1108.466 .0218343
1109.058 .0218410
1109.651 .0218461
1110.244 .0218459
1110.837 .0218417
1111.431 .0218344
1112.025 .0218244
1112.620 .0218121
1113.215 .0218011
1113.810 .0217901
1114.406 .0217794
1115.002 .0217699
1115.599 .0217606
1116.196 .0217493
1116.793 .0217384
1117.391 .0217267
1117.989 .0217128
1118.588 .0216987
1119.187 .0216862
1119.787 .0216755
1120.387 .0216696
1120.988 .0216665
1121.589 .0216657
1122.190 .0216652
1122.793 .0216656
1123.395 .0216654
1123.998 .0216648
1124.602 .0216677
1125.206 .0216736
1125.811 .0216852
1126.416 .0217042
1127.022 .0217283
1127.628 .0217571
1128.235 .0217908
1128.843 .0218284
1129.451 .0218646
1130.059 .0218985
1130.669 .0219326
1131.278 .0219676
1131.889 .0220032
1132.500 .0220420
1133.112 .0220848
1133.724 .0221315
1134.337 .0221827
1134.950 .0222333
1135.564 .0222834
1136.179 .0223333
1136.795 .0223825
1137.411 .0224301
1138.028 .0224769
1138.645 .0225246
1139.263 .0225768
1139.882 .0226335
1140.502 .0227067
1141.122 .0227928
1141.743 .0228889
1142.365 .0229908
1142.987 .0229990
1143.611 .0233717
1144.235 .0234846
1144.859 .0234445
1145.485 .0233840
