Measurement Sequence started on: 10-20-44-796
Integration time: 35
Scans to Average: 2 
>>>>>Begin Spectral Data<<<<<
432.953 .0342846
433.882 .0261869
434.810 .0275879
435.737 .0277141
436.662 .0288007
437.586 .0287415
438.509 .0287937
439.431 .0291359
440.351 .0294505
441.269 .0297875
442.187 .0301235
443.103 .0304914
444.018 .0308458
444.932 .0311999
445.844 .0315070
446.756 .0317716
447.666 .0320036
448.575 .0321940
449.482 .0323473
450.388 .0324744
451.294 .0325726
452.198 .0326374
453.100 .0326765
454.002 .0327074
454.902 .0327060
455.801 .0326820
456.699 .0326390
457.596 .0325784
458.492 .0324895
459.387 .0323894
460.280 .0322758
461.172 .0321490
462.064 .0320245
462.954 .0318952
463.843 .0317759
464.730 .0316727
465.617 .0315882
466.503 .0315207
467.387 .0314665
468.271 .0314277
469.153 .0313972
470.035 .0313751
470.915 .0313597
471.794 .0313436
472.673 .0313257
473.550 .0313117
474.426 .0312990
475.301 .0312898
476.175 .0312847
477.048 .0312821
477.920 .0312852
478.791 .0312856
479.661 .0312891
480.530 .0312901
481.398 .0312876
482.266 .0312866
483.132 .0312805
483.997 .0312675
484.861 .0312511
485.724 .0312341
486.587 .0312205
487.448 .0312105
488.308 .0312060
489.168 .0312054
490.026 .0312086
490.884 .0312193
491.741 .0312300
492.597 .0312401
493.452 .0312475
494.306 .0312467
495.159 .0312408
496.011 .0312270
496.862 .0312053
497.713 .0311755
498.562 .0311414
499.411 .0311003
500.259 .0310480
501.106 .0309854
501.952 .0309159
502.798 .0308409
503.642 .0307630
504.486 .0306828
505.329 .0306005
506.171 .0305192
507.012 .0304403
507.852 .0303650
508.692 .0302897
509.531 .0302109
510.369 .0301288
511.206 .0300429
512.043 .0299536
512.878 .0298531
513.713 .0297484
514.547 .0296419
515.381 .0295310
516.213 .0294149
517.045 .0292858
517.876 .0291433
518.706 .0289851
519.536 .0288164
520.365 .0286314
521.193 .0284305
522.020 .0282282
522.847 .0280177
523.673 .0278053
524.498 .0275925
525.323 .0273731
526.146 .0271520
526.969 .0269407
527.792 .0267288
528.614 .0265052
529.435 .0262862
530.255 .0260712
531.075 .0258606
531.894 .0256631
532.712 .0254770
533.530 .0252935
534.347 .0251208
535.163 .0249625
535.979 .0248009
536.794 .0246539
537.608 .0245248
538.422 .0244210
539.235 .0243456
540.048 .0243063
540.860 .0242995
541.671 .0243259
542.481 .0243978
543.292 .0244852
544.101 .0245754
544.910 .0246704
545.718 .0247600
546.526 .0248394
547.333 .0249069
548.139 .0249707
548.945 .0250255
549.750 .0250881
550.555 .0251588
551.359 .0252328
552.162 .0253177
552.965 .0254161
553.768 .0255183
554.569 .0256136
555.371 .0257070
556.171 .0257839
556.972 .0258528
557.771 .0259124
558.570 .0259650
559.369 .0260121
560.167 .0260668
560.964 .0261331
561.761 .0262028
562.558 .0262826
563.354 .0263680
564.149 .0264535
564.944 .0265404
565.738 .0266236
566.532 .0266995
567.325 .0267671
568.118 .0268316
568.910 .0268881
569.702 .0269434
570.494 .0269990
571.285 .0270583
572.075 .0271262
572.865 .0271986
573.654 .0272732
574.443 .0273463
575.232 .0274234
576.020 .0274968
576.807 .0275642
577.594 .0276271
578.381 .0276867
579.167 .0277481
579.952 .0278095
580.738 .0278732
581.522 .0279435
582.307 .0280195
583.091 .0280991
583.874 .0281785
584.657 .0282563
585.440 .0283276
586.222 .0283915
587.004 .0284457
587.785 .0284907
588.566 .0285291
589.346 .0285621
590.126 .0285924
590.906 .0286190
591.685 .0286433
592.464 .0286625
593.242 .0286789
594.020 .0286907
594.797 .0286950
595.575 .0286951
596.351 .0286908
597.128 .0286846
597.904 .0286775
598.679 .0286722
599.454 .0286696
600.229 .0286688
601.004 .0286698
601.778 .0286710
602.551 .0286717
603.325 .0286714
604.097 .0286688
604.870 .0286643
605.642 .0286576
606.414 .0286491
607.185 .0286388
607.956 .0286299
608.727 .0286214
609.497 .0286135
610.267 .0286067
611.037 .0286006
611.806 .0285928
612.575 .0285834
613.344 .0285710
614.112 .0285565
614.880 .0285386
615.647 .0285175
616.414 .0284943
617.181 .0284712
617.948 .0284484
618.714 .0284262
619.480 .0284059
620.245 .0283880
621.011 .0283706
621.775 .0283540
622.540 .0283379
623.304 .0283216
624.068 .0283054
624.832 .0282886
625.595 .0282724
626.358 .0282581
627.120 .0282442
627.883 .0282326
628.645 .0282237
629.406 .0282167
630.168 .0282102
630.929 .0282038
631.689 .0281985
632.450 .0281916
633.210 .0281833
633.970 .0281738
634.729 .0281623
635.489 .0281500
636.248 .0281355
637.006 .0281195
637.765 .0281034
638.523 .0280862
639.280 .0280676
640.038 .0280482
640.795 .0280282
641.552 .0280079
642.309 .0279863
643.065 .0279664
643.821 .0279477
644.577 .0279297
645.332 .0279141
646.088 .0279003
646.843 .0278880
647.597 .0278774
648.352 .0278675
649.106 .0278592
649.860 .0278504
650.613 .0278414
651.367 .0278321
652.120 .0278232
652.872 .0278158
653.625 .0278086
654.377 .0278022
655.129 .0277975
655.881 .0277920
656.632 .0277862
657.384 .0277798
658.135 .0277722
658.885 .0277628
659.636 .0277520
660.386 .0277396
661.136 .0277265
661.885 .0277132
662.635 .0277009
663.384 .0276895
664.133 .0276790
664.881 .0276686
665.630 .0276573
666.378 .0276460
667.126 .0276330
667.874 .0276176
668.621 .0276009
669.368 .0275825
670.115 .0275630
670.862 .0275433
671.608 .0275243
672.354 .0275063
673.100 .0274894
673.846 .0274735
674.591 .0274576
675.337 .0274419
676.082 .0274256
676.826 .0274081
677.571 .0273901
678.315 .0273711
679.059 .0273508
679.803 .0273307
680.547 .0273116
681.290 .0272919
682.033 .0272722
682.776 .0272525
683.518 .0272326
684.261 .0272118
685.003 .0271907
685.745 .0271688
686.487 .0271468
687.228 .0271244
687.969 .0271010
688.710 .0270774
689.451 .0270542
690.192 .0270304
690.932 .0270071
691.672 .0269844
692.412 .0269635
693.152 .0269440
693.891 .0269272
694.630 .0269129
695.369 .0269006
696.108 .0268888
696.846 .0268767
697.585 .0268637
698.323 .0268496
699.061 .0268337
699.798 .0268170
700.536 .0268007
701.273 .0267849
702.010 .0267705
702.746 .0267585
703.483 .0267487
704.219 .0267406
704.955 .0267326
705.691 .0267239
706.427 .0267135
707.162 .0267009
707.897 .0266860
708.632 .0266695
709.367 .0266537
710.101 .0266381
710.835 .0266238
711.569 .0266116
712.303 .0266012
713.037 .0265921
713.770 .0265837
714.503 .0265749
715.236 .0265649
715.969 .0265531
716.702 .0265398
717.434 .0265253
718.166 .0265106
718.898 .0264963
719.629 .0264825
720.361 .0264703
721.092 .0264590
721.823 .0264477
722.554 .0264366
723.284 .0264247
724.014 .0264113
724.744 .0263961
725.474 .0263788
726.204 .0263597
726.933 .0263396
727.662 .0263194
728.391 .0262993
729.120 .0262794
729.849 .0262602
730.577 .0262421
731.305 .0262247
732.033 .0262082
732.760 .0261925
733.488 .0261780
734.215 .0261649
734.942 .0261531
735.669 .0261425
736.395 .0261332
737.122 .0261249
737.848 .0261174
738.573 .0261108
739.299 .0261051
740.024 .0260997
740.750 .0260948
741.474 .0260906
742.199 .0260867
742.924 .0260823
743.648 .0260773
744.372 .0260709
745.096 .0260633
745.819 .0260535
746.543 .0260413
747.266 .0260283
747.989 .0260149
748.711 .0260016
749.434 .0259890
750.156 .0259778
750.878 .0259683
751.599 .0259607
752.321 .0259545
753.042 .0259497
753.763 .0259467
754.484 .0259448
755.205 .0259435
755.925 .0259432
756.645 .0259438
757.365 .0259448
758.085 .0259461
758.804 .0259475
759.523 .0259475
760.242 .0259464
760.961 .0259435
761.679 .0259385
762.397 .0259314
763.115 .0259217
763.833 .0259091
764.551 .0258940
765.268 .0258769
765.985 .0258579
766.702 .0258376
767.418 .0258171
768.134 .0257963
768.850 .0257755
769.566 .0257548
770.282 .0257341
770.997 .0257135
771.712 .0256929
772.427 .0256718
773.142 .0256503
773.856 .0256293
774.570 .0256088
775.284 .0255893
775.998 .0255709
776.711 .0255536
777.424 .0255369
778.137 .0255200
778.849 .0255019
779.562 .0254826
780.274 .0254621
780.986 .0254411
781.697 .0254201
782.409 .0254002
783.120 .0253816
783.831 .0253646
784.541 .0253494
785.252 .0253357
785.962 .0253226
786.671 .0253101
787.381 .0252977
788.090 .0252852
788.799 .0252730
789.508 .0252605
790.217 .0252485
790.925 .0252373
791.633 .0252263
792.341 .0252157
793.048 .0252047
793.755 .0251930
794.462 .0251802
795.169 .0251663
795.875 .0251516
796.581 .0251363
797.287 .0251208
797.993 .0251055
798.698 .0250901
799.403 .0250751
800.108 .0250602
800.812 .0250451
801.517 .0250300
802.221 .0250144
802.924 .0249981
803.628 .0249819
804.331 .0249662
805.034 .0249516
805.736 .0249376
806.439 .0249252
807.141 .0249136
807.843 .0249023
808.544 .0248903
809.245 .0248771
809.946 .0248625
810.647 .0248469
811.347 .0248297
812.047 .0248118
812.747 .0247937
813.447 .0247760
814.146 .0247589
814.845 .0247432
815.543 .0247284
816.242 .0247144
816.940 .0247004
817.638 .0246864
818.335 .0246721
819.032 .0246577
819.729 .0246431
820.426 .0246292
821.122 .0246164
821.818 .0246043
822.514 .0245930
823.209 .0245828
823.905 .0245737
824.599 .0245650
825.294 .0245564
825.988 .0245471
826.682 .0245368
827.376 .0245258
828.069 .0245131
828.762 .0244996
829.455 .0244862
830.147 .0244729
830.840 .0244605
831.531 .0244491
832.223 .0244390
832.914 .0244290
833.605 .0244191
834.296 .0244086
834.986 .0243964
835.676 .0243828
836.366 .0243680
837.055 .0243524
837.744 .0243372
838.433 .0243230
839.121 .0243100
839.809 .0242986
840.497 .0242888
841.185 .0242797
841.872 .0242709
842.559 .0242624
843.245 .0242542
843.932 .0242462
844.617 .0242392
845.303 .0242335
845.988 .0242291
846.673 .0242266
847.358 .0242255
848.042 .0242254
848.726 .0242256
849.410 .0242255
850.093 .0242240
850.776 .0242207
851.459 .0242158
852.141 .0242092
852.823 .0242012
853.505 .0241930
854.186 .0241842
854.867 .0241754
855.548 .0241668
856.228 .0241587
856.908 .0241508
857.588 .0241433
858.267 .0241362
858.946 .0241289
859.625 .0241224
860.303 .0241162
860.981 .0241107
861.659 .0241062
862.336 .0241024
863.013 .0240988
863.690 .0240951
864.366 .0240910
865.042 .0240855
865.718 .0240788
866.393 .0240707
867.068 .0240614
867.743 .0240513
868.417 .0240406
869.091 .0240298
869.765 .0240198
870.438 .0240111
871.111 .0240029
871.783 .0239956
872.456 .0239887
873.127 .0239821
873.799 .0239758
874.470 .0239701
875.141 .0239650
875.811 .0239609
876.481 .0239579
877.151 .0239557
877.820 .0239548
878.489 .0239548
879.158 .0239551
879.826 .0239556
880.494 .0239563
881.162 .0239560
881.829 .0239546
882.496 .0239519
883.163 .0239479
883.829 .0239429
884.495 .0239367
885.160 .0239302
885.825 .0239237
886.490 .0239178
887.154 .0239126
887.818 .0239080
888.482 .0239044
889.145 .0239014
889.808 .0238990
890.471 .0238965
891.133 .0238933
891.795 .0238891
892.456 .0238841
893.117 .0238789
893.778 .0238735
894.439 .0238680
895.099 .0238629
895.758 .0238586
896.417 .0238552
897.076 .0238525
897.735 .0238506
898.393 .0238492
899.051 .0238487
899.708 .0238487
900.365 .0238490
901.022 .0238498
901.678 .0238515
902.334 .0238543
902.990 .0238574
903.645 .0238603
904.300 .0238630
904.954 .0238654
905.608 .0238683
906.262 .0238708
906.915 .0238733
907.568 .0238760
908.221 .0238788
908.873 .0238807
909.525 .0238816
910.176 .0238809
910.828 .0238779
911.478 .0238724
912.129 .0238638
912.778 .0238518
913.428 .0238380
914.077 .0238230
914.726 .0238082
915.375 .0237930
916.023 .0237791
916.670 .0237655
917.318 .0237530
917.964 .0237406
918.611 .0237278
919.257 .0237141
919.903 .0236998
920.548 .0236853
921.193 .0236710
921.838 .0236579
922.482 .0236468
923.126 .0236378
923.770 .0236313
924.413 .0236262
925.056 .0236225
925.698 .0236191
926.340 .0236163
926.982 .0236127
927.623 .0236081
928.264 .0236027
928.904 .0235967
929.544 .0235904
930.184 .0235837
930.823 .0235773
931.462 .0235707
932.101 .0235631
932.739 .0235547
933.377 .0235446
934.014 .0235325
934.651 .0235188
935.288 .0235035
935.924 .0234873
936.560 .0234709
937.196 .0234550
937.831 .0234398
938.466 .0234260
939.100 .0234133
939.734 .0234014
940.368 .0233894
941.001 .0233772
941.634 .0233641
942.266 .0233501
942.899 .0233360
943.530 .0233216
944.162 .0233075
944.793 .0232945
945.423 .0232824
946.053 .0232710
946.683 .0232598
947.313 .0232482
947.942 .0232356
948.571 .0232209
949.199 .0232040
949.827 .0231846
950.455 .0231631
951.082 .0231405
951.709 .0231172
952.335 .0230936
952.961 .0230706
953.587 .0230483
954.212 .0230267
954.837 .0230051
955.462 .0229832
956.086 .0229608
956.710 .0229379
957.334 .0229144
957.957 .0228900
958.579 .0228654
959.202 .0228417
959.824 .0228189
960.445 .0227977
961.067 .0227793
961.688 .0227637
962.308 .0227515
962.928 .0227426
963.548 .0227358
964.168 .0227307
964.787 .0227263
965.406 .0227224
966.024 .0227180
966.642 .0227133
967.260 .0227079
967.877 .0227027
968.494 .0226980
969.110 .0226936
969.727 .0226887
970.342 .0226835
970.958 .0226773
971.573 .0226686
972.188 .0226577
972.802 .0226445
973.416 .0226283
974.030 .0226104
974.643 .0225902
975.256 .0225694
975.869 .0225479
976.481 .0225263
977.093 .0225053
977.705 .0224847
978.316 .0224649
978.927 .0224452
979.538 .0224258
980.148 .0224072
980.758 .0223886
981.367 .0223705
981.977 .0223529
982.586 .0223360
983.194 .0223198
983.802 .0223047
984.410 .0222905
985.018 .0222776
985.625 .0222647
986.232 .0222527
986.838 .0222419
987.445 .0222312
988.050 .0222214
988.656 .0222115
989.261 .0222026
989.866 .0221939
990.471 .0221849
991.075 .0221764
991.679 .0221683
992.282 .0221604
992.886 .0221529
993.489 .0221453
994.091 .0221390
994.694 .0221330
995.296 .0221280
995.897 .0221238
996.499 .0221202
997.100 .0221166
997.701 .0221130
998.301 .0221089
998.901 .0221051
999.501 .0221003
1000.101 .0220953
1000.700 .0220904
1001.299 .0220860
1001.898 .0220815
1002.496 .0220773
1003.094 .0220727
1003.692 .0220677
1004.289 .0220613
1004.887 .0220538
1005.484 .0220447
1006.080 .0220347
1006.677 .0220239
1007.273 .0220126
1007.868 .0220014
1008.464 .0219917
1009.059 .0219831
1009.654 .0219772
1010.249 .0219732
1010.843 .0219717
1011.437 .0219714
1012.031 .0219722
1012.625 .0219737
1013.218 .0219752
1013.811 .0219768
1014.404 .0219791
1014.997 .0219814
1015.589 .0219849
1016.181 .0219893
1016.773 .0219950
1017.365 .0220021
1017.956 .0220104
1018.547 .0220179
1019.138 .0220246
1019.728 .0220302
1020.319 .0220345
1020.909 .0220375
1021.499 .0220396
1022.088 .0220407
1022.678 .0220415
1023.267 .0220415
1023.856 .0220404
1024.445 .0220378
1025.033 .0220345
1025.621 .0220283
1026.209 .0220201
1026.797 .0220097
1027.385 .0219978
1027.972 .0219861
1028.560 .0219745
1029.147 .0219645
1029.734 .0219556
1030.320 .0219483
1030.907 .0219427
1031.493 .0219386
1032.079 .0219368
1032.665 .0219366
1033.250 .0219389
1033.836 .0219436
1034.421 .0219504
1035.006 .0219599
1035.591 .0219714
1036.176 .0219841
1036.761 .0219970
1037.345 .0220097
1037.929 .0220206
1038.514 .0220315
1039.097 .0220405
1039.681 .0220488
1040.265 .0220557
1040.848 .0220614
1041.432 .0220654
1042.015 .0220666
1042.598 .0220661
1043.181 .0220637
1043.764 .0220586
1044.346 .0220518
1044.929 .0220427
1045.511 .0220340
1046.094 .0220254
1046.676 .0220184
1047.258 .0220120
1047.840 .0220071
1048.422 .0220031
1049.003 .0220002
1049.585 .0219967
1050.166 .0219936
1050.748 .0219901
1051.329 .0219856
1051.910 .0219819
1052.491 .0219776
1053.072 .0219734
1053.653 .0219700
1054.234 .0219671
1054.815 .0219648
1055.396 .0219622
1055.976 .0219607
1056.557 .0219597
1057.138 .0219606
1057.718 .0219627
1058.298 .0219651
1058.879 .0219682
1059.459 .0219713
1060.039 .0219730
1060.620 .0219724
1061.200 .0219712
1061.780 .0219679
1062.360 .0219630
1062.940 .0219578
1063.520 .0219528
1064.101 .0219492
1064.681 .0219464
1065.261 .0219436
1065.841 .0219394
1066.421 .0219335
1067.001 .0219262
1067.581 .0219164
1068.161 .0219066
1068.741 .0218975
1069.321 .0218907
1069.901 .0218868
1070.482 .0218869
1071.062 .0218898
1071.642 .0218946
1072.222 .0219001
1072.803 .0219044
1073.383 .0219066
1073.963 .0219071
1074.544 .0219076
1075.124 .0219106
1075.705 .0219164
1076.286 .0219276
1076.866 .0219411
1077.447 .0219583
1078.028 .0219745
1078.609 .0219876
1079.190 .0219981
1079.771 .0220049
1080.352 .0220080
1080.934 .0220096
1081.515 .0220106
1082.097 .0220142
1082.679 .0220199
1083.260 .0220295
1083.842 .0220388
1084.424 .0220467
1085.007 .0220501
1085.589 .0220484
1086.172 .0220416
1086.754 .0220331
1087.337 .0220228
1087.920 .0220154
1088.503 .0220115
1089.087 .0220114
1089.670 .0220160
1090.254 .0220238
1090.838 .0220328
1091.422 .0220421
1092.006 .0220488
1092.590 .0220552
1093.175 .0220611
1093.760 .0220694
1094.345 .0220788
1094.930 .0220910
1095.516 .0221046
1096.102 .0221180
1096.688 .0221290
1097.274 .0221380
1097.860 .0221441
1098.447 .0221494
1099.034 .0221525
1099.622 .0221540
1100.209 .0221557
1100.797 .0221588
1101.385 .0221612
1101.973 .0221638
1102.562 .0221661
1103.151 .0221699
1103.740 .0221715
1104.330 .0221750
1104.920 .0221773
1105.510 .0221831
1106.101 .0221894
1106.691 .0221961
1107.283 .0222000
1107.874 .0222028
1108.466 .0222006
1109.058 .0221940
1109.651 .0221852
1110.244 .0221768
1110.837 .0221649
1111.431 .0221560
1112.025 .0221485
1112.620 .0221442
1113.215 .0221382
1113.810 .0221369
1114.406 .0221376
1115.002 .0221436
1115.599 .0221502
1116.196 .0221575
1116.793 .0221651
1117.391 .0221774
1117.989 .0221872
1118.588 .0221976
1119.187 .0222104
1119.787 .0222246
1120.387 .0222383
1120.988 .0222563
1121.589 .0222767
1122.190 .0222986
1122.793 .0223218
1123.395 .0223461
1123.998 .0223679
1124.602 .0223896
1125.206 .0224113
1125.811 .0224351
1126.416 .0224657
1127.022 .0225001
1127.628 .0225339
1128.235 .0225694
1128.843 .0226039
1129.451 .0226310
1130.059 .0226545
1130.669 .0226731
1131.278 .0226885
1131.889 .0227041
1132.500 .0227237
1133.112 .0227451
1133.724 .0227705
1134.337 .0227972
1134.950 .0228222
1135.564 .0228425
1136.179 .0228585
1136.795 .0228689
1137.411 .0228846
1138.028 .0229081
1138.645 .0229464
1139.263 .0230011
1139.882 .0230750
1140.502 .0231617
1141.122 .0232638
1141.743 .0233832
1142.365 .0235277
1142.987 .0235890
1143.611 .0236236
1144.235 .0238565
1144.859 .0242656
1145.485 .0247464
