Measurement Sequence started on: 10-20-44-796
Integration time: 35
Scans to Average: 2 
>>>>>Begin Spectral Data<<<<<
432.953 .0393339
433.882 .0430283
434.810 .0452523
435.737 .0440670
436.662 .0433899
437.586 .0411703
438.509 .0404362
439.431 .0395495
440.351 .0386670
441.269 .0379328
442.187 .0373358
443.103 .0369012
444.018 .0366000
444.932 .0364011
445.844 .0362948
446.756 .0362675
447.666 .0363043
448.575 .0363794
449.482 .0364880
450.388 .0366252
451.294 .0367678
452.198 .0369125
453.100 .0370491
454.002 .0371853
454.902 .0373055
455.801 .0374316
456.699 .0375580
457.596 .0376866
458.492 .0378075
459.387 .0379199
460.280 .0380096
461.172 .0380786
462.064 .0381284
462.954 .0381489
463.843 .0381442
464.730 .0381217
465.617 .0380762
466.503 .0380087
467.387 .0379192
468.271 .0378184
469.153 .0377073
470.035 .0375949
470.915 .0374859
471.794 .0373811
472.673 .0372888
473.550 .0372110
474.426 .0371441
475.301 .0370872
476.175 .0370407
477.048 .0369950
477.920 .0369511
478.791 .0369055
479.661 .0368610
480.530 .0368181
481.398 .0367785
482.266 .0367492
483.132 .0367249
483.997 .0367059
484.861 .0366902
485.724 .0366739
486.587 .0366548
487.448 .0366311
488.308 .0365990
489.168 .0365611
490.026 .0365203
490.884 .0364765
491.741 .0364322
492.597 .0363953
493.452 .0363686
494.306 .0363474
495.159 .0363354
496.011 .0363321
496.862 .0363305
497.713 .0363318
498.562 .0363310
499.411 .0363249
500.259 .0363118
501.106 .0362903
501.952 .0362566
502.798 .0362180
503.642 .0361760
504.486 .0361238
505.329 .0360679
506.171 .0360042
507.012 .0359278
507.852 .0358347
508.692 .0357283
509.531 .0356021
510.369 .0354613
511.206 .0353103
512.043 .0351507
512.878 .0349873
513.713 .0348298
514.547 .0346755
515.381 .0345329
516.213 .0343946
517.045 .0342588
517.876 .0341154
518.706 .0339777
519.536 .0338331
520.365 .0336934
521.193 .0335683
522.020 .0334663
522.847 .0333814
523.673 .0333204
524.498 .0332714
525.323 .0332321
526.146 .0331890
526.969 .0331295
527.792 .0330372
528.614 .0329161
529.435 .0327681
530.255 .0326024
531.075 .0324239
531.894 .0322513
532.712 .0320726
533.530 .0319017
534.347 .0317296
535.163 .0315453
535.979 .0313586
536.794 .0311753
537.608 .0309978
538.422 .0308320
539.235 .0306828
540.048 .0305662
540.860 .0304739
541.671 .0304053
542.481 .0303578
543.292 .0303136
544.101 .0302743
544.910 .0302299
545.718 .0301762
546.526 .0301277
547.333 .0300882
548.139 .0300653
548.945 .0300612
549.750 .0300746
550.555 .0301058
551.359 .0301403
552.162 .0301904
552.965 .0302417
553.768 .0302827
554.569 .0303189
555.371 .0303451
556.171 .0303657
556.972 .0303872
557.771 .0304127
558.570 .0304505
559.369 .0305038
560.167 .0305691
560.964 .0306503
561.761 .0307477
562.558 .0308611
563.354 .0309832
564.149 .0311077
564.944 .0312311
565.738 .0313470
566.532 .0314564
567.325 .0315615
568.118 .0316597
568.910 .0317591
569.702 .0318551
570.494 .0319562
571.285 .0320599
572.075 .0321619
572.865 .0322599
573.654 .0323507
574.443 .0324283
575.232 .0324895
576.020 .0325359
576.807 .0325729
577.594 .0326013
578.381 .0326301
579.167 .0326595
579.952 .0326935
580.738 .0327331
581.522 .0327799
582.307 .0328294
583.091 .0328820
583.874 .0329317
584.657 .0329761
585.440 .0330151
586.222 .0330491
587.004 .0330787
587.785 .0331056
588.566 .0331330
589.346 .0331591
590.126 .0331819
590.906 .0332028
591.685 .0332203
592.464 .0332328
593.242 .0332407
594.020 .0332422
594.797 .0332390
595.575 .0332318
596.351 .0332218
597.128 .0332090
597.904 .0331943
598.679 .0331793
599.454 .0331613
600.229 .0331405
601.004 .0331178
601.778 .0330906
602.551 .0330608
603.325 .0330295
604.097 .0329948
604.870 .0329583
605.642 .0329219
606.414 .0328861
607.185 .0328517
607.956 .0328211
608.727 .0327943
609.497 .0327725
610.267 .0327552
611.037 .0327416
611.806 .0327290
612.575 .0327177
613.344 .0327059
614.112 .0326926
614.880 .0326771
615.647 .0326594
616.414 .0326408
617.181 .0326235
617.948 .0326071
618.714 .0325926
619.480 .0325800
620.245 .0325684
621.011 .0325556
621.775 .0325404
622.540 .0325219
623.304 .0325000
624.068 .0324748
624.832 .0324466
625.595 .0324166
626.358 .0323861
627.120 .0323560
627.883 .0323269
628.645 .0322998
629.406 .0322729
630.168 .0322460
630.929 .0322198
631.689 .0321938
632.450 .0321675
633.210 .0321420
633.970 .0321175
634.729 .0320939
635.489 .0320701
636.248 .0320462
637.006 .0320221
637.765 .0319993
638.523 .0319772
639.280 .0319557
640.038 .0319354
640.795 .0319186
641.552 .0319042
642.309 .0318922
643.065 .0318830
643.821 .0318744
644.577 .0318646
645.332 .0318524
646.088 .0318371
646.843 .0318184
647.597 .0317974
648.352 .0317753
649.106 .0317512
649.860 .0317272
650.613 .0317041
651.367 .0316812
652.120 .0316609
652.872 .0316423
653.625 .0316241
654.377 .0316060
655.129 .0315879
655.881 .0315690
656.632 .0315491
657.384 .0315294
658.135 .0315091
658.885 .0314888
659.636 .0314703
660.386 .0314524
661.136 .0314361
661.885 .0314230
662.635 .0314111
663.384 .0313990
664.133 .0313876
664.881 .0313747
665.630 .0313599
666.378 .0313441
667.126 .0313267
667.874 .0313078
668.621 .0312888
669.368 .0312703
670.115 .0312519
670.862 .0312348
671.608 .0312193
672.354 .0312029
673.100 .0311874
673.846 .0311717
674.591 .0311556
675.337 .0311398
676.082 .0311246
676.826 .0311098
677.571 .0310965
678.315 .0310848
679.059 .0310737
679.803 .0310625
680.547 .0310513
681.290 .0310385
682.033 .0310228
682.776 .0310037
683.518 .0309815
684.261 .0309562
685.003 .0309288
685.745 .0308996
686.487 .0308696
687.228 .0308401
687.969 .0308115
688.710 .0307840
689.451 .0307573
690.192 .0307312
690.932 .0307058
691.672 .0306801
692.412 .0306539
693.152 .0306280
693.891 .0306024
694.630 .0305787
695.369 .0305573
696.108 .0305377
696.846 .0305200
697.585 .0305038
698.323 .0304882
699.061 .0304723
699.798 .0304552
700.536 .0304365
701.273 .0304160
702.010 .0303944
702.746 .0303717
703.483 .0303487
704.219 .0303269
704.955 .0303065
705.691 .0302870
706.427 .0302683
707.162 .0302495
707.897 .0302310
708.632 .0302125
709.367 .0301933
710.101 .0301736
710.835 .0301535
711.569 .0301331
712.303 .0301118
713.037 .0300905
713.770 .0300689
714.503 .0300470
715.236 .0300242
715.969 .0300007
716.702 .0299759
717.434 .0299510
718.166 .0299254
718.898 .0298994
719.629 .0298737
720.361 .0298481
721.092 .0298230
721.823 .0297997
722.554 .0297778
723.284 .0297582
724.014 .0297399
724.744 .0297234
725.474 .0297069
726.204 .0296906
726.933 .0296735
727.662 .0296551
728.391 .0296349
729.120 .0296138
729.849 .0295916
730.577 .0295699
731.305 .0295479
732.033 .0295265
732.760 .0295054
733.488 .0294847
734.215 .0294634
734.942 .0294421
735.669 .0294201
736.395 .0293986
737.122 .0293773
737.848 .0293571
738.573 .0293380
739.299 .0293206
740.024 .0293049
740.750 .0292908
741.474 .0292776
742.199 .0292652
742.924 .0292525
743.648 .0292406
744.372 .0292287
745.096 .0292171
745.819 .0292062
746.543 .0291962
747.266 .0291871
747.989 .0291779
748.711 .0291687
749.434 .0291595
750.156 .0291500
750.878 .0291403
751.599 .0291301
752.321 .0291206
753.042 .0291122
753.763 .0291047
754.484 .0290980
755.205 .0290916
755.925 .0290852
756.645 .0290777
757.365 .0290693
758.085 .0290591
758.804 .0290471
759.523 .0290333
760.242 .0290184
760.961 .0290027
761.679 .0289862
762.397 .0289689
763.115 .0289513
763.833 .0289331
764.551 .0289142
765.268 .0288932
765.985 .0288714
766.702 .0288484
767.418 .0288250
768.134 .0288013
768.850 .0287785
769.566 .0287568
770.282 .0287364
770.997 .0287175
771.712 .0286997
772.427 .0286829
773.142 .0286674
773.856 .0286524
774.570 .0286380
775.284 .0286240
775.998 .0286099
776.711 .0285958
777.424 .0285825
778.137 .0285690
778.849 .0285551
779.562 .0285413
780.274 .0285275
780.986 .0285136
781.697 .0284997
782.409 .0284862
783.120 .0284730
783.831 .0284608
784.541 .0284492
785.252 .0284373
785.962 .0284260
786.671 .0284153
787.381 .0284046
788.090 .0283947
788.799 .0283847
789.508 .0283739
790.217 .0283627
790.925 .0283510
791.633 .0283383
792.341 .0283244
793.048 .0283096
793.755 .0282936
794.462 .0282762
795.169 .0282579
795.875 .0282386
796.581 .0282194
797.287 .0282005
797.993 .0281818
798.698 .0281633
799.403 .0281449
800.108 .0281271
800.812 .0281104
801.517 .0280951
802.221 .0280812
802.924 .0280694
803.628 .0280593
804.331 .0280516
805.034 .0280458
805.736 .0280413
806.439 .0280381
807.141 .0280353
807.843 .0280318
808.544 .0280272
809.245 .0280212
809.946 .0280136
810.647 .0280046
811.347 .0279949
812.047 .0279838
812.747 .0279719
813.447 .0279596
814.146 .0279467
814.845 .0279332
815.543 .0279190
816.242 .0279035
816.940 .0278869
817.638 .0278695
818.335 .0278511
819.032 .0278319
819.729 .0278127
820.426 .0277932
821.122 .0277739
821.818 .0277553
822.514 .0277376
823.209 .0277207
823.905 .0277047
824.599 .0276892
825.294 .0276736
825.988 .0276578
826.682 .0276414
827.376 .0276246
828.069 .0276076
828.762 .0275900
829.455 .0275722
830.147 .0275550
830.840 .0275391
831.531 .0275241
832.223 .0275110
832.914 .0274988
833.605 .0274873
834.296 .0274759
834.986 .0274641
835.676 .0274519
836.366 .0274391
837.055 .0274253
837.744 .0274104
838.433 .0273949
839.121 .0273784
839.809 .0273611
840.497 .0273439
841.185 .0273267
841.872 .0273092
842.559 .0272913
843.245 .0272733
843.932 .0272557
844.617 .0272390
845.303 .0272232
845.988 .0272080
846.673 .0271942
847.358 .0271807
848.042 .0271679
848.726 .0271550
849.410 .0271432
850.093 .0271319
850.776 .0271210
851.459 .0271109
852.141 .0271009
852.823 .0270919
853.505 .0270839
854.186 .0270760
854.867 .0270687
855.548 .0270607
856.228 .0270518
856.908 .0270419
857.588 .0270317
858.267 .0270208
858.946 .0270094
859.625 .0269978
860.303 .0269865
860.981 .0269754
861.659 .0269651
862.336 .0269552
863.013 .0269466
863.690 .0269390
864.366 .0269305
865.042 .0269215
865.718 .0269127
866.393 .0269028
867.068 .0268920
867.743 .0268803
868.417 .0268674
869.091 .0268531
869.765 .0268377
870.438 .0268207
871.111 .0268029
871.783 .0267848
872.456 .0267656
873.127 .0267457
873.799 .0267263
874.470 .0267064
875.141 .0266865
875.811 .0266676
876.481 .0266492
877.151 .0266310
877.820 .0266136
878.489 .0265972
879.158 .0265813
879.826 .0265673
880.494 .0265548
881.162 .0265437
881.829 .0265347
882.496 .0265267
883.163 .0265187
883.829 .0265111
884.495 .0265035
885.160 .0264958
885.825 .0264882
886.490 .0264816
887.154 .0264759
887.818 .0264716
888.482 .0264690
889.145 .0264677
889.808 .0264671
890.471 .0264671
891.133 .0264666
891.795 .0264649
892.456 .0264622
893.117 .0264584
893.778 .0264542
894.439 .0264505
895.099 .0264477
895.758 .0264452
896.417 .0264434
897.076 .0264419
897.735 .0264404
898.393 .0264388
899.051 .0264363
899.708 .0264319
900.365 .0264257
901.022 .0264173
901.678 .0264074
902.334 .0263958
902.990 .0263835
903.645 .0263712
904.300 .0263599
904.954 .0263494
905.608 .0263396
906.262 .0263315
906.915 .0263247
907.568 .0263182
908.221 .0263120
908.873 .0263047
909.525 .0262966
910.176 .0262876
910.828 .0262777
911.478 .0262677
912.129 .0262581
912.778 .0262495
913.428 .0262417
914.077 .0262350
914.726 .0262290
915.375 .0262226
916.023 .0262164
916.670 .0262097
917.318 .0262015
917.964 .0261920
918.611 .0261816
919.257 .0261704
919.903 .0261588
920.548 .0261471
921.193 .0261361
921.838 .0261261
922.482 .0261174
923.126 .0261101
923.770 .0261038
924.413 .0260987
925.056 .0260935
925.698 .0260880
926.340 .0260825
926.982 .0260766
927.623 .0260701
928.264 .0260632
928.904 .0260562
929.544 .0260494
930.184 .0260424
930.823 .0260353
931.462 .0260284
932.101 .0260212
932.739 .0260134
933.377 .0260046
934.014 .0259951
934.651 .0259852
935.288 .0259741
935.924 .0259622
936.560 .0259494
937.196 .0259355
937.831 .0259200
938.466 .0259041
939.100 .0258881
939.734 .0258725
940.368 .0258570
941.001 .0258420
941.634 .0258276
942.266 .0258134
942.899 .0257988
943.530 .0257828
944.162 .0257651
944.793 .0257456
945.423 .0257226
946.053 .0256980
946.683 .0256723
947.313 .0256461
947.942 .0256196
948.571 .0255930
949.199 .0255662
949.827 .0255389
950.455 .0255115
951.082 .0254845
951.709 .0254580
952.335 .0254331
952.961 .0254099
953.587 .0253891
954.212 .0253712
954.837 .0253564
955.462 .0253438
956.086 .0253340
956.710 .0253255
957.334 .0253181
957.957 .0253119
958.579 .0253073
959.202 .0253038
959.824 .0253015
960.445 .0252996
961.067 .0252973
961.688 .0252944
962.308 .0252896
962.928 .0252830
963.548 .0252750
964.168 .0252651
964.787 .0252534
965.406 .0252406
966.024 .0252274
966.642 .0252136
967.260 .0252004
967.877 .0251878
968.494 .0251746
969.110 .0251615
969.727 .0251480
970.342 .0251342
970.958 .0251202
971.573 .0251059
972.188 .0250912
972.802 .0250766
973.416 .0250614
974.030 .0250452
974.643 .0250288
975.256 .0250128
975.869 .0249969
976.481 .0249810
977.093 .0249661
977.705 .0249519
978.316 .0249389
978.927 .0249268
979.538 .0249160
980.148 .0249063
980.758 .0248973
981.367 .0248888
981.977 .0248814
982.586 .0248752
983.194 .0248706
983.802 .0248671
984.410 .0248652
985.018 .0248637
985.625 .0248627
986.232 .0248613
986.838 .0248596
987.445 .0248570
988.050 .0248534
988.656 .0248489
989.261 .0248439
989.866 .0248373
990.471 .0248304
991.075 .0248227
991.679 .0248145
992.282 .0248055
992.886 .0247954
993.489 .0247841
994.091 .0247720
994.694 .0247588
995.296 .0247446
995.897 .0247291
996.499 .0247138
997.100 .0246977
997.701 .0246826
998.301 .0246684
998.901 .0246555
999.501 .0246452
1000.101 .0246385
1000.700 .0246344
1001.299 .0246337
1001.898 .0246354
1002.496 .0246396
1003.094 .0246451
1003.692 .0246516
1004.289 .0246579
1004.887 .0246643
1005.484 .0246706
1006.080 .0246763
1006.677 .0246813
1007.273 .0246860
1007.868 .0246897
1008.464 .0246934
1009.059 .0246961
1009.654 .0246978
1010.249 .0246981
1010.843 .0246975
1011.437 .0246954
1012.031 .0246920
1012.625 .0246870
1013.218 .0246806
1013.811 .0246741
1014.404 .0246673
1014.997 .0246611
1015.589 .0246564
1016.181 .0246540
1016.773 .0246543
1017.365 .0246568
1017.956 .0246608
1018.547 .0246655
1019.138 .0246703
1019.728 .0246746
1020.319 .0246771
1020.909 .0246780
1021.499 .0246777
1022.088 .0246768
1022.678 .0246747
1023.267 .0246729
1023.856 .0246707
1024.445 .0246692
1025.033 .0246678
1025.621 .0246667
1026.209 .0246660
1026.797 .0246656
1027.385 .0246657
1027.972 .0246664
1028.560 .0246674
1029.147 .0246690
1029.734 .0246707
1030.320 .0246725
1030.907 .0246735
1031.493 .0246741
1032.079 .0246735
1032.665 .0246729
1033.250 .0246718
1033.836 .0246707
1034.421 .0246695
1035.006 .0246682
1035.591 .0246669
1036.176 .0246647
1036.761 .0246624
1037.345 .0246603
1037.929 .0246565
1038.514 .0246529
1039.097 .0246485
1039.681 .0246433
1040.265 .0246374
1040.848 .0246314
1041.432 .0246249
1042.015 .0246185
1042.598 .0246121
1043.181 .0246069
1043.764 .0246017
1044.346 .0245977
1044.929 .0245940
1045.511 .0245902
1046.094 .0245874
1046.676 .0245836
1047.258 .0245780
1047.840 .0245726
1048.422 .0245653
1049.003 .0245565
1049.585 .0245463
1050.166 .0245359
1050.748 .0245259
1051.329 .0245161
1051.910 .0245086
1052.491 .0245027
1053.072 .0244983
1053.653 .0244964
1054.234 .0244950
1054.815 .0244954
1055.396 .0244956
1055.976 .0244955
1056.557 .0244954
1057.138 .0244952
1057.718 .0244943
1058.298 .0244931
1058.879 .0244929
1059.459 .0244936
1060.039 .0244947
1060.620 .0244959
1061.200 .0244979
1061.780 .0244991
1062.360 .0244990
1062.940 .0244970
1063.520 .0244913
1064.101 .0244832
1064.681 .0244703
1065.261 .0244551
1065.841 .0244369
1066.421 .0244167
1067.001 .0243957
1067.581 .0243748
1068.161 .0243544
1068.741 .0243337
1069.321 .0243136
1069.901 .0242952
1070.482 .0242776
1071.062 .0242621
1071.642 .0242483
1072.222 .0242379
1072.803 .0242305
1073.383 .0242275
1073.963 .0242266
1074.544 .0242299
1075.124 .0242337
1075.705 .0242377
1076.286 .0242393
1076.866 .0242392
1077.447 .0242392
1078.028 .0242393
1078.609 .0242426
1079.190 .0242472
1079.771 .0242539
1080.352 .0242631
1080.934 .0242706
1081.515 .0242758
1082.097 .0242766
1082.679 .0242742
1083.260 .0242680
1083.842 .0242590
1084.424 .0242487
1085.007 .0242392
1085.589 .0242320
1086.172 .0242278
1086.754 .0242262
1087.337 .0242257
1087.920 .0242262
1088.503 .0242274
1089.087 .0242289
1089.670 .0242304
1090.254 .0242295
1090.838 .0242279
1091.422 .0242244
1092.006 .0242197
1092.590 .0242105
1093.175 .0241987
1093.760 .0241876
1094.345 .0241754
1094.930 .0241623
1095.516 .0241518
1096.102 .0241452
1096.688 .0241422
1097.274 .0241408
1097.860 .0241417
1098.447 .0241405
1099.034 .0241395
1099.622 .0241358
1100.209 .0241321
1100.797 .0241297
1101.385 .0241289
1101.973 .0241316
1102.562 .0241397
1103.151 .0241550
1103.740 .0241729
1104.330 .0241912
1104.920 .0242102
1105.510 .0242243
1106.101 .0242334
1106.691 .0242390
1107.283 .0242434
1107.874 .0242461
1108.466 .0242516
1109.058 .0242597
1109.651 .0242688
1110.244 .0242787
1110.837 .0242860
1111.431 .0242923
1112.025 .0242933
1112.620 .0242919
1113.215 .0242861
1113.810 .0242789
1114.406 .0242766
1115.002 .0242770
1115.599 .0242797
1116.196 .0242821
1116.793 .0242784
1117.391 .0242673
1117.989 .0242437
1118.588 .0242111
1119.187 .0241687
1119.787 .0241225
1120.387 .0240797
1120.988 .0240427
1121.589 .0240156
1122.190 .0240029
1122.793 .0240000
1123.395 .0240063
1123.998 .0240165
1124.602 .0240295
1125.206 .0240436
1125.811 .0240610
1126.416 .0240815
1127.022 .0241076
1127.628 .0241391
1128.235 .0241790
1128.843 .0242246
1129.451 .0242796
1130.059 .0243414
1130.669 .0244084
1131.278 .0244786
1131.889 .0245520
1132.500 .0246236
1133.112 .0246953
1133.724 .0247598
1134.337 .0248200
1134.950 .0248685
1135.564 .0249110
1136.179 .0249494
1136.795 .0249834
1137.411 .0250216
1138.028 .0250644
1138.645 .0251138
1139.263 .0251673
1139.882 .0252253
1140.502 .0252866
1141.122 .0253489
1141.743 .0254234
1142.365 .0254828
1142.987 .0255478
1143.611 .0255635
1144.235 .0256791
1144.859 .0259942
1145.485 .0255135
