Measurement Sequence started on: 10-20-44-796
Integration time: 35
Scans to Average: 2 
>>>>>Begin Spectral Data<<<<<
432.953 .0271086
433.882 .0312710
434.810 .0356280
435.737 .0353862
436.662 .0354611
437.586 .0364283
438.509 .0373204
439.431 .0379832
440.351 .0384338
441.269 .0388230
442.187 .0391307
443.103 .0393356
444.018 .0394742
444.932 .0395345
445.844 .0395591
446.756 .0395429
447.666 .0394995
448.575 .0393950
449.482 .0392491
450.388 .0390875
451.294 .0388963
452.198 .0386863
453.100 .0384790
454.002 .0383027
454.902 .0381443
455.801 .0380165
456.699 .0379101
457.596 .0378154
458.492 .0377294
459.387 .0376357
460.280 .0375451
461.172 .0374441
462.064 .0373431
462.954 .0372477
463.843 .0371689
464.730 .0371067
465.617 .0370550
466.503 .0370188
467.387 .0370021
468.271 .0369944
469.153 .0369925
470.035 .0369933
470.915 .0370003
471.794 .0370047
472.673 .0370006
473.550 .0369892
474.426 .0369781
475.301 .0369603
476.175 .0369448
477.048 .0369273
477.920 .0369152
478.791 .0369068
479.661 .0369015
480.530 .0368981
481.398 .0368920
482.266 .0368803
483.132 .0368604
483.997 .0368326
484.861 .0367969
485.724 .0367562
486.587 .0367225
487.448 .0366943
488.308 .0366732
489.168 .0366599
490.026 .0366541
490.884 .0366527
491.741 .0366514
492.597 .0366445
493.452 .0366276
494.306 .0366069
495.159 .0365803
496.011 .0365471
496.862 .0365140
497.713 .0364796
498.562 .0364370
499.411 .0363846
500.259 .0363197
501.106 .0362357
501.952 .0361367
502.798 .0360267
503.642 .0359031
504.486 .0357741
505.329 .0356445
506.171 .0355185
507.012 .0354013
507.852 .0352924
508.692 .0351933
509.531 .0350992
510.369 .0350149
511.206 .0349332
512.043 .0348515
512.878 .0347729
513.713 .0346983
514.547 .0346238
515.381 .0345444
516.213 .0344616
517.045 .0343729
517.876 .0342691
518.706 .0341498
519.536 .0340114
520.365 .0338572
521.193 .0336834
522.020 .0334915
522.847 .0332759
523.673 .0330467
524.498 .0328066
525.323 .0325499
526.146 .0322884
526.969 .0320240
527.792 .0317706
528.614 .0315266
529.435 .0313183
530.255 .0311443
531.075 .0310073
531.894 .0309132
532.712 .0308498
533.530 .0308025
534.347 .0307675
535.163 .0307257
535.979 .0306825
536.794 .0306291
537.608 .0305707
538.422 .0305014
539.235 .0304331
540.048 .0303620
540.860 .0302946
541.671 .0302279
542.481 .0301709
543.292 .0301048
544.101 .0300442
544.910 .0299895
545.718 .0299448
546.526 .0299171
547.333 .0299105
548.139 .0299243
548.945 .0299648
549.750 .0300176
550.555 .0300900
551.359 .0301753
552.162 .0302780
552.965 .0303815
553.768 .0304886
554.569 .0305980
555.371 .0307048
556.171 .0308031
556.972 .0308959
557.771 .0309722
558.570 .0310319
559.369 .0310797
560.167 .0311139
560.964 .0311378
561.761 .0311601
562.558 .0311755
563.354 .0311962
564.149 .0312109
564.944 .0312226
565.738 .0312299
566.532 .0312322
567.325 .0312320
568.118 .0312311
568.910 .0312331
569.702 .0312452
570.494 .0312670
571.285 .0313054
572.075 .0313575
572.865 .0314276
573.654 .0315059
574.443 .0315916
575.232 .0316813
576.020 .0317698
576.807 .0318492
577.594 .0319259
578.381 .0319948
579.167 .0320549
579.952 .0321121
580.738 .0321655
581.522 .0322182
582.307 .0322740
583.091 .0323287
583.874 .0323842
584.657 .0324376
585.440 .0324883
586.222 .0325292
587.004 .0325641
587.785 .0325930
588.566 .0326157
589.346 .0326373
590.126 .0326585
590.906 .0326783
591.685 .0327001
592.464 .0327228
593.242 .0327451
594.020 .0327647
594.797 .0327811
595.575 .0327912
596.351 .0327951
597.128 .0327919
597.904 .0327841
598.679 .0327720
599.454 .0327580
600.229 .0327430
601.004 .0327279
601.778 .0327132
602.551 .0326989
603.325 .0326857
604.097 .0326728
604.870 .0326596
605.642 .0326468
606.414 .0326316
607.185 .0326160
607.956 .0325991
608.727 .0325815
609.497 .0325636
610.267 .0325470
611.037 .0325292
611.806 .0325117
612.575 .0324950
613.344 .0324780
614.112 .0324599
614.880 .0324411
615.647 .0324197
616.414 .0323963
617.181 .0323709
617.948 .0323444
618.714 .0323167
619.480 .0322914
620.245 .0322666
621.011 .0322432
621.775 .0322214
622.540 .0322008
623.304 .0321794
624.068 .0321589
624.832 .0321368
625.595 .0321135
626.358 .0320890
627.120 .0320636
627.883 .0320371
628.645 .0320111
629.406 .0319839
630.168 .0319564
630.929 .0319283
631.689 .0318999
632.450 .0318700
633.210 .0318410
633.970 .0318119
634.729 .0317831
635.489 .0317544
636.248 .0317264
637.006 .0316981
637.765 .0316712
638.523 .0316447
639.280 .0316185
640.038 .0315938
640.795 .0315697
641.552 .0315464
642.309 .0315252
643.065 .0315046
643.821 .0314843
644.577 .0314636
645.332 .0314429
646.088 .0314212
646.843 .0313997
647.597 .0313783
648.352 .0313581
649.106 .0313390
649.860 .0313206
650.613 .0313021
651.367 .0312834
652.120 .0312635
652.872 .0312421
653.625 .0312198
654.377 .0311973
655.129 .0311749
655.881 .0311540
656.632 .0311336
657.384 .0311150
658.135 .0310974
658.885 .0310792
659.636 .0310598
660.386 .0310392
661.136 .0310165
661.885 .0309931
662.635 .0309706
663.384 .0309495
664.133 .0309299
664.881 .0309130
665.630 .0308977
666.378 .0308836
667.126 .0308702
667.874 .0308554
668.621 .0308386
669.368 .0308205
670.115 .0307994
670.862 .0307756
671.608 .0307523
672.354 .0307297
673.100 .0307080
673.846 .0306887
674.591 .0306712
675.337 .0306556
676.082 .0306419
676.826 .0306288
677.571 .0306159
678.315 .0306033
679.059 .0305904
679.803 .0305762
680.547 .0305619
681.290 .0305480
682.033 .0305331
682.776 .0305190
683.518 .0305053
684.261 .0304909
685.003 .0304762
685.745 .0304606
686.487 .0304444
687.228 .0304281
687.969 .0304113
688.710 .0303935
689.451 .0303751
690.192 .0303568
690.932 .0303382
691.672 .0303196
692.412 .0303011
693.152 .0302827
693.891 .0302644
694.630 .0302471
695.369 .0302301
696.108 .0302142
696.846 .0301996
697.585 .0301857
698.323 .0301722
699.061 .0301588
699.798 .0301448
700.536 .0301294
701.273 .0301129
702.010 .0300958
702.746 .0300777
703.483 .0300590
704.219 .0300403
704.955 .0300220
705.691 .0300040
706.427 .0299860
707.162 .0299679
707.897 .0299500
708.632 .0299319
709.367 .0299127
710.101 .0298928
710.835 .0298727
711.569 .0298526
712.303 .0298318
713.037 .0298111
713.770 .0297902
714.503 .0297684
715.236 .0297457
715.969 .0297221
716.702 .0296979
717.434 .0296736
718.166 .0296486
718.898 .0296241
719.629 .0295999
720.361 .0295762
721.092 .0295526
721.823 .0295294
722.554 .0295064
723.284 .0294833
724.014 .0294594
724.744 .0294351
725.474 .0294097
726.204 .0293850
726.933 .0293604
727.662 .0293361
728.391 .0293118
729.120 .0292876
729.849 .0292632
730.577 .0292392
731.305 .0292149
732.033 .0291906
732.760 .0291659
733.488 .0291410
734.215 .0291161
734.942 .0290915
735.669 .0290670
736.395 .0290435
737.122 .0290197
737.848 .0289962
738.573 .0289721
739.299 .0289484
740.024 .0289254
740.750 .0289035
741.474 .0288827
742.199 .0288628
742.924 .0288448
743.648 .0288286
744.372 .0288135
745.096 .0288001
745.819 .0287865
746.543 .0287726
747.266 .0287572
747.989 .0287410
748.711 .0287234
749.434 .0287059
750.156 .0286896
750.878 .0286740
751.599 .0286606
752.321 .0286491
753.042 .0286392
753.763 .0286306
754.484 .0286228
755.205 .0286145
755.925 .0286057
756.645 .0285967
757.365 .0285871
758.085 .0285784
758.804 .0285706
759.523 .0285640
760.242 .0285574
760.961 .0285517
761.679 .0285453
762.397 .0285370
763.115 .0285267
763.833 .0285135
764.551 .0284979
765.268 .0284798
765.985 .0284597
766.702 .0284381
767.418 .0284156
768.134 .0283926
768.850 .0283688
769.566 .0283444
770.282 .0283199
770.997 .0282952
771.712 .0282704
772.427 .0282469
773.142 .0282245
773.856 .0282036
774.570 .0281851
775.284 .0281688
775.998 .0281541
776.711 .0281405
777.424 .0281286
778.137 .0281174
778.849 .0281071
779.562 .0280974
780.274 .0280885
780.986 .0280801
781.697 .0280727
782.409 .0280660
783.120 .0280605
783.831 .0280568
784.541 .0280541
785.252 .0280521
785.962 .0280511
786.671 .0280500
787.381 .0280483
788.090 .0280462
788.799 .0280430
789.508 .0280376
790.217 .0280304
790.925 .0280215
791.633 .0280113
792.341 .0279998
793.048 .0279871
793.755 .0279734
794.462 .0279584
795.169 .0279426
795.875 .0279254
796.581 .0279080
797.287 .0278901
797.993 .0278711
798.698 .0278522
799.403 .0278337
800.108 .0278154
800.812 .0277979
801.517 .0277820
802.221 .0277680
802.924 .0277558
803.628 .0277447
804.331 .0277355
805.034 .0277289
805.736 .0277243
806.439 .0277213
807.141 .0277196
807.843 .0277192
808.544 .0277186
809.245 .0277176
809.946 .0277163
810.647 .0277138
811.347 .0277107
812.047 .0277071
812.747 .0277029
813.447 .0276979
814.146 .0276929
814.845 .0276874
815.543 .0276820
816.242 .0276755
816.940 .0276679
817.638 .0276589
818.335 .0276485
819.032 .0276369
819.729 .0276237
820.426 .0276097
821.122 .0275962
821.818 .0275825
822.514 .0275700
823.209 .0275593
823.905 .0275502
824.599 .0275422
825.294 .0275355
825.988 .0275286
826.682 .0275205
827.376 .0275113
828.069 .0275014
828.762 .0274895
829.455 .0274768
830.147 .0274643
830.840 .0274516
831.531 .0274402
832.223 .0274300
832.914 .0274203
833.605 .0274114
834.296 .0274031
834.986 .0273938
835.676 .0273830
836.366 .0273711
837.055 .0273579
837.744 .0273433
838.433 .0273281
839.121 .0273127
839.809 .0272971
840.497 .0272825
841.185 .0272682
841.872 .0272532
842.559 .0272378
843.245 .0272217
843.932 .0272040
844.617 .0271845
845.303 .0271637
845.988 .0271417
846.673 .0271194
847.358 .0270977
848.042 .0270770
848.726 .0270578
849.410 .0270401
850.093 .0270244
850.776 .0270100
851.459 .0269967
852.141 .0269836
852.823 .0269707
853.505 .0269584
854.186 .0269466
854.867 .0269350
855.548 .0269243
856.228 .0269150
856.908 .0269070
857.588 .0268991
858.267 .0268918
858.946 .0268847
859.625 .0268778
860.303 .0268710
860.981 .0268638
861.659 .0268556
862.336 .0268465
863.013 .0268363
863.690 .0268246
864.366 .0268112
865.042 .0267964
865.718 .0267802
866.393 .0267634
867.068 .0267464
867.743 .0267288
868.417 .0267118
869.091 .0266957
869.765 .0266803
870.438 .0266650
871.111 .0266504
871.783 .0266352
872.456 .0266204
873.127 .0266054
873.799 .0265903
874.470 .0265756
875.141 .0265623
875.811 .0265505
876.481 .0265401
877.151 .0265313
877.820 .0265234
878.489 .0265159
879.158 .0265094
879.826 .0265022
880.494 .0264943
881.162 .0264855
881.829 .0264756
882.496 .0264642
883.163 .0264519
883.829 .0264387
884.495 .0264252
885.160 .0264126
885.825 .0263999
886.490 .0263879
887.154 .0263767
887.818 .0263663
888.482 .0263566
889.145 .0263469
889.808 .0263368
890.471 .0263252
891.133 .0263125
891.795 .0262987
892.456 .0262839
893.117 .0262692
893.778 .0262547
894.439 .0262417
895.099 .0262304
895.758 .0262205
896.417 .0262118
897.076 .0262047
897.735 .0261977
898.393 .0261905
899.051 .0261825
899.708 .0261730
900.365 .0261633
901.022 .0261532
901.678 .0261437
902.334 .0261352
902.990 .0261277
903.645 .0261214
904.300 .0261156
904.954 .0261100
905.608 .0261035
906.262 .0260961
906.915 .0260875
907.568 .0260771
908.221 .0260648
908.873 .0260515
909.525 .0260376
910.176 .0260241
910.828 .0260111
911.478 .0259984
912.129 .0259861
912.778 .0259738
913.428 .0259611
914.077 .0259478
914.726 .0259340
915.375 .0259196
916.023 .0259050
916.670 .0258902
917.318 .0258756
917.964 .0258614
918.611 .0258477
919.257 .0258346
919.903 .0258219
920.548 .0258100
921.193 .0257992
921.838 .0257891
922.482 .0257795
923.126 .0257702
923.770 .0257612
924.413 .0257519
925.056 .0257419
925.698 .0257316
926.340 .0257212
926.982 .0257102
927.623 .0256995
928.264 .0256887
928.904 .0256782
929.544 .0256681
930.184 .0256574
930.823 .0256465
931.462 .0256345
932.101 .0256207
932.739 .0256050
933.377 .0255875
934.014 .0255691
934.651 .0255492
935.288 .0255293
935.924 .0255101
936.560 .0254917
937.196 .0254746
937.831 .0254583
938.466 .0254424
939.100 .0254274
939.734 .0254124
940.368 .0253975
941.001 .0253827
941.634 .0253681
942.266 .0253541
942.899 .0253404
943.530 .0253269
944.162 .0253138
944.793 .0253006
945.423 .0252879
946.053 .0252746
946.683 .0252609
947.313 .0252457
947.942 .0252284
948.571 .0252096
949.199 .0251884
949.827 .0251655
950.455 .0251411
951.082 .0251163
951.709 .0250922
952.335 .0250690
952.961 .0250465
953.587 .0250250
954.212 .0250044
954.837 .0249841
955.462 .0249634
956.086 .0249430
956.710 .0249228
957.334 .0249036
957.957 .0248856
958.579 .0248688
959.202 .0248533
959.824 .0248394
960.445 .0248257
961.067 .0248128
961.688 .0247997
962.308 .0247864
962.928 .0247729
963.548 .0247601
964.168 .0247473
964.787 .0247349
965.406 .0247238
966.024 .0247137
966.642 .0247038
967.260 .0246945
967.877 .0246848
968.494 .0246748
969.110 .0246650
969.727 .0246552
970.342 .0246456
970.958 .0246376
971.573 .0246310
972.188 .0246256
972.802 .0246220
973.416 .0246204
974.030 .0246194
974.643 .0246192
975.256 .0246206
975.869 .0246218
976.481 .0246234
977.093 .0246257
977.705 .0246284
978.316 .0246320
978.927 .0246365
979.538 .0246409
980.148 .0246450
980.758 .0246485
981.367 .0246504
981.977 .0246501
982.586 .0246483
983.194 .0246440
983.802 .0246377
984.410 .0246295
985.018 .0246203
985.625 .0246102
986.232 .0246006
986.838 .0245909
987.445 .0245814
988.050 .0245713
988.656 .0245609
989.261 .0245498
989.866 .0245384
990.471 .0245271
991.075 .0245168
991.679 .0245080
992.282 .0245019
992.886 .0244981
993.489 .0244970
994.091 .0244981
994.694 .0245012
995.296 .0245048
995.897 .0245083
996.499 .0245108
997.100 .0245121
997.701 .0245124
998.301 .0245131
998.901 .0245142
999.501 .0245165
1000.101 .0245209
1000.700 .0245280
1001.299 .0245371
1001.898 .0245473
1002.496 .0245578
1003.094 .0245680
1003.692 .0245765
1004.289 .0245831
1004.887 .0245867
1005.484 .0245890
1006.080 .0245911
1006.677 .0245930
1007.273 .0245950
1007.868 .0245987
1008.464 .0246033
1009.059 .0246083
1009.654 .0246130
1010.249 .0246171
1010.843 .0246197
1011.437 .0246217
1012.031 .0246225
1012.625 .0246228
1013.218 .0246242
1013.811 .0246274
1014.404 .0246317
1014.997 .0246390
1015.589 .0246479
1016.181 .0246572
1016.773 .0246659
1017.365 .0246746
1017.956 .0246812
1018.547 .0246864
1019.138 .0246902
1019.728 .0246944
1020.319 .0246994
1020.909 .0247053
1021.499 .0247102
1022.088 .0247143
1022.678 .0247163
1023.267 .0247151
1023.856 .0247103
1024.445 .0247024
1025.033 .0246918
1025.621 .0246802
1026.209 .0246674
1026.797 .0246544
1027.385 .0246418
1027.972 .0246302
1028.560 .0246177
1029.147 .0246046
1029.734 .0245905
1030.320 .0245757
1030.907 .0245612
1031.493 .0245484
1032.079 .0245382
1032.665 .0245320
1033.250 .0245295
1033.836 .0245295
1034.421 .0245324
1035.006 .0245382
1035.591 .0245452
1036.176 .0245542
1036.761 .0245658
1037.345 .0245796
1037.929 .0245948
1038.514 .0246135
1039.097 .0246353
1039.681 .0246584
1040.265 .0246807
1040.848 .0247003
1041.432 .0247165
1042.015 .0247280
1042.598 .0247340
1043.181 .0247355
1043.764 .0247373
1044.346 .0247383
1044.929 .0247392
1045.511 .0247410
1046.094 .0247443
1046.676 .0247475
1047.258 .0247484
1047.840 .0247458
1048.422 .0247390
1049.003 .0247276
1049.585 .0247133
1050.166 .0246965
1050.748 .0246827
1051.329 .0246720
1051.910 .0246664
1052.491 .0246657
1053.072 .0246701
1053.653 .0246744
1054.234 .0246781
1054.815 .0246789
1055.396 .0246759
1055.976 .0246673
1056.557 .0246569
1057.138 .0246468
1057.718 .0246401
1058.298 .0246380
1058.879 .0246423
1059.459 .0246510
1060.039 .0246651
1060.620 .0246785
1061.200 .0246899
1061.780 .0246979
1062.360 .0247015
1062.940 .0246979
1063.520 .0246914
1064.101 .0246827
1064.681 .0246726
1065.261 .0246624
1065.841 .0246545
1066.421 .0246467
1067.001 .0246398
1067.581 .0246333
1068.161 .0246245
1068.741 .0246130
1069.321 .0246006
1069.901 .0245840
1070.482 .0245666
1071.062 .0245500
1071.642 .0245332
1072.222 .0245189
1072.803 .0245092
1073.383 .0245019
1073.963 .0244981
1074.544 .0244981
1075.124 .0244994
1075.705 .0244992
1076.286 .0244987
1076.866 .0244960
1077.447 .0244906
1078.028 .0244861
1078.609 .0244816
1079.190 .0244792
1079.771 .0244822
1080.352 .0244869
1080.934 .0244942
1081.515 .0245047
1082.097 .0245143
1082.679 .0245211
1083.260 .0245251
1083.842 .0245270
1084.424 .0245249
1085.007 .0245232
1085.589 .0245229
1086.172 .0245246
1086.754 .0245290
1087.337 .0245354
1087.920 .0245408
1088.503 .0245459
1089.087 .0245475
1089.670 .0245453
1090.254 .0245386
1090.838 .0245261
1091.422 .0245075
1092.006 .0244852
1092.590 .0244637
1093.175 .0244426
1093.760 .0244227
1094.345 .0244087
1094.930 .0243989
1095.516 .0243922
1096.102 .0243873
1096.688 .0243819
1097.274 .0243764
1097.860 .0243690
1098.447 .0243565
1099.034 .0243374
1099.622 .0243170
1100.209 .0242978
1100.797 .0242810
1101.385 .0242686
1101.973 .0242637
1102.562 .0242609
1103.151 .0242631
1103.740 .0242644
1104.330 .0242606
1104.920 .0242534
1105.510 .0242411
1106.101 .0242219
1106.691 .0241996
1107.283 .0241759
1107.874 .0241551
1108.466 .0241430
1109.058 .0241411
1109.651 .0241435
1110.244 .0241527
1110.837 .0241650
1111.431 .0241776
1112.025 .0241906
1112.620 .0242023
1113.215 .0242114
1113.810 .0242194
1114.406 .0242298
1115.002 .0242387
1115.599 .0242513
1116.196 .0242680
1116.793 .0242875
1117.391 .0243066
1117.989 .0243232
1118.588 .0243351
1119.187 .0243441
1119.787 .0243495
1120.387 .0243526
1120.988 .0243545
1121.589 .0243588
1122.190 .0243680
1122.793 .0243819
1123.395 .0243989
1123.998 .0244234
1124.602 .0244513
1125.206 .0244786
1125.811 .0245091
1126.416 .0245414
1127.022 .0245783
1127.628 .0246200
1128.235 .0246697
1128.843 .0247245
1129.451 .0247863
1130.059 .0248504
1130.669 .0249069
1131.278 .0249561
1131.889 .0249943
1132.500 .0250137
1133.112 .0250244
1133.724 .0250256
1134.337 .0250236
1134.950 .0250157
1135.564 .0250121
1136.179 .0250133
1136.795 .0250199
1137.411 .0250289
1138.028 .0250397
1138.645 .0250508
1139.263 .0250636
1139.882 .0250815
1140.502 .0251033
1141.122 .0251328
1141.743 .0251867
1142.365 .0252114
1142.987 .0253745
1143.611 .0253145
1144.235 .0253914
1144.859 .0258138
1145.485 .0246820
