Measurement Sequence started on: 10-20-44-796
Integration time: 35
Scans to Average: 2 
>>>>>Begin Spectral Data<<<<<
432.953 .0251072
433.882 .0387936
434.810 .0384335
435.737 .0367602
436.662 .0352197
437.586 .0354006
438.509 .0354550
439.431 .0351110
440.351 .0348567
441.269 .0347167
442.187 .0346536
443.103 .0346059
444.018 .0345997
444.932 .0346175
445.844 .0346380
446.756 .0346693
447.666 .0347085
448.575 .0347426
449.482 .0347705
450.388 .0348010
451.294 .0348192
452.198 .0348376
453.100 .0348556
454.002 .0348688
454.902 .0348786
455.801 .0348883
456.699 .0348961
457.596 .0349049
458.492 .0349098
459.387 .0349007
460.280 .0348800
461.172 .0348424
462.064 .0347833
462.954 .0347093
463.843 .0346250
464.730 .0345396
465.617 .0344602
466.503 .0343851
467.387 .0343183
468.271 .0342528
469.153 .0341896
470.035 .0341230
470.915 .0340534
471.794 .0339778
472.673 .0338992
473.550 .0338265
474.426 .0337682
475.301 .0337268
476.175 .0337078
477.048 .0337056
477.920 .0337181
478.791 .0337360
479.661 .0337545
480.530 .0337674
481.398 .0337733
482.266 .0337744
483.132 .0337749
483.997 .0337754
484.861 .0337811
485.724 .0337933
486.587 .0338131
487.448 .0338334
488.308 .0338508
489.168 .0338596
490.026 .0338580
490.884 .0338459
491.741 .0338241
492.597 .0337953
493.452 .0337654
494.306 .0337369
495.159 .0337105
496.011 .0336886
496.862 .0336687
497.713 .0336452
498.562 .0336152
499.411 .0335763
500.259 .0335271
501.106 .0334675
501.952 .0334018
502.798 .0333336
503.642 .0332671
504.486 .0332028
505.329 .0331402
506.171 .0330790
507.012 .0330142
507.852 .0329419
508.692 .0328610
509.531 .0327727
510.369 .0326784
511.206 .0325827
512.043 .0324898
512.878 .0324022
513.713 .0323217
514.547 .0322428
515.381 .0321621
516.213 .0320756
517.045 .0319732
517.876 .0318473
518.706 .0317020
519.536 .0315382
520.365 .0313611
521.193 .0311769
522.020 .0309891
522.847 .0307953
523.673 .0305997
524.498 .0304002
525.323 .0301862
526.146 .0299664
526.969 .0297409
527.792 .0295046
528.614 .0292707
529.435 .0290455
530.255 .0288335
531.075 .0286372
531.894 .0284642
532.712 .0283100
533.530 .0281761
534.347 .0280653
535.163 .0279672
535.979 .0278921
536.794 .0278460
537.608 .0278206
538.422 .0278199
539.235 .0278466
540.048 .0278923
540.860 .0279473
541.671 .0280064
542.481 .0280619
543.292 .0281113
544.101 .0281563
544.910 .0281973
545.718 .0282345
546.526 .0282770
547.333 .0283228
548.139 .0283743
548.945 .0284338
549.750 .0284928
550.555 .0285441
551.359 .0285880
552.162 .0286185
552.965 .0286342
553.768 .0286342
554.569 .0286290
555.371 .0286162
556.171 .0286019
556.972 .0285880
557.771 .0285793
558.570 .0285789
559.369 .0285904
560.167 .0286084
560.964 .0286353
561.761 .0286672
562.558 .0287065
563.354 .0287485
564.149 .0287931
564.944 .0288394
565.738 .0288901
566.532 .0289434
567.325 .0290014
568.118 .0290637
568.910 .0291361
569.702 .0292163
570.494 .0293078
571.285 .0294047
572.075 .0295071
572.865 .0296101
573.654 .0297094
574.443 .0298015
575.232 .0298840
576.020 .0299558
576.807 .0300194
577.594 .0300766
578.381 .0301301
579.167 .0301799
579.952 .0302321
580.738 .0302866
581.522 .0303429
582.307 .0303986
583.091 .0304527
583.874 .0305034
584.657 .0305477
585.440 .0305844
586.222 .0306155
587.004 .0306429
587.785 .0306667
588.566 .0306885
589.346 .0307101
590.126 .0307310
590.906 .0307511
591.685 .0307703
592.464 .0307877
593.242 .0308025
594.020 .0308128
594.797 .0308186
595.575 .0308204
596.351 .0308189
597.128 .0308130
597.904 .0308044
598.679 .0307945
599.454 .0307823
600.229 .0307683
601.004 .0307541
601.778 .0307386
602.551 .0307217
603.325 .0307036
604.097 .0306838
604.870 .0306622
605.642 .0306398
606.414 .0306169
607.185 .0305940
607.956 .0305720
608.727 .0305509
609.497 .0305304
610.267 .0305115
611.037 .0304937
611.806 .0304757
612.575 .0304585
613.344 .0304413
614.112 .0304225
614.880 .0304034
615.647 .0303839
616.414 .0303642
617.181 .0303449
617.948 .0303253
618.714 .0303057
619.480 .0302856
620.245 .0302650
621.011 .0302432
621.775 .0302209
622.540 .0301985
623.304 .0301754
624.068 .0301529
624.832 .0301314
625.595 .0301102
626.358 .0300901
627.120 .0300708
627.883 .0300512
628.645 .0300316
629.406 .0300112
630.168 .0299897
630.929 .0299681
631.689 .0299469
632.450 .0299263
633.210 .0299068
633.970 .0298888
634.729 .0298716
635.489 .0298545
636.248 .0298369
637.006 .0298177
637.765 .0297974
638.523 .0297758
639.280 .0297535
640.038 .0297315
640.795 .0297113
641.552 .0296934
642.309 .0296783
643.065 .0296657
643.821 .0296548
644.577 .0296447
645.332 .0296336
646.088 .0296217
646.843 .0296088
647.597 .0295945
648.352 .0295789
649.106 .0295631
649.860 .0295472
650.613 .0295309
651.367 .0295145
652.120 .0294977
652.872 .0294803
653.625 .0294624
654.377 .0294429
655.129 .0294224
655.881 .0294016
656.632 .0293809
657.384 .0293596
658.135 .0293395
658.885 .0293200
659.636 .0293001
660.386 .0292803
661.136 .0292606
661.885 .0292413
662.635 .0292231
663.384 .0292060
664.133 .0291906
664.881 .0291771
665.630 .0291657
666.378 .0291553
667.126 .0291461
667.874 .0291372
668.621 .0291276
669.368 .0291167
670.115 .0291050
670.862 .0290920
671.608 .0290788
672.354 .0290660
673.100 .0290542
673.846 .0290438
674.591 .0290344
675.337 .0290258
676.082 .0290178
676.826 .0290092
677.571 .0289994
678.315 .0289884
679.059 .0289761
679.803 .0289625
680.547 .0289480
681.290 .0289338
682.033 .0289192
682.776 .0289045
683.518 .0288897
684.261 .0288741
685.003 .0288575
685.745 .0288396
686.487 .0288201
687.228 .0287996
687.969 .0287781
688.710 .0287561
689.451 .0287335
690.192 .0287111
690.932 .0286880
691.672 .0286645
692.412 .0286409
693.152 .0286172
693.891 .0285930
694.630 .0285693
695.369 .0285461
696.108 .0285234
696.846 .0285012
697.585 .0284797
698.323 .0284587
699.061 .0284384
699.798 .0284181
700.536 .0283979
701.273 .0283780
702.010 .0283588
702.746 .0283395
703.483 .0283208
704.219 .0283025
704.955 .0282844
705.691 .0282662
706.427 .0282483
707.162 .0282300
707.897 .0282121
708.632 .0281945
709.367 .0281775
710.101 .0281607
710.835 .0281445
711.569 .0281281
712.303 .0281114
713.037 .0280945
713.770 .0280772
714.503 .0280599
715.236 .0280430
715.969 .0280264
716.702 .0280103
717.434 .0279947
718.166 .0279792
718.898 .0279630
719.629 .0279461
720.361 .0279276
721.092 .0279072
721.823 .0278851
722.554 .0278615
723.284 .0278367
724.014 .0278114
724.744 .0277861
725.474 .0277602
726.204 .0277348
726.933 .0277094
727.662 .0276840
728.391 .0276588
729.120 .0276344
729.849 .0276112
730.577 .0275897
731.305 .0275702
732.033 .0275528
732.760 .0275378
733.488 .0275251
734.215 .0275135
734.942 .0275028
735.669 .0274924
736.395 .0274822
737.122 .0274712
737.848 .0274597
738.573 .0274475
739.299 .0274347
740.024 .0274210
740.750 .0274069
741.474 .0273919
742.199 .0273758
742.924 .0273590
743.648 .0273416
744.372 .0273237
745.096 .0273058
745.819 .0272879
746.543 .0272707
747.266 .0272544
747.989 .0272394
748.711 .0272256
749.434 .0272139
750.156 .0272043
750.878 .0271962
751.599 .0271903
752.321 .0271863
753.042 .0271834
753.763 .0271818
754.484 .0271809
755.205 .0271798
755.925 .0271783
756.645 .0271757
757.365 .0271716
758.085 .0271662
758.804 .0271595
759.523 .0271510
760.242 .0271412
760.961 .0271304
761.679 .0271184
762.397 .0271049
763.115 .0270905
763.833 .0270737
764.551 .0270550
765.268 .0270347
765.985 .0270124
766.702 .0269887
767.418 .0269645
768.134 .0269402
768.850 .0269162
769.566 .0268930
770.282 .0268711
770.997 .0268501
771.712 .0268310
772.427 .0268130
773.142 .0267957
773.856 .0267795
774.570 .0267644
775.284 .0267496
775.998 .0267357
776.711 .0267224
777.424 .0267095
778.137 .0266972
778.849 .0266856
779.562 .0266741
780.274 .0266633
780.986 .0266533
781.697 .0266438
782.409 .0266347
783.120 .0266264
783.831 .0266181
784.541 .0266103
785.252 .0266023
785.962 .0265939
786.671 .0265852
787.381 .0265761
788.090 .0265666
788.799 .0265566
789.508 .0265459
790.217 .0265349
790.925 .0265233
791.633 .0265113
792.341 .0264987
793.048 .0264855
793.755 .0264718
794.462 .0264575
795.169 .0264430
795.875 .0264282
796.581 .0264130
797.287 .0263982
797.993 .0263830
798.698 .0263681
799.403 .0263532
800.108 .0263390
800.812 .0263256
801.517 .0263130
802.221 .0263012
802.924 .0262903
803.628 .0262801
804.331 .0262708
805.034 .0262622
805.736 .0262541
806.439 .0262458
807.141 .0262375
807.843 .0262291
808.544 .0262207
809.245 .0262115
809.946 .0262020
810.647 .0261922
811.347 .0261823
812.047 .0261716
812.747 .0261609
813.447 .0261501
814.146 .0261395
814.845 .0261289
815.543 .0261183
816.242 .0261078
816.940 .0260977
817.638 .0260880
818.335 .0260793
819.032 .0260710
819.729 .0260634
820.426 .0260565
821.122 .0260504
821.818 .0260447
822.514 .0260390
823.209 .0260329
823.905 .0260266
824.599 .0260191
825.294 .0260107
825.988 .0260006
826.682 .0259892
827.376 .0259763
828.069 .0259616
828.762 .0259454
829.455 .0259279
830.147 .0259090
830.840 .0258889
831.531 .0258680
832.223 .0258469
832.914 .0258253
833.605 .0258042
834.296 .0257836
834.986 .0257641
835.676 .0257460
836.366 .0257296
837.055 .0257146
837.744 .0257017
838.433 .0256905
839.121 .0256807
839.809 .0256721
840.497 .0256647
841.185 .0256579
841.872 .0256515
842.559 .0256455
843.245 .0256395
843.932 .0256337
844.617 .0256281
845.303 .0256225
845.988 .0256173
846.673 .0256122
847.358 .0256071
848.042 .0256018
848.726 .0255961
849.410 .0255897
850.093 .0255822
850.776 .0255741
851.459 .0255654
852.141 .0255557
852.823 .0255454
853.505 .0255348
854.186 .0255240
854.867 .0255134
855.548 .0255023
856.228 .0254911
856.908 .0254798
857.588 .0254679
858.267 .0254555
858.946 .0254427
859.625 .0254303
860.303 .0254182
860.981 .0254066
861.659 .0253962
862.336 .0253864
863.013 .0253777
863.690 .0253697
864.366 .0253619
865.042 .0253543
865.718 .0253467
866.393 .0253389
867.068 .0253314
867.743 .0253243
868.417 .0253174
869.091 .0253111
869.765 .0253050
870.438 .0252987
871.111 .0252922
871.783 .0252853
872.456 .0252774
873.127 .0252684
873.799 .0252585
874.470 .0252474
875.141 .0252357
875.811 .0252236
876.481 .0252113
877.151 .0251997
877.820 .0251886
878.489 .0251778
879.158 .0251674
879.826 .0251576
880.494 .0251478
881.162 .0251381
881.829 .0251283
882.496 .0251181
883.163 .0251077
883.829 .0250976
884.495 .0250875
885.160 .0250780
885.825 .0250694
886.490 .0250619
887.154 .0250556
887.818 .0250502
888.482 .0250452
889.145 .0250407
889.808 .0250368
890.471 .0250330
891.133 .0250298
891.795 .0250273
892.456 .0250255
893.117 .0250247
893.778 .0250249
894.439 .0250253
895.099 .0250255
895.758 .0250253
896.417 .0250244
897.076 .0250224
897.735 .0250196
898.393 .0250163
899.051 .0250129
899.708 .0250099
900.365 .0250071
901.022 .0250044
901.678 .0250018
902.334 .0249989
902.990 .0249953
903.645 .0249908
904.300 .0249854
904.954 .0249789
905.608 .0249721
906.262 .0249654
906.915 .0249594
907.568 .0249537
908.221 .0249487
908.873 .0249447
909.525 .0249410
910.176 .0249368
910.828 .0249318
911.478 .0249259
912.129 .0249185
912.778 .0249095
913.428 .0248992
914.077 .0248879
914.726 .0248761
915.375 .0248641
916.023 .0248526
916.670 .0248416
917.318 .0248315
917.964 .0248214
918.611 .0248116
919.257 .0248016
919.903 .0247907
920.548 .0247790
921.193 .0247670
921.838 .0247551
922.482 .0247435
923.126 .0247322
923.770 .0247225
924.413 .0247131
925.056 .0247048
925.698 .0246965
926.340 .0246883
926.982 .0246799
927.623 .0246715
928.264 .0246632
928.904 .0246553
929.544 .0246478
930.184 .0246412
930.823 .0246350
931.462 .0246290
932.101 .0246229
932.739 .0246162
933.377 .0246085
934.014 .0245998
934.651 .0245899
935.288 .0245790
935.924 .0245673
936.560 .0245555
937.196 .0245433
937.831 .0245305
938.466 .0245173
939.100 .0245029
939.734 .0244877
940.368 .0244714
941.001 .0244540
941.634 .0244361
942.266 .0244182
942.899 .0243999
943.530 .0243815
944.162 .0243628
944.793 .0243441
945.423 .0243245
946.053 .0243039
946.683 .0242823
947.313 .0242601
947.942 .0242371
948.571 .0242138
949.199 .0241903
949.827 .0241668
950.455 .0241437
951.082 .0241213
951.709 .0240992
952.335 .0240778
952.961 .0240574
953.587 .0240390
954.212 .0240221
954.837 .0240073
955.462 .0239941
956.086 .0239827
956.710 .0239728
957.334 .0239638
957.957 .0239556
958.579 .0239481
959.202 .0239415
959.824 .0239349
960.445 .0239284
961.067 .0239223
961.688 .0239160
962.308 .0239097
962.928 .0239035
963.548 .0238963
964.168 .0238875
964.787 .0238773
965.406 .0238664
966.024 .0238543
966.642 .0238416
967.260 .0238284
967.877 .0238151
968.494 .0238013
969.110 .0237871
969.727 .0237719
970.342 .0237568
970.958 .0237417
971.573 .0237263
972.188 .0237111
972.802 .0236966
973.416 .0236830
974.030 .0236698
974.643 .0236571
975.256 .0236450
975.869 .0236322
976.481 .0236196
977.093 .0236069
977.705 .0235947
978.316 .0235833
978.927 .0235728
979.538 .0235630
980.148 .0235537
980.758 .0235449
981.367 .0235360
981.977 .0235272
982.586 .0235189
983.194 .0235109
983.802 .0235036
984.410 .0234972
985.018 .0234923
985.625 .0234882
986.232 .0234850
986.838 .0234821
987.445 .0234792
988.050 .0234766
988.656 .0234738
989.261 .0234712
989.866 .0234687
990.471 .0234668
991.075 .0234650
991.679 .0234632
992.282 .0234613
992.886 .0234589
993.489 .0234555
994.091 .0234507
994.694 .0234447
995.296 .0234376
995.897 .0234299
996.499 .0234217
997.100 .0234132
997.701 .0234046
998.301 .0233955
998.901 .0233868
999.501 .0233785
1000.101 .0233711
1000.700 .0233651
1001.299 .0233604
1001.898 .0233576
1002.496 .0233561
1003.094 .0233558
1003.692 .0233562
1004.289 .0233569
1004.887 .0233571
1005.484 .0233561
1006.080 .0233541
1006.677 .0233515
1007.273 .0233481
1007.868 .0233446
1008.464 .0233412
1009.059 .0233383
1009.654 .0233357
1010.249 .0233332
1010.843 .0233307
1011.437 .0233280
1012.031 .0233241
1012.625 .0233196
1013.218 .0233133
1013.811 .0233069
1014.404 .0233005
1014.997 .0232947
1015.589 .0232903
1016.181 .0232871
1016.773 .0232859
1017.365 .0232867
1017.956 .0232892
1018.547 .0232935
1019.138 .0232978
1019.728 .0233032
1020.319 .0233084
1020.909 .0233135
1021.499 .0233181
1022.088 .0233228
1022.678 .0233272
1023.267 .0233315
1023.856 .0233345
1024.445 .0233365
1025.033 .0233377
1025.621 .0233379
1026.209 .0233366
1026.797 .0233332
1027.385 .0233287
1027.972 .0233238
1028.560 .0233178
1029.147 .0233122
1029.734 .0233067
1030.320 .0233022
1030.907 .0232983
1031.493 .0232944
1032.079 .0232909
1032.665 .0232875
1033.250 .0232842
1033.836 .0232807
1034.421 .0232767
1035.006 .0232729
1035.591 .0232692
1036.176 .0232660
1036.761 .0232637
1037.345 .0232616
1037.929 .0232589
1038.514 .0232554
1039.097 .0232507
1039.681 .0232440
1040.265 .0232357
1040.848 .0232267
1041.432 .0232173
1042.015 .0232068
1042.598 .0231968
1043.181 .0231873
1043.764 .0231784
1044.346 .0231710
1044.929 .0231642
1045.511 .0231583
1046.094 .0231538
1046.676 .0231498
1047.258 .0231466
1047.840 .0231450
1048.422 .0231449
1049.003 .0231450
1049.585 .0231461
1050.166 .0231474
1050.748 .0231475
1051.329 .0231474
1051.910 .0231471
1052.491 .0231455
1053.072 .0231436
1053.653 .0231418
1054.234 .0231401
1054.815 .0231393
1055.396 .0231395
1055.976 .0231401
1056.557 .0231422
1057.138 .0231453
1057.718 .0231486
1058.298 .0231520
1058.879 .0231569
1059.459 .0231608
1060.039 .0231642
1060.620 .0231662
1061.200 .0231669
1061.780 .0231658
1062.360 .0231639
1062.940 .0231631
1063.520 .0231632
1064.101 .0231645
1064.681 .0231666
1065.261 .0231692
1065.841 .0231713
1066.421 .0231705
1067.001 .0231654
1067.581 .0231552
1068.161 .0231400
1068.741 .0231208
1069.321 .0230990
1069.901 .0230764
1070.482 .0230556
1071.062 .0230369
1071.642 .0230201
1072.222 .0230055
1072.803 .0229907
1073.383 .0229761
1073.963 .0229601
1074.544 .0229423
1075.124 .0229236
1075.705 .0229058
1076.286 .0228920
1076.866 .0228823
1077.447 .0228786
1078.028 .0228810
1078.609 .0228874
1079.190 .0228973
1079.771 .0229080
1080.352 .0229190
1080.934 .0229290
1081.515 .0229387
1082.097 .0229494
1082.679 .0229612
1083.260 .0229748
1083.842 .0229901
1084.424 .0230075
1085.007 .0230264
1085.589 .0230429
1086.172 .0230568
1086.754 .0230685
1087.337 .0230774
1087.920 .0230833
1088.503 .0230873
1089.087 .0230918
1089.670 .0230974
1090.254 .0231026
1090.838 .0231078
1091.422 .0231115
1092.006 .0231138
1092.590 .0231119
1093.175 .0231057
1093.760 .0230961
1094.345 .0230824
1094.930 .0230636
1095.516 .0230440
1096.102 .0230238
1096.688 .0230033
1097.274 .0229832
1097.860 .0229653
1098.447 .0229478
1099.034 .0229303
1099.622 .0229119
1100.209 .0228942
1100.797 .0228781
1101.385 .0228637
1101.973 .0228492
1102.562 .0228396
1103.151 .0228353
1103.740 .0228351
1104.330 .0228395
1104.920 .0228469
1105.510 .0228559
1106.101 .0228643
1106.691 .0228707
1107.283 .0228740
1107.874 .0228735
1108.466 .0228729
1109.058 .0228713
1109.651 .0228707
1110.244 .0228710
1110.837 .0228705
1111.431 .0228715
1112.025 .0228711
1112.620 .0228680
1113.215 .0228603
1113.810 .0228498
1114.406 .0228368
1115.002 .0228210
1115.599 .0228070
1116.196 .0227940
1116.793 .0227826
1117.391 .0227745
1117.989 .0227684
1118.588 .0227631
1119.187 .0227578
1119.787 .0227507
1120.387 .0227406
1120.988 .0227308
1121.589 .0227233
1122.190 .0227168
1122.793 .0227165
1123.395 .0227240
1123.998 .0227400
1124.602 .0227645
1125.206 .0228001
1125.811 .0228424
1126.416 .0228912
1127.022 .0229446
1127.628 .0229979
1128.235 .0230493
1128.843 .0231016
1129.451 .0231544
1130.059 .0232088
1130.669 .0232650
1131.278 .0233260
1131.889 .0233880
1132.500 .0234549
1133.112 .0235212
1133.724 .0235830
1134.337 .0236408
1134.950 .0236934
1135.564 .0237384
1136.179 .0237779
1136.795 .0238176
1137.411 .0238608
1138.028 .0239079
1138.645 .0239624
1139.263 .0240201
1139.882 .0240787
1140.502 .0241447
1141.122 .0242205
1141.743 .0242996
1142.365 .0243904
1142.987 .0242976
1143.611 .0245695
1144.235 .0248532
1144.859 .0248123
1145.485 .0249799
