Measurement Sequence started on: 10-20-44-796
Integration time: 35
Scans to Average: 2 
>>>>>Begin Spectral Data<<<<<
432.953 .0499308
433.882 .0394629
434.810 .0391837
435.737 .0381764
436.662 .0368000
437.586 .0373506
438.509 .0364704
439.431 .0359885
440.351 .0355522
441.269 .0351824
442.187 .0348895
443.103 .0346528
444.018 .0344880
444.932 .0343946
445.844 .0343766
446.756 .0344145
447.666 .0344764
448.575 .0345565
449.482 .0346437
450.388 .0347202
451.294 .0347879
452.198 .0348474
453.100 .0348976
454.002 .0349547
454.902 .0350156
455.801 .0350821
456.699 .0351532
457.596 .0352214
458.492 .0352771
459.387 .0353142
460.280 .0353336
461.172 .0353272
462.064 .0352994
462.954 .0352591
463.843 .0352022
464.730 .0351439
465.617 .0350895
466.503 .0350311
467.387 .0349790
468.271 .0349306
469.153 .0348860
470.035 .0348437
470.915 .0348049
471.794 .0347648
472.673 .0347250
473.550 .0346885
474.426 .0346524
475.301 .0346165
476.175 .0345856
477.048 .0345529
477.920 .0345180
478.791 .0344841
479.661 .0344433
480.530 .0343976
481.398 .0343501
482.266 .0342975
483.132 .0342457
483.997 .0341907
484.861 .0341369
485.724 .0340887
486.587 .0340467
487.448 .0340106
488.308 .0339775
489.168 .0339518
490.026 .0339276
490.884 .0339037
491.741 .0338824
492.597 .0338616
493.452 .0338407
494.306 .0338218
495.159 .0338006
496.011 .0337838
496.862 .0337695
497.713 .0337540
498.562 .0337389
499.411 .0337203
500.259 .0336948
501.106 .0336603
501.952 .0336158
502.798 .0335648
503.642 .0335027
504.486 .0334367
505.329 .0333650
506.171 .0332911
507.012 .0332161
507.852 .0331426
508.692 .0330692
509.531 .0329985
510.369 .0329248
511.206 .0328506
512.043 .0327740
512.878 .0326904
513.713 .0325996
514.547 .0324984
515.381 .0323890
516.213 .0322687
517.045 .0321332
517.876 .0319880
518.706 .0318274
519.536 .0316572
520.365 .0314736
521.193 .0312754
522.020 .0310689
522.847 .0308518
523.673 .0306225
524.498 .0303814
525.323 .0301319
526.146 .0298805
526.969 .0296341
527.792 .0293958
528.614 .0291709
529.435 .0289645
530.255 .0287818
531.075 .0286185
531.894 .0284752
532.712 .0283583
533.530 .0282558
534.347 .0281642
535.163 .0280914
535.979 .0280323
536.794 .0279923
537.608 .0279699
538.422 .0279671
539.235 .0279760
540.048 .0279864
540.860 .0279967
541.671 .0280014
542.481 .0280017
543.292 .0279937
544.101 .0279791
544.910 .0279661
545.718 .0279551
546.526 .0279470
547.333 .0279482
548.139 .0279636
548.945 .0279881
549.750 .0280142
550.555 .0280417
551.359 .0280747
552.162 .0281121
552.965 .0281483
553.768 .0281913
554.569 .0282381
555.371 .0282903
556.171 .0283431
556.972 .0284005
557.771 .0284619
558.570 .0285257
559.369 .0285933
560.167 .0286608
560.964 .0287297
561.761 .0287973
562.558 .0288661
563.354 .0289365
564.149 .0290023
564.944 .0290623
565.738 .0291147
566.532 .0291623
567.325 .0292027
568.118 .0292394
568.910 .0292779
569.702 .0293206
570.494 .0293730
571.285 .0294321
572.075 .0295006
572.865 .0295748
573.654 .0296536
574.443 .0297303
575.232 .0298034
576.020 .0298696
576.807 .0299302
577.594 .0299875
578.381 .0300421
579.167 .0300957
579.952 .0301505
580.738 .0302072
581.522 .0302669
582.307 .0303267
583.091 .0303887
583.874 .0304475
584.657 .0305029
585.440 .0305520
586.222 .0305954
587.004 .0306323
587.785 .0306628
588.566 .0306880
589.346 .0307095
590.126 .0307274
590.906 .0307425
591.685 .0307563
592.464 .0307672
593.242 .0307746
594.020 .0307783
594.797 .0307781
595.575 .0307746
596.351 .0307672
597.128 .0307579
597.904 .0307465
598.679 .0307348
599.454 .0307222
600.229 .0307092
601.004 .0306975
601.778 .0306851
602.551 .0306713
603.325 .0306566
604.097 .0306420
604.870 .0306266
605.642 .0306111
606.414 .0305965
607.185 .0305827
607.956 .0305699
608.727 .0305575
609.497 .0305448
610.267 .0305310
611.037 .0305154
611.806 .0304966
612.575 .0304749
613.344 .0304506
614.112 .0304241
614.880 .0303963
615.647 .0303683
616.414 .0303407
617.181 .0303131
617.948 .0302868
618.714 .0302615
619.480 .0302368
620.245 .0302124
621.011 .0301878
621.775 .0301630
622.540 .0301378
623.304 .0301127
624.068 .0300877
624.832 .0300633
625.595 .0300395
626.358 .0300167
627.120 .0299944
627.883 .0299730
628.645 .0299519
629.406 .0299309
630.168 .0299101
630.929 .0298890
631.689 .0298677
632.450 .0298465
633.210 .0298249
633.970 .0298032
634.729 .0297811
635.489 .0297592
636.248 .0297364
637.006 .0297136
637.765 .0296906
638.523 .0296677
639.280 .0296445
640.038 .0296213
640.795 .0295981
641.552 .0295756
642.309 .0295535
643.065 .0295315
643.821 .0295099
644.577 .0294890
645.332 .0294683
646.088 .0294478
646.843 .0294273
647.597 .0294073
648.352 .0293874
649.106 .0293686
649.860 .0293498
650.613 .0293320
651.367 .0293152
652.120 .0293000
652.872 .0292856
653.625 .0292730
654.377 .0292615
655.129 .0292515
655.881 .0292425
656.632 .0292338
657.384 .0292249
658.135 .0292162
658.885 .0292073
659.636 .0291985
660.386 .0291893
661.136 .0291805
661.885 .0291714
662.635 .0291633
663.384 .0291557
664.133 .0291482
664.881 .0291405
665.630 .0291323
666.378 .0291229
667.126 .0291125
667.874 .0291003
668.621 .0290867
669.368 .0290719
670.115 .0290559
670.862 .0290387
671.608 .0290216
672.354 .0290042
673.100 .0289868
673.846 .0289698
674.591 .0289531
675.337 .0289368
676.082 .0289214
676.826 .0289069
677.571 .0288936
678.315 .0288816
679.059 .0288702
679.803 .0288587
680.547 .0288474
681.290 .0288359
682.033 .0288227
682.776 .0288082
683.518 .0287928
684.261 .0287760
685.003 .0287585
685.745 .0287405
686.487 .0287219
687.228 .0287035
687.969 .0286843
688.710 .0286638
689.451 .0286420
690.192 .0286189
690.932 .0285944
691.672 .0285689
692.412 .0285437
693.152 .0285186
693.891 .0284943
694.630 .0284720
695.369 .0284521
696.108 .0284336
696.846 .0284162
697.585 .0283990
698.323 .0283816
699.061 .0283635
699.798 .0283443
700.536 .0283241
701.273 .0283037
702.010 .0282833
702.746 .0282625
703.483 .0282416
704.219 .0282214
704.955 .0282011
705.691 .0281805
706.427 .0281590
707.162 .0281369
707.897 .0281140
708.632 .0280908
709.367 .0280676
710.101 .0280449
710.835 .0280234
711.569 .0280025
712.303 .0279819
713.037 .0279620
713.770 .0279423
714.503 .0279218
715.236 .0279011
715.969 .0278801
716.702 .0278587
717.434 .0278373
718.166 .0278166
718.898 .0277968
719.629 .0277784
720.361 .0277611
721.092 .0277443
721.823 .0277281
722.554 .0277118
723.284 .0276941
724.014 .0276753
724.744 .0276553
725.474 .0276338
726.204 .0276111
726.933 .0275884
727.662 .0275659
728.391 .0275438
729.120 .0275228
729.849 .0275026
730.577 .0274832
731.305 .0274639
732.033 .0274445
732.760 .0274246
733.488 .0274045
734.215 .0273838
734.942 .0273632
735.669 .0273432
736.395 .0273242
737.122 .0273063
737.848 .0272895
738.573 .0272740
739.299 .0272595
740.024 .0272453
740.750 .0272311
741.474 .0272165
742.199 .0272014
742.924 .0271857
743.648 .0271695
744.372 .0271530
745.096 .0271367
745.819 .0271209
746.543 .0271058
747.266 .0270918
747.989 .0270793
748.711 .0270684
749.434 .0270590
750.156 .0270515
750.878 .0270455
751.599 .0270405
752.321 .0270365
753.042 .0270335
753.763 .0270315
754.484 .0270299
755.205 .0270285
755.925 .0270277
756.645 .0270265
757.365 .0270245
758.085 .0270212
758.804 .0270162
759.523 .0270095
760.242 .0270009
760.961 .0269906
761.679 .0269791
762.397 .0269668
763.115 .0269542
763.833 .0269413
764.551 .0269281
765.268 .0269142
765.985 .0268989
766.702 .0268828
767.418 .0268653
768.134 .0268469
768.850 .0268280
769.566 .0268092
770.282 .0267913
770.997 .0267744
771.712 .0267585
772.427 .0267435
773.142 .0267295
773.856 .0267159
774.570 .0267023
775.284 .0266885
775.998 .0266741
776.711 .0266597
777.424 .0266455
778.137 .0266316
778.849 .0266182
779.562 .0266054
780.274 .0265939
780.986 .0265828
781.697 .0265722
782.409 .0265621
783.120 .0265527
783.831 .0265440
784.541 .0265356
785.252 .0265273
785.962 .0265192
786.671 .0265112
787.381 .0265029
788.090 .0264942
788.799 .0264850
789.508 .0264754
790.217 .0264651
790.925 .0264544
791.633 .0264435
792.341 .0264322
793.048 .0264210
793.755 .0264099
794.462 .0263983
795.169 .0263868
795.875 .0263754
796.581 .0263642
797.287 .0263534
797.993 .0263428
798.698 .0263323
799.403 .0263216
800.108 .0263107
800.812 .0262990
801.517 .0262867
802.221 .0262739
802.924 .0262607
803.628 .0262472
804.331 .0262342
805.034 .0262215
805.736 .0262096
806.439 .0261977
807.141 .0261861
807.843 .0261745
808.544 .0261624
809.245 .0261493
809.946 .0261357
810.647 .0261216
811.347 .0261080
812.047 .0260946
812.747 .0260826
813.447 .0260717
814.146 .0260619
814.845 .0260528
815.543 .0260437
816.242 .0260339
816.940 .0260232
817.638 .0260110
818.335 .0259976
819.032 .0259823
819.729 .0259654
820.426 .0259470
821.122 .0259276
821.818 .0259068
822.514 .0258847
823.209 .0258617
823.905 .0258386
824.599 .0258148
825.294 .0257906
825.988 .0257664
826.682 .0257427
827.376 .0257195
828.069 .0256964
828.762 .0256734
829.455 .0256504
830.147 .0256277
830.840 .0256055
831.531 .0255835
832.223 .0255627
832.914 .0255429
833.605 .0255242
834.296 .0255068
834.986 .0254901
835.676 .0254742
836.366 .0254584
837.055 .0254428
837.744 .0254264
838.433 .0254087
839.121 .0253904
839.809 .0253714
840.497 .0253523
841.185 .0253331
841.872 .0253140
842.559 .0252952
843.245 .0252771
843.932 .0252592
844.617 .0252417
845.303 .0252242
845.988 .0252072
846.673 .0251900
847.358 .0251729
848.042 .0251564
848.726 .0251405
849.410 .0251254
850.093 .0251113
850.776 .0250975
851.459 .0250841
852.141 .0250707
852.823 .0250577
853.505 .0250447
854.186 .0250318
854.867 .0250190
855.548 .0250065
856.228 .0249940
856.908 .0249816
857.588 .0249685
858.267 .0249552
858.946 .0249408
859.625 .0249258
860.303 .0249101
860.981 .0248945
861.659 .0248791
862.336 .0248640
863.013 .0248493
863.690 .0248350
864.366 .0248205
865.042 .0248056
865.718 .0247902
866.393 .0247746
867.068 .0247584
867.743 .0247423
868.417 .0247267
869.091 .0247122
869.765 .0246983
870.438 .0246852
871.111 .0246728
871.783 .0246609
872.456 .0246491
873.127 .0246372
873.799 .0246255
874.470 .0246140
875.141 .0246028
875.811 .0245926
876.481 .0245830
877.151 .0245745
877.820 .0245666
878.489 .0245589
879.158 .0245509
879.826 .0245425
880.494 .0245328
881.162 .0245220
881.829 .0245104
882.496 .0244974
883.163 .0244831
883.829 .0244685
884.495 .0244539
885.160 .0244400
885.825 .0244270
886.490 .0244156
887.154 .0244057
887.818 .0243974
888.482 .0243904
889.145 .0243841
889.808 .0243788
890.471 .0243741
891.133 .0243698
891.795 .0243666
892.456 .0243648
893.117 .0243645
893.778 .0243660
894.439 .0243690
895.099 .0243727
895.758 .0243766
896.417 .0243802
897.076 .0243828
897.735 .0243845
898.393 .0243846
899.051 .0243834
899.708 .0243807
900.365 .0243773
901.022 .0243727
901.678 .0243675
902.334 .0243616
902.990 .0243550
903.645 .0243476
904.300 .0243403
904.954 .0243325
905.608 .0243251
906.262 .0243180
906.915 .0243113
907.568 .0243048
908.221 .0242988
908.873 .0242929
909.525 .0242876
910.176 .0242828
910.828 .0242787
911.478 .0242751
912.129 .0242724
912.778 .0242700
913.428 .0242685
914.077 .0242677
914.726 .0242673
915.375 .0242669
916.023 .0242669
916.670 .0242669
917.318 .0242671
917.964 .0242674
918.611 .0242676
919.257 .0242677
919.903 .0242674
920.548 .0242665
921.193 .0242651
921.838 .0242636
922.482 .0242619
923.126 .0242604
923.770 .0242595
924.413 .0242588
925.056 .0242586
925.698 .0242589
926.340 .0242591
926.982 .0242597
927.623 .0242600
928.264 .0242603
928.904 .0242600
929.544 .0242597
930.184 .0242584
930.823 .0242563
931.462 .0242539
932.101 .0242507
932.739 .0242465
933.377 .0242415
934.014 .0242353
934.651 .0242285
935.288 .0242209
935.924 .0242125
936.560 .0242033
937.196 .0241940
937.831 .0241845
938.466 .0241745
939.100 .0241643
939.734 .0241543
940.368 .0241440
941.001 .0241341
941.634 .0241243
942.266 .0241144
942.899 .0241045
943.530 .0240945
944.162 .0240841
944.793 .0240733
945.423 .0240621
946.053 .0240503
946.683 .0240375
947.313 .0240242
947.942 .0240093
948.571 .0239926
949.199 .0239742
949.827 .0239546
950.455 .0239332
951.082 .0239112
951.709 .0238888
952.335 .0238668
952.961 .0238458
953.587 .0238264
954.212 .0238084
954.837 .0237916
955.462 .0237762
956.086 .0237612
956.710 .0237468
957.334 .0237333
957.957 .0237208
958.579 .0237096
959.202 .0237000
959.824 .0236919
960.445 .0236849
961.067 .0236792
961.688 .0236746
962.308 .0236703
962.928 .0236661
963.548 .0236614
964.168 .0236558
964.787 .0236495
965.406 .0236430
966.024 .0236367
966.642 .0236303
967.260 .0236240
967.877 .0236174
968.494 .0236101
969.110 .0236017
969.727 .0235917
970.342 .0235806
970.958 .0235685
971.573 .0235558
972.188 .0235428
972.802 .0235302
973.416 .0235184
974.030 .0235068
974.643 .0234954
975.256 .0234838
975.869 .0234717
976.481 .0234587
977.093 .0234456
977.705 .0234331
978.316 .0234217
978.927 .0234112
979.538 .0234025
980.148 .0233955
980.758 .0233897
981.367 .0233844
981.977 .0233795
982.586 .0233749
983.194 .0233703
983.802 .0233650
984.410 .0233595
985.018 .0233538
985.625 .0233482
986.232 .0233418
986.838 .0233350
987.445 .0233273
988.050 .0233182
988.656 .0233073
989.261 .0232948
989.866 .0232809
990.471 .0232659
991.075 .0232501
991.679 .0232341
992.282 .0232182
992.886 .0232026
993.489 .0231879
994.091 .0231744
994.694 .0231623
995.296 .0231512
995.897 .0231406
996.499 .0231308
997.100 .0231212
997.701 .0231118
998.301 .0231032
998.901 .0230957
999.501 .0230894
1000.101 .0230839
1000.700 .0230797
1001.299 .0230762
1001.898 .0230729
1002.496 .0230692
1003.094 .0230641
1003.692 .0230574
1004.289 .0230485
1004.887 .0230382
1005.484 .0230270
1006.080 .0230156
1006.677 .0230048
1007.273 .0229946
1007.868 .0229858
1008.464 .0229776
1009.059 .0229700
1009.654 .0229627
1010.249 .0229559
1010.843 .0229494
1011.437 .0229430
1012.031 .0229368
1012.625 .0229313
1013.218 .0229264
1013.811 .0229221
1014.404 .0229191
1014.997 .0229173
1015.589 .0229162
1016.181 .0229160
1016.773 .0229163
1017.365 .0229170
1017.956 .0229173
1018.547 .0229171
1019.138 .0229163
1019.728 .0229148
1020.319 .0229120
1020.909 .0229077
1021.499 .0229024
1022.088 .0228961
1022.678 .0228881
1023.267 .0228790
1023.856 .0228687
1024.445 .0228574
1025.033 .0228443
1025.621 .0228303
1026.209 .0228157
1026.797 .0228007
1027.385 .0227855
1027.972 .0227703
1028.560 .0227555
1029.147 .0227407
1029.734 .0227263
1030.320 .0227135
1030.907 .0227020
1031.493 .0226924
1032.079 .0226841
1032.665 .0226775
1033.250 .0226724
1033.836 .0226683
1034.421 .0226649
1035.006 .0226626
1035.591 .0226606
1036.176 .0226580
1036.761 .0226547
1037.345 .0226513
1037.929 .0226474
1038.514 .0226424
1039.097 .0226374
1039.681 .0226317
1040.265 .0226250
1040.848 .0226179
1041.432 .0226100
1042.015 .0226024
1042.598 .0225948
1043.181 .0225872
1043.764 .0225793
1044.346 .0225715
1044.929 .0225639
1045.511 .0225559
1046.094 .0225484
1046.676 .0225414
1047.258 .0225344
1047.840 .0225278
1048.422 .0225223
1049.003 .0225168
1049.585 .0225122
1050.166 .0225078
1050.748 .0225026
1051.329 .0224963
1051.910 .0224892
1052.491 .0224813
1053.072 .0224728
1053.653 .0224638
1054.234 .0224542
1054.815 .0224436
1055.396 .0224331
1055.976 .0224211
1056.557 .0224082
1057.138 .0223951
1057.718 .0223823
1058.298 .0223700
1058.879 .0223597
1059.459 .0223512
1060.039 .0223453
1060.620 .0223409
1061.200 .0223383
1061.780 .0223364
1062.360 .0223346
1062.940 .0223327
1063.520 .0223306
1064.101 .0223276
1064.681 .0223235
1065.261 .0223179
1065.841 .0223122
1066.421 .0223059
1067.001 .0222998
1067.581 .0222928
1068.161 .0222853
1068.741 .0222776
1069.321 .0222699
1069.901 .0222623
1070.482 .0222555
1071.062 .0222499
1071.642 .0222456
1072.222 .0222432
1072.803 .0222425
1073.383 .0222440
1073.963 .0222472
1074.544 .0222522
1075.124 .0222578
1075.705 .0222638
1076.286 .0222697
1076.866 .0222757
1077.447 .0222822
1078.028 .0222880
1078.609 .0222935
1079.190 .0222979
1079.771 .0222996
1080.352 .0223004
1080.934 .0222995
1081.515 .0222974
1082.097 .0222939
1082.679 .0222910
1083.260 .0222881
1083.842 .0222866
1084.424 .0222854
1085.007 .0222845
1085.589 .0222840
1086.172 .0222847
1086.754 .0222838
1087.337 .0222816
1087.920 .0222802
1088.503 .0222785
1089.087 .0222769
1089.670 .0222766
1090.254 .0222757
1090.838 .0222749
1091.422 .0222724
1092.006 .0222687
1092.590 .0222624
1093.175 .0222559
1093.760 .0222477
1094.345 .0222408
1094.930 .0222357
1095.516 .0222324
1096.102 .0222311
1096.688 .0222315
1097.274 .0222328
1097.860 .0222323
1098.447 .0222302
1099.034 .0222269
1099.622 .0222222
1100.209 .0222177
1100.797 .0222116
1101.385 .0222066
1101.973 .0222018
1102.562 .0221965
1103.151 .0221888
1103.740 .0221805
1104.330 .0221711
1104.920 .0221615
1105.510 .0221518
1106.101 .0221435
1106.691 .0221381
1107.283 .0221378
1107.874 .0221412
1108.466 .0221472
1109.058 .0221561
1109.651 .0221687
1110.244 .0221812
1110.837 .0221956
1111.431 .0222105
1112.025 .0222298
1112.620 .0222507
1113.215 .0222771
1113.810 .0223054
1114.406 .0223373
1115.002 .0223719
1115.599 .0224040
1116.196 .0224299
1116.793 .0224476
1117.391 .0224565
1117.989 .0224578
1118.588 .0224550
1119.187 .0224520
1119.787 .0224483
1120.387 .0224513
1120.988 .0224603
1121.589 .0224753
1122.190 .0224909
1122.793 .0225065
1123.395 .0225174
1123.998 .0225212
1124.602 .0225192
1125.206 .0225111
1125.811 .0225062
1126.416 .0225096
1127.022 .0225239
1127.628 .0225511
1128.235 .0225904
1128.843 .0226429
1129.451 .0227009
1130.059 .0227616
1130.669 .0228195
1131.278 .0228746
1131.889 .0229241
1132.500 .0229678
1133.112 .0230109
1133.724 .0230561
1134.337 .0231076
1134.950 .0231608
1135.564 .0232164
1136.179 .0232694
1136.795 .0233187
1137.411 .0233631
1138.028 .0233976
1138.645 .0234253
1139.263 .0234462
1139.882 .0234577
1140.502 .0234753
1141.122 .0234926
1141.743 .0235150
1142.365 .0235505
1142.987 .0234386
1143.611 .0237636
1144.235 .0236832
1144.859 .0236351
1145.485 .0239417
