Measurement Sequence started on: 10-20-44-796
Integration time: 35
Scans to Average: 2 
>>>>>Begin Spectral Data<<<<<
432.953 .0519214
433.882 .0447098
434.810 .0392115
435.737 .0398580
436.662 .0401150
437.586 .0408601
438.509 .0402672
439.431 .0399874
440.351 .0398444
441.269 .0396541
442.187 .0394580
443.103 .0392581
444.018 .0391248
444.932 .0389999
445.844 .0388946
446.756 .0387973
447.666 .0386962
448.575 .0385841
449.482 .0384736
450.388 .0383789
451.294 .0383057
452.198 .0382535
453.100 .0382205
454.002 .0382127
454.902 .0382295
455.801 .0382522
456.699 .0382726
457.596 .0382841
458.492 .0382844
459.387 .0382673
460.280 .0382417
461.172 .0382031
462.064 .0381627
462.954 .0381202
463.843 .0380776
464.730 .0380269
465.617 .0379719
466.503 .0379043
467.387 .0378205
468.271 .0377162
469.153 .0375959
470.035 .0374643
470.915 .0373410
471.794 .0372236
472.673 .0371217
473.550 .0370341
474.426 .0369648
475.301 .0369045
476.175 .0368503
477.048 .0367941
477.920 .0367336
478.791 .0366685
479.661 .0366014
480.530 .0365336
481.398 .0364729
482.266 .0364241
483.132 .0363922
483.997 .0363714
484.861 .0363608
485.724 .0363579
486.587 .0363606
487.448 .0363625
488.308 .0363594
489.168 .0363497
490.026 .0363321
490.884 .0363085
491.741 .0362768
492.597 .0362391
493.452 .0361977
494.306 .0361542
495.159 .0361072
496.011 .0360597
496.862 .0360099
497.713 .0359551
498.562 .0358936
499.411 .0358227
500.259 .0357384
501.106 .0356441
501.952 .0355408
502.798 .0354319
503.642 .0353193
504.486 .0352079
505.329 .0350954
506.171 .0349876
507.012 .0348868
507.852 .0347886
508.692 .0346916
509.531 .0345927
510.369 .0344898
511.206 .0343845
512.043 .0342759
512.878 .0341663
513.713 .0340572
514.547 .0339472
515.381 .0338341
516.213 .0337174
517.045 .0336017
517.876 .0334831
518.706 .0333595
519.536 .0332383
520.365 .0331119
521.193 .0329834
522.020 .0328509
522.847 .0327157
523.673 .0325803
524.498 .0324349
525.323 .0322772
526.146 .0321120
526.969 .0319448
527.792 .0317725
528.614 .0315940
529.435 .0314245
530.255 .0312597
531.075 .0310984
531.894 .0309375
532.712 .0307838
533.530 .0306362
534.347 .0305021
535.163 .0303729
535.979 .0302591
536.794 .0301668
537.608 .0300961
538.422 .0300480
539.235 .0300212
540.048 .0300084
540.860 .0300083
541.671 .0300127
542.481 .0300220
543.292 .0300243
544.101 .0300231
544.910 .0300201
545.718 .0300200
546.526 .0300239
547.333 .0300343
548.139 .0300561
548.945 .0300941
549.750 .0301366
550.555 .0301850
551.359 .0302363
552.162 .0302927
552.965 .0303529
553.768 .0304131
554.569 .0304743
555.371 .0305404
556.171 .0306141
556.972 .0306913
557.771 .0307707
558.570 .0308508
559.369 .0309279
560.167 .0310023
560.964 .0310730
561.761 .0311370
562.558 .0311941
563.354 .0312490
564.149 .0312958
564.944 .0313380
565.738 .0313794
566.532 .0314182
567.325 .0314608
568.118 .0315035
568.910 .0315487
569.702 .0315949
570.494 .0316472
571.285 .0317027
572.075 .0317582
572.865 .0318145
573.654 .0318717
574.443 .0319279
575.232 .0319853
576.020 .0320441
576.807 .0321084
577.594 .0321781
578.381 .0322519
579.167 .0323272
579.952 .0324031
580.738 .0324756
581.522 .0325435
582.307 .0326011
583.091 .0326533
583.874 .0326971
584.657 .0327343
585.440 .0327675
586.222 .0327984
587.004 .0328274
587.785 .0328539
588.566 .0328780
589.346 .0328976
590.126 .0329111
590.906 .0329184
591.685 .0329204
592.464 .0329171
593.242 .0329099
594.020 .0328983
594.797 .0328848
595.575 .0328710
596.351 .0328557
597.128 .0328409
597.904 .0328267
598.679 .0328128
599.454 .0327993
600.229 .0327846
601.004 .0327707
601.778 .0327551
602.551 .0327385
603.325 .0327198
604.097 .0326996
604.870 .0326773
605.642 .0326523
606.414 .0326263
607.185 .0326000
607.956 .0325739
608.727 .0325482
609.497 .0325228
610.267 .0324975
611.037 .0324719
611.806 .0324455
612.575 .0324178
613.344 .0323898
614.112 .0323605
614.880 .0323306
615.647 .0323008
616.414 .0322719
617.181 .0322444
617.948 .0322189
618.714 .0321964
619.480 .0321759
620.245 .0321570
621.011 .0321393
621.775 .0321223
622.540 .0321057
623.304 .0320892
624.068 .0320729
624.832 .0320569
625.595 .0320415
626.358 .0320269
627.120 .0320128
627.883 .0319990
628.645 .0319850
629.406 .0319703
630.168 .0319539
630.929 .0319355
631.689 .0319156
632.450 .0318953
633.210 .0318748
633.970 .0318549
634.729 .0318361
635.489 .0318189
636.248 .0318036
637.006 .0317889
637.765 .0317742
638.523 .0317591
639.280 .0317430
640.038 .0317255
640.795 .0317076
641.552 .0316903
642.309 .0316739
643.065 .0316593
643.821 .0316465
644.577 .0316342
645.332 .0316219
646.088 .0316086
646.843 .0315938
647.597 .0315769
648.352 .0315582
649.106 .0315383
649.860 .0315186
650.613 .0315003
651.367 .0314836
652.120 .0314686
652.872 .0314555
653.625 .0314436
654.377 .0314318
655.129 .0314204
655.881 .0314085
656.632 .0313962
657.384 .0313839
658.135 .0313711
658.885 .0313578
659.636 .0313439
660.386 .0313299
661.136 .0313147
661.885 .0312978
662.635 .0312799
663.384 .0312601
664.133 .0312394
664.881 .0312180
665.630 .0311960
666.378 .0311738
667.126 .0311515
667.874 .0311284
668.621 .0311043
669.368 .0310793
670.115 .0310528
670.862 .0310250
671.608 .0309970
672.354 .0309689
673.100 .0309415
673.846 .0309147
674.591 .0308892
675.337 .0308643
676.082 .0308397
676.826 .0308147
677.571 .0307893
678.315 .0307632
679.059 .0307368
679.803 .0307109
680.547 .0306861
681.290 .0306624
682.033 .0306398
682.776 .0306180
683.518 .0305962
684.261 .0305741
685.003 .0305515
685.745 .0305273
686.487 .0305029
687.228 .0304775
687.969 .0304516
688.710 .0304264
689.451 .0304016
690.192 .0303771
690.932 .0303530
691.672 .0303288
692.412 .0303042
693.152 .0302787
693.891 .0302533
694.630 .0302278
695.369 .0302027
696.108 .0301788
696.846 .0301559
697.585 .0301341
698.323 .0301136
699.061 .0300937
699.798 .0300749
700.536 .0300565
701.273 .0300380
702.010 .0300192
702.746 .0299995
703.483 .0299791
704.219 .0299576
704.955 .0299349
705.691 .0299117
706.427 .0298878
707.162 .0298635
707.897 .0298402
708.632 .0298179
709.367 .0297970
710.101 .0297779
710.835 .0297603
711.569 .0297435
712.303 .0297271
713.037 .0297114
713.770 .0296958
714.503 .0296810
715.236 .0296674
715.969 .0296547
716.702 .0296442
717.434 .0296358
718.166 .0296288
718.898 .0296232
719.629 .0296186
720.361 .0296143
721.092 .0296098
721.823 .0296049
722.554 .0295993
723.284 .0295931
724.014 .0295863
724.744 .0295785
725.474 .0295693
726.204 .0295588
726.933 .0295466
727.662 .0295327
728.391 .0295173
729.120 .0295009
729.849 .0294840
730.577 .0294670
731.305 .0294499
732.033 .0294328
732.760 .0294149
733.488 .0293964
734.215 .0293767
734.942 .0293560
735.669 .0293340
736.395 .0293113
737.122 .0292885
737.848 .0292662
738.573 .0292446
739.299 .0292242
740.024 .0292051
740.750 .0291877
741.474 .0291714
742.199 .0291562
742.924 .0291420
743.648 .0291289
744.372 .0291170
745.096 .0291061
745.819 .0290958
746.543 .0290861
747.266 .0290762
747.989 .0290660
748.711 .0290556
749.434 .0290451
750.156 .0290350
750.878 .0290254
751.599 .0290170
752.321 .0290096
753.042 .0290030
753.763 .0289969
754.484 .0289902
755.205 .0289821
755.925 .0289725
756.645 .0289609
757.365 .0289474
758.085 .0289331
758.804 .0289181
759.523 .0289028
760.242 .0288877
760.961 .0288728
761.679 .0288571
762.397 .0288398
763.115 .0288204
763.833 .0287984
764.551 .0287732
765.268 .0287452
765.985 .0287149
766.702 .0286835
767.418 .0286514
768.134 .0286189
768.850 .0285869
769.566 .0285557
770.282 .0285249
770.997 .0284946
771.712 .0284644
772.427 .0284350
773.142 .0284059
773.856 .0283774
774.570 .0283501
775.284 .0283247
775.998 .0283005
776.711 .0282776
777.424 .0282556
778.137 .0282339
778.849 .0282115
779.562 .0281889
780.274 .0281656
780.986 .0281419
781.697 .0281180
782.409 .0280944
783.120 .0280716
783.831 .0280507
784.541 .0280313
785.252 .0280134
785.962 .0279970
786.671 .0279812
787.381 .0279652
788.090 .0279491
788.799 .0279333
789.508 .0279172
790.217 .0279015
790.925 .0278865
791.633 .0278721
792.341 .0278586
793.048 .0278453
793.755 .0278320
794.462 .0278181
795.169 .0278030
795.875 .0277865
796.581 .0277684
797.287 .0277495
797.993 .0277301
798.698 .0277109
799.403 .0276926
800.108 .0276753
800.812 .0276587
801.517 .0276425
802.221 .0276267
802.924 .0276109
803.628 .0275946
804.331 .0275782
805.034 .0275618
805.736 .0275454
806.439 .0275296
807.141 .0275144
807.843 .0274991
808.544 .0274840
809.245 .0274683
809.946 .0274516
810.647 .0274339
811.347 .0274153
812.047 .0273964
812.747 .0273779
813.447 .0273604
814.146 .0273439
814.845 .0273289
815.543 .0273158
816.242 .0273040
816.940 .0272935
817.638 .0272840
818.335 .0272751
819.032 .0272669
819.729 .0272593
820.426 .0272519
821.122 .0272452
821.818 .0272385
822.514 .0272321
823.209 .0272252
823.905 .0272178
824.599 .0272095
825.294 .0272005
825.988 .0271907
826.682 .0271798
827.376 .0271680
828.069 .0271552
828.762 .0271418
829.455 .0271278
830.147 .0271136
830.840 .0270996
831.531 .0270859
832.223 .0270733
832.914 .0270616
833.605 .0270513
834.296 .0270423
834.986 .0270344
835.676 .0270275
836.366 .0270214
837.055 .0270155
837.744 .0270100
838.433 .0270049
839.121 .0270003
839.809 .0269960
840.497 .0269922
841.185 .0269888
841.872 .0269857
842.559 .0269828
843.245 .0269803
843.932 .0269779
844.617 .0269756
845.303 .0269730
845.988 .0269703
846.673 .0269677
847.358 .0269656
848.042 .0269641
848.726 .0269632
849.410 .0269628
850.093 .0269626
850.776 .0269623
851.459 .0269615
852.141 .0269598
852.823 .0269567
853.505 .0269522
854.186 .0269461
854.867 .0269387
855.548 .0269305
856.228 .0269222
856.908 .0269143
857.588 .0269072
858.267 .0269006
858.946 .0268939
859.625 .0268869
860.303 .0268800
860.981 .0268726
861.659 .0268650
862.336 .0268570
863.013 .0268492
863.690 .0268419
864.366 .0268354
865.042 .0268298
865.718 .0268249
866.393 .0268203
867.068 .0268153
867.743 .0268090
868.417 .0268021
869.091 .0267940
869.765 .0267853
870.438 .0267759
871.111 .0267659
871.783 .0267552
872.456 .0267434
873.127 .0267306
873.799 .0267170
874.470 .0267026
875.141 .0266876
875.811 .0266724
876.481 .0266574
877.151 .0266433
877.820 .0266302
878.489 .0266184
879.158 .0266075
879.826 .0265968
880.494 .0265859
881.162 .0265742
881.829 .0265619
882.496 .0265486
883.163 .0265344
883.829 .0265203
884.495 .0265059
885.160 .0264924
885.825 .0264796
886.490 .0264680
887.154 .0264574
887.818 .0264474
888.482 .0264374
889.145 .0264268
889.808 .0264159
890.471 .0264044
891.133 .0263922
891.795 .0263799
892.456 .0263673
893.117 .0263549
893.778 .0263432
894.439 .0263317
895.099 .0263205
895.758 .0263095
896.417 .0262982
897.076 .0262864
897.735 .0262736
898.393 .0262598
899.051 .0262450
899.708 .0262292
900.365 .0262129
901.022 .0261959
901.678 .0261787
902.334 .0261613
902.990 .0261438
903.645 .0261261
904.300 .0261084
904.954 .0260904
905.608 .0260724
906.262 .0260542
906.915 .0260365
907.568 .0260187
908.221 .0260010
908.873 .0259838
909.525 .0259665
910.176 .0259494
910.828 .0259322
911.478 .0259144
912.129 .0258964
912.778 .0258779
913.428 .0258587
914.077 .0258385
914.726 .0258183
915.375 .0257975
916.023 .0257764
916.670 .0257553
917.318 .0257346
917.964 .0257139
918.611 .0256939
919.257 .0256744
919.903 .0256552
920.548 .0256366
921.193 .0256186
921.838 .0256013
922.482 .0255851
923.126 .0255697
923.770 .0255552
924.413 .0255415
925.056 .0255285
925.698 .0255154
926.340 .0255022
926.982 .0254891
927.623 .0254757
928.264 .0254617
928.904 .0254472
929.544 .0254324
930.184 .0254173
930.823 .0254017
931.462 .0253856
932.101 .0253692
932.739 .0253521
933.377 .0253346
934.014 .0253160
934.651 .0252969
935.288 .0252771
935.924 .0252573
936.560 .0252370
937.196 .0252166
937.831 .0251962
938.466 .0251755
939.100 .0251547
939.734 .0251339
940.368 .0251122
941.001 .0250900
941.634 .0250672
942.266 .0250438
942.899 .0250191
943.530 .0249940
944.162 .0249682
944.793 .0249420
945.423 .0249155
946.053 .0248888
946.683 .0248619
947.313 .0248355
947.942 .0248092
948.571 .0247828
949.199 .0247568
949.827 .0247314
950.455 .0247060
951.082 .0246813
951.709 .0246577
952.335 .0246351
952.961 .0246137
953.587 .0245936
954.212 .0245747
954.837 .0245568
955.462 .0245400
956.086 .0245241
956.710 .0245093
957.334 .0244958
957.957 .0244829
958.579 .0244707
959.202 .0244594
959.824 .0244483
960.445 .0244371
961.067 .0244261
961.688 .0244150
962.308 .0244038
962.928 .0243926
963.548 .0243813
964.168 .0243704
964.787 .0243598
965.406 .0243494
966.024 .0243393
966.642 .0243294
967.260 .0243198
967.877 .0243104
968.494 .0243017
969.110 .0242933
969.727 .0242855
970.342 .0242781
970.958 .0242712
971.573 .0242647
972.188 .0242590
972.802 .0242536
973.416 .0242487
974.030 .0242443
974.643 .0242401
975.256 .0242361
975.869 .0242324
976.481 .0242290
977.093 .0242265
977.705 .0242243
978.316 .0242229
978.927 .0242221
979.538 .0242230
980.148 .0242247
980.758 .0242274
981.367 .0242312
981.977 .0242357
982.586 .0242408
983.194 .0242459
983.802 .0242505
984.410 .0242544
985.018 .0242572
985.625 .0242588
986.232 .0242590
986.838 .0242586
987.445 .0242572
988.050 .0242553
988.656 .0242534
989.261 .0242511
989.866 .0242479
990.471 .0242443
991.075 .0242402
991.679 .0242350
992.282 .0242295
992.886 .0242236
993.489 .0242186
994.091 .0242151
994.694 .0242133
995.296 .0242135
995.897 .0242155
996.499 .0242193
997.100 .0242237
997.701 .0242290
998.301 .0242351
998.901 .0242413
999.501 .0242479
1000.101 .0242557
1000.700 .0242645
1001.299 .0242743
1001.898 .0242848
1002.496 .0242954
1003.094 .0243054
1003.692 .0243136
1004.289 .0243197
1004.887 .0243239
1005.484 .0243263
1006.080 .0243272
1006.677 .0243270
1007.273 .0243272
1007.868 .0243278
1008.464 .0243292
1009.059 .0243315
1009.654 .0243353
1010.249 .0243404
1010.843 .0243467
1011.437 .0243540
1012.031 .0243630
1012.625 .0243738
1013.218 .0243860
1013.811 .0244002
1014.404 .0244166
1014.997 .0244345
1015.589 .0244536
1016.181 .0244731
1016.773 .0244926
1017.365 .0245109
1017.956 .0245267
1018.547 .0245397
1019.138 .0245501
1019.728 .0245576
1020.319 .0245624
1020.909 .0245657
1021.499 .0245678
1022.088 .0245692
1022.678 .0245699
1023.267 .0245703
1023.856 .0245709
1024.445 .0245717
1025.033 .0245720
1025.621 .0245726
1026.209 .0245738
1026.797 .0245757
1027.385 .0245778
1027.972 .0245812
1028.560 .0245855
1029.147 .0245903
1029.734 .0245963
1030.320 .0246022
1030.907 .0246082
1031.493 .0246143
1032.079 .0246197
1032.665 .0246246
1033.250 .0246291
1033.836 .0246324
1034.421 .0246342
1035.006 .0246364
1035.591 .0246381
1036.176 .0246389
1036.761 .0246406
1037.345 .0246426
1037.929 .0246448
1038.514 .0246475
1039.097 .0246511
1039.681 .0246551
1040.265 .0246607
1040.848 .0246675
1041.432 .0246746
1042.015 .0246830
1042.598 .0246920
1043.181 .0247003
1043.764 .0247084
1044.346 .0247164
1044.929 .0247226
1045.511 .0247278
1046.094 .0247336
1046.676 .0247393
1047.258 .0247451
1047.840 .0247513
1048.422 .0247577
1049.003 .0247632
1049.585 .0247675
1050.166 .0247695
1050.748 .0247684
1051.329 .0247653
1051.910 .0247606
1052.491 .0247549
1053.072 .0247493
1053.653 .0247441
1054.234 .0247395
1054.815 .0247347
1055.396 .0247294
1055.976 .0247227
1056.557 .0247140
1057.138 .0247048
1057.718 .0246954
1058.298 .0246852
1058.879 .0246760
1059.459 .0246679
1060.039 .0246612
1060.620 .0246540
1061.200 .0246465
1061.780 .0246365
1062.360 .0246242
1062.940 .0246109
1063.520 .0245966
1064.101 .0245814
1064.681 .0245680
1065.261 .0245552
1065.841 .0245429
1066.421 .0245314
1067.001 .0245199
1067.581 .0245065
1068.161 .0244932
1068.741 .0244786
1069.321 .0244637
1069.901 .0244499
1070.482 .0244396
1071.062 .0244323
1071.642 .0244296
1072.222 .0244303
1072.803 .0244322
1073.383 .0244348
1073.963 .0244383
1074.544 .0244409
1075.124 .0244435
1075.705 .0244462
1076.286 .0244488
1076.866 .0244517
1077.447 .0244556
1078.028 .0244589
1078.609 .0244630
1079.190 .0244668
1079.771 .0244684
1080.352 .0244671
1080.934 .0244632
1081.515 .0244572
1082.097 .0244485
1082.679 .0244385
1083.260 .0244265
1083.842 .0244137
1084.424 .0244002
1085.007 .0243858
1085.589 .0243703
1086.172 .0243546
1086.754 .0243391
1087.337 .0243248
1087.920 .0243119
1088.503 .0243006
1089.087 .0242896
1089.670 .0242805
1090.254 .0242716
1090.838 .0242627
1091.422 .0242527
1092.006 .0242422
1092.590 .0242316
1093.175 .0242207
1093.760 .0242099
1094.345 .0242008
1094.930 .0241927
1095.516 .0241861
1096.102 .0241802
1096.688 .0241741
1097.274 .0241673
1097.860 .0241627
1098.447 .0241607
1099.034 .0241615
1099.622 .0241651
1100.209 .0241719
1100.797 .0241820
1101.385 .0241953
1101.973 .0242098
1102.562 .0242237
1103.151 .0242379
1103.740 .0242498
1104.330 .0242566
1104.920 .0242612
1105.510 .0242643
1106.101 .0242655
1106.691 .0242663
1107.283 .0242683
1107.874 .0242685
1108.466 .0242670
1109.058 .0242651
1109.651 .0242624
1110.244 .0242571
1110.837 .0242495
1111.431 .0242378
1112.025 .0242252
1112.620 .0242142
1113.215 .0242031
1113.810 .0241938
1114.406 .0241903
1115.002 .0241905
1115.599 .0241923
1116.196 .0241944
1116.793 .0241968
1117.391 .0241949
1117.989 .0241878
1118.588 .0241755
1119.187 .0241557
1119.787 .0241304
1120.387 .0241017
1120.988 .0240703
1121.589 .0240408
1122.190 .0240159
1122.793 .0239963
1123.395 .0239825
1123.998 .0239799
1124.602 .0239855
1125.206 .0239974
1125.811 .0240166
1126.416 .0240420
1127.022 .0240667
1127.628 .0240896
1128.235 .0241079
1128.843 .0241223
1129.451 .0241339
1130.059 .0241436
1130.669 .0241524
1131.278 .0241683
1131.889 .0241894
1132.500 .0242169
1133.112 .0242452
1133.724 .0242773
1134.337 .0243063
1134.950 .0243297
1135.564 .0243482
1136.179 .0243651
1136.795 .0243845
1137.411 .0244126
1138.028 .0244530
1138.645 .0245114
1139.263 .0245912
1139.882 .0246832
1140.502 .0247807
1141.122 .0248915
1141.743 .0250120
1142.365 .0251350
1142.987 .0251564
1143.611 .0251826
1144.235 .0255410
1144.859 .0258283
1145.485 .0258375
