Measurement Sequence started on: 10-20-44-796
Integration time: 35
Scans to Average: 2 
>>>>>Begin Spectral Data<<<<<
432.953 .0395929
433.882 .0363981
434.810 .0380512
435.737 .0380261
436.662 .0380705
437.586 .0380617
438.509 .0380402
439.431 .0380832
440.351 .0380498
441.269 .0379929
442.187 .0379250
443.103 .0378311
444.018 .0377448
444.932 .0376626
445.844 .0375804
446.756 .0375191
447.666 .0374825
448.575 .0374670
449.482 .0374818
450.388 .0375092
451.294 .0375514
452.198 .0375886
453.100 .0376357
454.002 .0376899
454.902 .0377552
455.801 .0378246
456.699 .0379025
457.596 .0379894
458.492 .0380785
459.387 .0381627
460.280 .0382458
461.172 .0383114
462.064 .0383599
462.954 .0383870
463.843 .0383903
464.730 .0383660
465.617 .0383265
466.503 .0382652
467.387 .0381909
468.271 .0381018
469.153 .0380068
470.035 .0379102
470.915 .0378158
471.794 .0377245
472.673 .0376336
473.550 .0375471
474.426 .0374687
475.301 .0373944
476.175 .0373273
477.048 .0372626
477.920 .0372046
478.791 .0371523
479.661 .0371076
480.530 .0370708
481.398 .0370413
482.266 .0370207
483.132 .0370092
483.997 .0369996
484.861 .0369875
485.724 .0369756
486.587 .0369626
487.448 .0369451
488.308 .0369202
489.168 .0368866
490.026 .0368451
490.884 .0367980
491.741 .0367459
492.597 .0366893
493.452 .0366311
494.306 .0365725
495.159 .0365086
496.011 .0364434
496.862 .0363750
497.713 .0363006
498.562 .0362225
499.411 .0361422
500.259 .0360593
501.106 .0359732
501.952 .0358861
502.798 .0358039
503.642 .0357264
504.486 .0356517
505.329 .0355752
506.171 .0354979
507.012 .0354183
507.852 .0353320
508.692 .0352377
509.531 .0351373
510.369 .0350319
511.206 .0349231
512.043 .0348119
512.878 .0346956
513.713 .0345781
514.547 .0344577
515.381 .0343333
516.213 .0342082
517.045 .0340779
517.876 .0339398
518.706 .0337988
519.536 .0336579
520.365 .0335165
521.193 .0333743
522.020 .0332394
522.847 .0331097
523.673 .0329862
524.498 .0328617
525.323 .0327275
526.146 .0325887
526.969 .0324466
527.792 .0322921
528.614 .0321288
529.435 .0319641
530.255 .0317992
531.075 .0316337
531.894 .0314791
532.712 .0313344
533.530 .0312038
534.347 .0310898
535.163 .0309857
535.979 .0308926
536.794 .0308119
537.608 .0307448
538.422 .0306914
539.235 .0306546
540.048 .0306247
540.860 .0305978
541.671 .0305761
542.481 .0305560
543.292 .0305335
544.101 .0305070
544.910 .0304798
545.718 .0304497
546.526 .0304146
547.333 .0303811
548.139 .0303521
548.945 .0303328
549.750 .0303136
550.555 .0302940
551.359 .0302707
552.162 .0302435
552.965 .0302164
553.768 .0301866
554.569 .0301640
555.371 .0301515
556.171 .0301467
556.972 .0301538
557.771 .0301743
558.570 .0302042
559.369 .0302434
560.167 .0302896
560.964 .0303379
561.761 .0303883
562.558 .0304471
563.354 .0305151
564.149 .0305925
564.944 .0306807
565.738 .0307784
566.532 .0308799
567.325 .0309869
568.118 .0310928
568.910 .0311963
569.702 .0313006
570.494 .0314023
571.285 .0315008
572.075 .0315993
572.865 .0316951
573.654 .0317887
574.443 .0318764
575.232 .0319617
576.020 .0320384
576.807 .0321094
577.594 .0321764
578.381 .0322393
579.167 .0323005
579.952 .0323600
580.738 .0324188
581.522 .0324754
582.307 .0325275
583.091 .0325732
583.874 .0326137
584.657 .0326517
585.440 .0326847
586.222 .0327156
587.004 .0327464
587.785 .0327806
588.566 .0328148
589.346 .0328489
590.126 .0328826
590.906 .0329124
591.685 .0329384
592.464 .0329579
593.242 .0329731
594.020 .0329841
594.797 .0329934
595.575 .0330017
596.351 .0330096
597.128 .0330181
597.904 .0330252
598.679 .0330314
599.454 .0330348
600.229 .0330338
601.004 .0330279
601.778 .0330176
602.551 .0330037
603.325 .0329864
604.097 .0329671
604.870 .0329465
605.642 .0329255
606.414 .0329037
607.185 .0328815
607.956 .0328585
608.727 .0328347
609.497 .0328102
610.267 .0327841
611.037 .0327571
611.806 .0327283
612.575 .0326991
613.344 .0326696
614.112 .0326403
614.880 .0326120
615.647 .0325844
616.414 .0325580
617.181 .0325326
617.948 .0325079
618.714 .0324835
619.480 .0324594
620.245 .0324348
621.011 .0324094
621.775 .0323838
622.540 .0323569
623.304 .0323295
624.068 .0323018
624.832 .0322746
625.595 .0322471
626.358 .0322197
627.120 .0321915
627.883 .0321612
628.645 .0321294
629.406 .0320952
630.168 .0320584
630.929 .0320199
631.689 .0319801
632.450 .0319398
633.210 .0319002
633.970 .0318626
634.729 .0318263
635.489 .0317930
636.248 .0317612
637.006 .0317306
637.765 .0317009
638.523 .0316715
639.280 .0316423
640.038 .0316134
640.795 .0315855
641.552 .0315580
642.309 .0315316
643.065 .0315076
643.821 .0314853
644.577 .0314647
645.332 .0314455
646.088 .0314274
646.843 .0314100
647.597 .0313928
648.352 .0313748
649.106 .0313568
649.860 .0313383
650.613 .0313188
651.367 .0312992
652.120 .0312799
652.872 .0312619
653.625 .0312449
654.377 .0312298
655.129 .0312162
655.881 .0312040
656.632 .0311928
657.384 .0311820
658.135 .0311719
658.885 .0311617
659.636 .0311507
660.386 .0311399
661.136 .0311293
661.885 .0311193
662.635 .0311099
663.384 .0311026
664.133 .0310959
664.881 .0310900
665.630 .0310839
666.378 .0310783
667.126 .0310729
667.874 .0310672
668.621 .0310611
669.368 .0310549
670.115 .0310487
670.862 .0310424
671.608 .0310358
672.354 .0310301
673.100 .0310241
673.846 .0310179
674.591 .0310103
675.337 .0310020
676.082 .0309925
676.826 .0309821
677.571 .0309707
678.315 .0309587
679.059 .0309459
679.803 .0309324
680.547 .0309181
681.290 .0309029
682.033 .0308867
682.776 .0308690
683.518 .0308493
684.261 .0308276
685.003 .0308043
685.745 .0307793
686.487 .0307534
687.228 .0307275
687.969 .0307019
688.710 .0306767
689.451 .0306519
690.192 .0306279
690.932 .0306043
691.672 .0305808
692.412 .0305571
693.152 .0305335
693.891 .0305101
694.630 .0304865
695.369 .0304629
696.108 .0304394
696.846 .0304162
697.585 .0303921
698.323 .0303676
699.061 .0303431
699.798 .0303182
700.536 .0302928
701.273 .0302669
702.010 .0302410
702.746 .0302150
703.483 .0301894
704.219 .0301633
704.955 .0301373
705.691 .0301118
706.427 .0300858
707.162 .0300596
707.897 .0300336
708.632 .0300080
709.367 .0299823
710.101 .0299568
710.835 .0299324
711.569 .0299078
712.303 .0298838
713.037 .0298601
713.770 .0298364
714.503 .0298124
715.236 .0297877
715.969 .0297616
716.702 .0297345
717.434 .0297065
718.166 .0296770
718.898 .0296470
719.629 .0296170
720.361 .0295876
721.092 .0295587
721.823 .0295307
722.554 .0295041
723.284 .0294780
724.014 .0294525
724.744 .0294270
725.474 .0294008
726.204 .0293744
726.933 .0293472
727.662 .0293197
728.391 .0292923
729.120 .0292654
729.849 .0292395
730.577 .0292148
731.305 .0291918
732.033 .0291698
732.760 .0291485
733.488 .0291283
734.215 .0291079
734.942 .0290872
735.669 .0290663
736.395 .0290449
737.122 .0290232
737.848 .0290021
738.573 .0289819
739.299 .0289635
740.024 .0289475
740.750 .0289341
741.474 .0289229
742.199 .0289137
742.924 .0289060
743.648 .0288986
744.372 .0288916
745.096 .0288852
745.819 .0288782
746.543 .0288716
747.266 .0288654
747.989 .0288599
748.711 .0288558
749.434 .0288528
750.156 .0288510
750.878 .0288500
751.599 .0288497
752.321 .0288495
753.042 .0288496
753.763 .0288504
754.484 .0288516
755.205 .0288531
755.925 .0288553
756.645 .0288577
757.365 .0288600
758.085 .0288621
758.804 .0288638
759.523 .0288645
760.242 .0288641
760.961 .0288621
761.679 .0288595
762.397 .0288555
763.115 .0288510
763.833 .0288453
764.551 .0288385
765.268 .0288299
765.985 .0288196
766.702 .0288073
767.418 .0287934
768.134 .0287781
768.850 .0287614
769.566 .0287439
770.282 .0287266
770.997 .0287094
771.712 .0286928
772.427 .0286771
773.142 .0286623
773.856 .0286475
774.570 .0286330
775.284 .0286183
775.998 .0286034
776.711 .0285885
777.424 .0285738
778.137 .0285590
778.849 .0285443
779.562 .0285298
780.274 .0285151
780.986 .0285006
781.697 .0284862
782.409 .0284716
783.120 .0284574
783.831 .0284438
784.541 .0284309
785.252 .0284187
785.962 .0284071
786.671 .0283955
787.381 .0283836
788.090 .0283709
788.799 .0283572
789.508 .0283416
790.217 .0283246
790.925 .0283066
791.633 .0282876
792.341 .0282681
793.048 .0282482
793.755 .0282283
794.462 .0282083
795.169 .0281880
795.875 .0281673
796.581 .0281457
797.287 .0281237
797.993 .0281011
798.698 .0280783
799.403 .0280557
800.108 .0280337
800.812 .0280124
801.517 .0279925
802.221 .0279738
802.924 .0279555
803.628 .0279383
804.331 .0279215
805.034 .0279050
805.736 .0278885
806.439 .0278718
807.141 .0278548
807.843 .0278376
808.544 .0278200
809.245 .0278013
809.946 .0277818
810.647 .0277619
811.347 .0277409
812.047 .0277192
812.747 .0276972
813.447 .0276750
814.146 .0276528
814.845 .0276311
815.543 .0276098
816.242 .0275893
816.940 .0275695
817.638 .0275495
818.335 .0275293
819.032 .0275086
819.729 .0274872
820.426 .0274650
821.122 .0274423
821.818 .0274196
822.514 .0273972
823.209 .0273755
823.905 .0273543
824.599 .0273335
825.294 .0273129
825.988 .0272916
826.682 .0272701
827.376 .0272477
828.069 .0272246
828.762 .0272010
829.455 .0271773
830.147 .0271540
830.840 .0271313
831.531 .0271097
832.223 .0270893
832.914 .0270702
833.605 .0270524
834.296 .0270349
834.986 .0270182
835.676 .0270025
836.366 .0269873
837.055 .0269726
837.744 .0269584
838.433 .0269445
839.121 .0269307
839.809 .0269170
840.497 .0269032
841.185 .0268893
841.872 .0268753
842.559 .0268614
843.245 .0268479
843.932 .0268352
844.617 .0268237
845.303 .0268127
845.988 .0268028
846.673 .0267933
847.358 .0267840
848.042 .0267746
848.726 .0267650
849.410 .0267551
850.093 .0267449
850.776 .0267353
851.459 .0267263
852.141 .0267179
852.823 .0267105
853.505 .0267040
854.186 .0266981
854.867 .0266920
855.548 .0266856
856.228 .0266785
856.908 .0266711
857.588 .0266627
858.267 .0266542
858.946 .0266453
859.625 .0266369
860.303 .0266288
860.981 .0266213
861.659 .0266142
862.336 .0266069
863.013 .0265996
863.690 .0265927
864.366 .0265854
865.042 .0265782
865.718 .0265705
866.393 .0265633
867.068 .0265562
867.743 .0265491
868.417 .0265421
869.091 .0265358
869.765 .0265298
870.438 .0265242
871.111 .0265188
871.783 .0265142
872.456 .0265104
873.127 .0265074
873.799 .0265052
874.470 .0265032
875.141 .0265018
875.811 .0265008
876.481 .0264994
877.151 .0264984
877.820 .0264972
878.489 .0264960
879.158 .0264951
879.826 .0264949
880.494 .0264953
881.162 .0264961
881.829 .0264975
882.496 .0264991
883.163 .0265005
883.829 .0265014
884.495 .0265014
885.160 .0265005
885.825 .0264992
886.490 .0264975
887.154 .0264963
887.818 .0264960
888.482 .0264968
889.145 .0264984
889.808 .0265007
890.471 .0265031
891.133 .0265050
891.795 .0265057
892.456 .0265051
893.117 .0265031
893.778 .0264999
894.439 .0264963
895.099 .0264930
895.758 .0264908
896.417 .0264898
897.076 .0264898
897.735 .0264902
898.393 .0264904
899.051 .0264901
899.708 .0264882
900.365 .0264848
901.022 .0264797
901.678 .0264730
902.334 .0264653
902.990 .0264571
903.645 .0264492
904.300 .0264417
904.954 .0264346
905.608 .0264273
906.262 .0264196
906.915 .0264113
907.568 .0264023
908.221 .0263928
908.873 .0263828
909.525 .0263723
910.176 .0263621
910.828 .0263520
911.478 .0263429
912.129 .0263345
912.778 .0263264
913.428 .0263183
914.077 .0263100
914.726 .0263010
915.375 .0262914
916.023 .0262816
916.670 .0262716
917.318 .0262614
917.964 .0262508
918.611 .0262400
919.257 .0262285
919.903 .0262167
920.548 .0262044
921.193 .0261917
921.838 .0261789
922.482 .0261662
923.126 .0261540
923.770 .0261427
924.413 .0261322
925.056 .0261225
925.698 .0261132
926.340 .0261043
926.982 .0260953
927.623 .0260861
928.264 .0260764
928.904 .0260664
929.544 .0260554
930.184 .0260434
930.823 .0260305
931.462 .0260166
932.101 .0260013
932.739 .0259849
933.377 .0259671
934.014 .0259479
934.651 .0259278
935.288 .0259072
935.924 .0258862
936.560 .0258651
937.196 .0258441
937.831 .0258231
938.466 .0258019
939.100 .0257807
939.734 .0257588
940.368 .0257364
941.001 .0257135
941.634 .0256898
942.266 .0256658
942.899 .0256420
943.530 .0256184
944.162 .0255948
944.793 .0255709
945.423 .0255465
946.053 .0255208
946.683 .0254942
947.313 .0254661
947.942 .0254369
948.571 .0254069
949.199 .0253759
949.827 .0253444
950.455 .0253131
951.082 .0252827
951.709 .0252532
952.335 .0252252
952.961 .0251979
953.587 .0251718
954.212 .0251464
954.837 .0251219
955.462 .0250979
956.086 .0250749
956.710 .0250526
957.334 .0250307
957.957 .0250093
958.579 .0249884
959.202 .0249677
959.824 .0249478
960.445 .0249278
961.067 .0249081
961.688 .0248885
962.308 .0248691
962.928 .0248496
963.548 .0248304
964.168 .0248112
964.787 .0247916
965.406 .0247716
966.024 .0247513
966.642 .0247308
967.260 .0247105
967.877 .0246908
968.494 .0246719
969.110 .0246540
969.727 .0246368
970.342 .0246198
970.958 .0246033
971.573 .0245871
972.188 .0245708
972.802 .0245546
973.416 .0245382
974.030 .0245222
974.643 .0245067
975.256 .0244924
975.869 .0244793
976.481 .0244674
977.093 .0244565
977.705 .0244464
978.316 .0244369
978.927 .0244275
979.538 .0244175
980.148 .0244070
980.758 .0243953
981.367 .0243832
981.977 .0243705
982.586 .0243583
983.194 .0243464
983.802 .0243353
984.410 .0243242
985.018 .0243133
985.625 .0243020
986.232 .0242903
986.838 .0242776
987.445 .0242643
988.050 .0242498
988.656 .0242345
989.261 .0242190
989.866 .0242033
990.471 .0241880
991.075 .0241741
991.679 .0241607
992.282 .0241486
992.886 .0241377
993.489 .0241286
994.091 .0241210
994.694 .0241145
995.296 .0241088
995.897 .0241031
996.499 .0240974
997.100 .0240913
997.701 .0240851
998.301 .0240796
998.901 .0240750
999.501 .0240715
1000.101 .0240697
1000.700 .0240691
1001.299 .0240694
1001.898 .0240700
1002.496 .0240702
1003.094 .0240693
1003.692 .0240665
1004.289 .0240618
1004.887 .0240563
1005.484 .0240500
1006.080 .0240438
1006.677 .0240382
1007.273 .0240339
1007.868 .0240307
1008.464 .0240285
1009.059 .0240268
1009.654 .0240255
1010.249 .0240246
1010.843 .0240241
1011.437 .0240239
1012.031 .0240248
1012.625 .0240263
1013.218 .0240284
1013.811 .0240317
1014.404 .0240360
1014.997 .0240411
1015.589 .0240470
1016.181 .0240536
1016.773 .0240610
1017.365 .0240686
1017.956 .0240764
1018.547 .0240840
1019.138 .0240910
1019.728 .0240970
1020.319 .0241014
1020.909 .0241050
1021.499 .0241067
1022.088 .0241074
1022.678 .0241076
1023.267 .0241077
1023.856 .0241076
1024.445 .0241074
1025.033 .0241070
1025.621 .0241063
1026.209 .0241053
1026.797 .0241026
1027.385 .0240989
1027.972 .0240953
1028.560 .0240906
1029.147 .0240862
1029.734 .0240830
1030.320 .0240823
1030.907 .0240830
1031.493 .0240874
1032.079 .0240946
1032.665 .0241036
1033.250 .0241148
1033.836 .0241258
1034.421 .0241362
1035.006 .0241465
1035.591 .0241561
1036.176 .0241639
1036.761 .0241721
1037.345 .0241811
1037.929 .0241896
1038.514 .0241994
1039.097 .0242104
1039.681 .0242215
1040.265 .0242326
1040.848 .0242437
1041.432 .0242527
1042.015 .0242599
1042.598 .0242658
1043.181 .0242695
1043.764 .0242737
1044.346 .0242782
1044.929 .0242824
1045.511 .0242871
1046.094 .0242935
1046.676 .0243006
1047.258 .0243076
1047.840 .0243156
1048.422 .0243242
1049.003 .0243331
1049.585 .0243419
1050.166 .0243499
1050.748 .0243576
1051.329 .0243649
1051.910 .0243711
1052.491 .0243757
1053.072 .0243794
1053.653 .0243825
1054.234 .0243858
1054.815 .0243901
1055.396 .0243953
1055.976 .0244016
1056.557 .0244090
1057.138 .0244174
1057.718 .0244255
1058.298 .0244326
1058.879 .0244385
1059.459 .0244439
1060.039 .0244482
1060.620 .0244506
1061.200 .0244517
1061.780 .0244525
1062.360 .0244530
1062.940 .0244534
1063.520 .0244529
1064.101 .0244525
1064.681 .0244515
1065.261 .0244489
1065.841 .0244453
1066.421 .0244418
1067.001 .0244384
1067.581 .0244352
1068.161 .0244330
1068.741 .0244316
1069.321 .0244310
1069.901 .0244313
1070.482 .0244319
1071.062 .0244330
1071.642 .0244351
1072.222 .0244376
1072.803 .0244401
1073.383 .0244442
1073.963 .0244489
1074.544 .0244531
1075.124 .0244581
1075.705 .0244627
1076.286 .0244668
1076.866 .0244698
1077.447 .0244721
1078.028 .0244739
1078.609 .0244760
1079.190 .0244802
1079.771 .0244865
1080.352 .0244959
1080.934 .0245085
1081.515 .0245233
1082.097 .0245404
1082.679 .0245598
1083.260 .0245794
1083.842 .0245991
1084.424 .0246190
1085.007 .0246379
1085.589 .0246543
1086.172 .0246684
1086.754 .0246807
1087.337 .0246910
1087.920 .0246987
1088.503 .0247044
1089.087 .0247084
1089.670 .0247130
1090.254 .0247171
1090.838 .0247223
1091.422 .0247274
1092.006 .0247321
1092.590 .0247320
1093.175 .0247282
1093.760 .0247194
1094.345 .0247056
1094.930 .0246889
1095.516 .0246723
1096.102 .0246569
1096.688 .0246441
1097.274 .0246353
1097.860 .0246314
1098.447 .0246296
1099.034 .0246298
1099.622 .0246273
1100.209 .0246234
1100.797 .0246175
1101.385 .0246094
1101.973 .0246002
1102.562 .0245946
1103.151 .0245924
1103.740 .0245922
1104.330 .0245959
1104.920 .0246015
1105.510 .0246075
1106.101 .0246136
1106.691 .0246180
1107.283 .0246201
1107.874 .0246197
1108.466 .0246188
1109.058 .0246145
1109.651 .0246109
1110.244 .0246072
1110.837 .0246011
1111.431 .0245957
1112.025 .0245901
1112.620 .0245832
1113.215 .0245794
1113.810 .0245805
1114.406 .0245878
1115.002 .0246007
1115.599 .0246184
1116.196 .0246350
1116.793 .0246510
1117.391 .0246638
1117.989 .0246688
1118.588 .0246681
1119.187 .0246630
1119.787 .0246519
1120.387 .0246375
1120.988 .0246227
1121.589 .0246063
1122.190 .0245911
1122.793 .0245779
1123.395 .0245602
1123.998 .0245432
1124.602 .0245274
1125.206 .0245136
1125.811 .0245025
1126.416 .0244983
1127.022 .0244988
1127.628 .0245033
1128.235 .0245166
1128.843 .0245348
1129.451 .0245588
1130.059 .0245902
1130.669 .0246249
1131.278 .0246636
1131.889 .0247042
1132.500 .0247458
1133.112 .0247855
1133.724 .0248266
1134.337 .0248652
1134.950 .0248996
1135.564 .0249364
1136.179 .0249782
1136.795 .0250278
1137.411 .0250851
1138.028 .0251505
1138.645 .0252214
1139.263 .0252957
1139.882 .0253729
1140.502 .0254546
1141.122 .0255443
1141.743 .0256569
1142.365 .0257641
1142.987 .0257555
1143.611 .0260274
1144.235 .0262136
1144.859 .0267215
1145.485 .0261800
