Measurement Sequence started on: 10-20-44-796
Integration time: 35
Scans to Average: 2 
>>>>>Begin Spectral Data<<<<<
432.953 .0262651
433.882 .0293920
434.810 .0334868
435.737 .0356616
436.662 .0349983
437.586 .0336900
438.509 .0338838
439.431 .0337998
440.351 .0335358
441.269 .0332183
442.187 .0329322
443.103 .0326702
444.018 .0324383
444.932 .0322195
445.844 .0320156
446.756 .0318182
447.666 .0316325
448.575 .0314665
449.482 .0313414
450.388 .0312417
451.294 .0311700
452.198 .0311295
453.100 .0310998
454.002 .0310862
454.902 .0310881
455.801 .0310897
456.699 .0311068
457.596 .0311406
458.492 .0311747
459.387 .0312087
460.280 .0312533
461.172 .0312994
462.064 .0313394
462.954 .0313687
463.843 .0313892
464.730 .0313949
465.617 .0313928
466.503 .0313830
467.387 .0313641
468.271 .0313491
469.153 .0313342
470.035 .0313182
470.915 .0313071
471.794 .0312960
472.673 .0312855
473.550 .0312789
474.426 .0312770
475.301 .0312739
476.175 .0312727
477.048 .0312744
477.920 .0312794
478.791 .0312796
479.661 .0312776
480.530 .0312710
481.398 .0312605
482.266 .0312507
483.132 .0312397
483.997 .0312283
484.861 .0312189
485.724 .0312123
486.587 .0312089
487.448 .0312035
488.308 .0311950
489.168 .0311803
490.026 .0311610
490.884 .0311331
491.741 .0310945
492.597 .0310521
493.452 .0310080
494.306 .0309630
495.159 .0309188
496.011 .0308778
496.862 .0308375
497.713 .0307970
498.562 .0307490
499.411 .0306936
500.259 .0306295
501.106 .0305543
501.952 .0304707
502.798 .0303876
503.642 .0303068
504.486 .0302278
505.329 .0301572
506.171 .0300997
507.012 .0300434
507.852 .0299923
508.692 .0299357
509.531 .0298678
510.369 .0297899
511.206 .0296986
512.043 .0295953
512.878 .0294870
513.713 .0293740
514.547 .0292505
515.381 .0291162
516.213 .0289710
517.045 .0288009
517.876 .0286099
518.706 .0284032
519.536 .0281775
520.365 .0279427
521.193 .0277092
522.020 .0274851
522.847 .0272794
523.673 .0270976
524.498 .0269242
525.323 .0267697
526.146 .0266232
526.969 .0264876
527.792 .0263570
528.614 .0262429
529.435 .0261452
530.255 .0260646
531.075 .0260052
531.894 .0259619
532.712 .0259194
533.530 .0258819
534.347 .0258242
535.163 .0257610
535.979 .0256846
536.794 .0256106
537.608 .0255355
538.422 .0254814
539.235 .0254456
540.048 .0254244
540.860 .0254166
541.671 .0254201
542.481 .0254222
543.292 .0254265
544.101 .0254281
544.910 .0254324
545.718 .0254405
546.526 .0254635
547.333 .0254937
548.139 .0255384
548.945 .0255893
549.750 .0256444
550.555 .0257021
551.359 .0257656
552.162 .0258248
552.965 .0258794
553.768 .0259340
554.569 .0259863
555.371 .0260356
556.171 .0260821
556.972 .0261270
557.771 .0261765
558.570 .0262313
559.369 .0262900
560.167 .0263537
560.964 .0264248
561.761 .0265037
562.558 .0265844
563.354 .0266620
564.149 .0267338
564.944 .0268005
565.738 .0268628
566.532 .0269195
567.325 .0269713
568.118 .0270232
568.910 .0270764
569.702 .0271390
570.494 .0272071
571.285 .0272808
572.075 .0273620
572.865 .0274458
573.654 .0275281
574.443 .0276068
575.232 .0276815
576.020 .0277553
576.807 .0278285
577.594 .0279007
578.381 .0279722
579.167 .0280452
579.952 .0281205
580.738 .0281981
581.522 .0282762
582.307 .0283533
583.091 .0284286
583.874 .0285022
584.657 .0285712
585.440 .0286361
586.222 .0286978
587.004 .0287565
587.785 .0288119
588.566 .0288638
589.346 .0289107
590.126 .0289525
590.906 .0289893
591.685 .0290197
592.464 .0290429
593.242 .0290605
594.020 .0290722
594.797 .0290800
595.575 .0290851
596.351 .0290871
597.128 .0290874
597.904 .0290867
598.679 .0290852
599.454 .0290822
600.229 .0290777
601.004 .0290720
601.778 .0290649
602.551 .0290559
603.325 .0290458
604.097 .0290353
604.870 .0290243
605.642 .0290138
606.414 .0290034
607.185 .0289938
607.956 .0289856
608.727 .0289777
609.497 .0289710
610.267 .0289643
611.037 .0289583
611.806 .0289507
612.575 .0289411
613.344 .0289310
614.112 .0289194
614.880 .0289063
615.647 .0288917
616.414 .0288759
617.181 .0288590
617.948 .0288414
618.714 .0288228
619.480 .0288037
620.245 .0287841
621.011 .0287640
621.775 .0287435
622.540 .0287220
623.304 .0287004
624.068 .0286780
624.832 .0286550
625.595 .0286326
626.358 .0286103
627.120 .0285889
627.883 .0285693
628.645 .0285538
629.406 .0285412
630.168 .0285311
630.929 .0285239
631.689 .0285187
632.450 .0285138
633.210 .0285079
633.970 .0284993
634.729 .0284871
635.489 .0284720
636.248 .0284541
637.006 .0284331
637.765 .0284125
638.523 .0283931
639.280 .0283749
640.038 .0283585
640.795 .0283445
641.552 .0283316
642.309 .0283197
643.065 .0283082
643.821 .0282949
644.577 .0282800
645.332 .0282645
646.088 .0282486
646.843 .0282333
647.597 .0282203
648.352 .0282095
649.106 .0282014
649.860 .0281962
650.613 .0281917
651.367 .0281883
652.120 .0281847
652.872 .0281798
653.625 .0281730
654.377 .0281641
655.129 .0281538
655.881 .0281435
656.632 .0281338
657.384 .0281245
658.135 .0281162
658.885 .0281095
659.636 .0281030
660.386 .0280968
661.136 .0280905
661.885 .0280835
662.635 .0280763
663.384 .0280685
664.133 .0280586
664.881 .0280477
665.630 .0280364
666.378 .0280242
667.126 .0280106
667.874 .0279959
668.621 .0279794
669.368 .0279619
670.115 .0279441
670.862 .0279253
671.608 .0279058
672.354 .0278880
673.100 .0278712
673.846 .0278556
674.591 .0278415
675.337 .0278289
676.082 .0278176
676.826 .0278073
677.571 .0277966
678.315 .0277846
679.059 .0277716
679.803 .0277584
680.547 .0277438
681.290 .0277285
682.033 .0277131
682.776 .0276979
683.518 .0276826
684.261 .0276677
685.003 .0276524
685.745 .0276367
686.487 .0276210
687.228 .0276046
687.969 .0275872
688.710 .0275694
689.451 .0275520
690.192 .0275353
690.932 .0275192
691.672 .0275046
692.412 .0274904
693.152 .0274780
693.891 .0274670
694.630 .0274566
695.369 .0274469
696.108 .0274383
696.846 .0274298
697.585 .0274202
698.323 .0274096
699.061 .0273977
699.798 .0273839
700.536 .0273686
701.273 .0273514
702.010 .0273332
702.746 .0273147
703.483 .0272969
704.219 .0272791
704.955 .0272625
705.691 .0272472
706.427 .0272321
707.162 .0272172
707.897 .0272029
708.632 .0271883
709.367 .0271735
710.101 .0271584
710.835 .0271432
711.569 .0271274
712.303 .0271116
713.037 .0270960
713.770 .0270804
714.503 .0270651
715.236 .0270495
715.969 .0270333
716.702 .0270172
717.434 .0270008
718.166 .0269834
718.898 .0269655
719.629 .0269474
720.361 .0269292
721.092 .0269113
721.823 .0268938
722.554 .0268771
723.284 .0268616
724.014 .0268462
724.744 .0268307
725.474 .0268149
726.204 .0267990
726.933 .0267824
727.662 .0267657
728.391 .0267491
729.120 .0267324
729.849 .0267160
730.577 .0267000
731.305 .0266842
732.033 .0266686
732.760 .0266519
733.488 .0266345
734.215 .0266165
734.942 .0265977
735.669 .0265779
736.395 .0265585
737.122 .0265390
737.848 .0265200
738.573 .0265021
739.299 .0264849
740.024 .0264688
740.750 .0264538
741.474 .0264394
742.199 .0264252
742.924 .0264109
743.648 .0263961
744.372 .0263807
745.096 .0263654
745.819 .0263495
746.543 .0263335
747.266 .0263194
747.989 .0263068
748.711 .0262961
749.434 .0262875
750.156 .0262808
750.878 .0262750
751.599 .0262701
752.321 .0262644
753.042 .0262578
753.763 .0262502
754.484 .0262411
755.205 .0262312
755.925 .0262214
756.645 .0262116
757.365 .0262015
758.085 .0261920
758.804 .0261822
759.523 .0261710
760.242 .0261590
760.961 .0261459
761.679 .0261316
762.397 .0261162
763.115 .0260995
763.833 .0260826
764.551 .0260654
765.268 .0260480
765.985 .0260298
766.702 .0260117
767.418 .0259928
768.134 .0259727
768.850 .0259518
769.566 .0259305
770.282 .0259089
770.997 .0258873
771.712 .0258662
772.427 .0258450
773.142 .0258243
773.856 .0258038
774.570 .0257839
775.284 .0257651
775.998 .0257462
776.711 .0257283
777.424 .0257111
778.137 .0256946
778.849 .0256786
779.562 .0256629
780.274 .0256482
780.986 .0256339
781.697 .0256199
782.409 .0256061
783.120 .0255928
783.831 .0255800
784.541 .0255681
785.252 .0255569
785.962 .0255464
786.671 .0255360
787.381 .0255251
788.090 .0255136
788.799 .0255017
789.508 .0254891
790.217 .0254768
790.925 .0254652
791.633 .0254549
792.341 .0254449
793.048 .0254362
793.755 .0254280
794.462 .0254195
795.169 .0254100
795.875 .0253996
796.581 .0253871
797.287 .0253732
797.993 .0253582
798.698 .0253432
799.403 .0253288
800.108 .0253154
800.812 .0253021
801.517 .0252892
802.221 .0252761
802.924 .0252621
803.628 .0252477
804.331 .0252340
805.034 .0252207
805.736 .0252081
806.439 .0251965
807.141 .0251865
807.843 .0251776
808.544 .0251693
809.245 .0251608
809.946 .0251519
810.647 .0251419
811.347 .0251313
812.047 .0251206
812.747 .0251111
813.447 .0251030
814.146 .0250959
814.845 .0250897
815.543 .0250834
816.242 .0250771
816.940 .0250695
817.638 .0250613
818.335 .0250530
819.032 .0250441
819.729 .0250354
820.426 .0250279
821.122 .0250212
821.818 .0250156
822.514 .0250107
823.209 .0250056
823.905 .0249993
824.599 .0249919
825.294 .0249826
825.988 .0249718
826.682 .0249599
827.376 .0249472
828.069 .0249331
828.762 .0249189
829.455 .0249032
830.147 .0248869
830.840 .0248705
831.531 .0248538
832.223 .0248369
832.914 .0248210
833.605 .0248059
834.296 .0247916
834.986 .0247779
835.676 .0247648
836.366 .0247508
837.055 .0247364
837.744 .0247211
838.433 .0247045
839.121 .0246880
839.809 .0246721
840.497 .0246567
841.185 .0246431
841.872 .0246309
842.559 .0246193
843.245 .0246077
843.932 .0245960
844.617 .0245834
845.303 .0245690
845.988 .0245538
846.673 .0245374
847.358 .0245208
848.042 .0245050
848.726 .0244900
849.410 .0244764
850.093 .0244655
850.776 .0244557
851.459 .0244470
852.141 .0244389
852.823 .0244316
853.505 .0244239
854.186 .0244160
854.867 .0244082
855.548 .0244002
856.228 .0243924
856.908 .0243851
857.588 .0243781
858.267 .0243720
858.946 .0243662
859.625 .0243604
860.303 .0243544
860.981 .0243485
861.659 .0243415
862.336 .0243334
863.013 .0243243
863.690 .0243139
864.366 .0243011
865.042 .0242869
865.718 .0242717
866.393 .0242560
867.068 .0242400
867.743 .0242244
868.417 .0242090
869.091 .0241943
869.765 .0241802
870.438 .0241670
871.111 .0241545
871.783 .0241432
872.456 .0241319
873.127 .0241210
873.799 .0241106
874.470 .0241002
875.141 .0240900
875.811 .0240805
876.481 .0240712
877.151 .0240617
877.820 .0240524
878.489 .0240430
879.158 .0240334
879.826 .0240239
880.494 .0240139
881.162 .0240033
881.829 .0239921
882.496 .0239799
883.163 .0239666
883.829 .0239529
884.495 .0239386
885.160 .0239238
885.825 .0239093
886.490 .0238952
887.154 .0238820
887.818 .0238702
888.482 .0238601
889.145 .0238505
889.808 .0238418
890.471 .0238332
891.133 .0238241
891.795 .0238147
892.456 .0238050
893.117 .0237949
893.778 .0237855
894.439 .0237765
895.099 .0237682
895.758 .0237611
896.417 .0237553
897.076 .0237497
897.735 .0237447
898.393 .0237397
899.051 .0237341
899.708 .0237272
900.365 .0237199
901.022 .0237118
901.678 .0237034
902.334 .0236949
902.990 .0236862
903.645 .0236776
904.300 .0236697
904.954 .0236615
905.608 .0236535
906.262 .0236457
906.915 .0236380
907.568 .0236301
908.221 .0236221
908.873 .0236143
909.525 .0236062
910.176 .0235981
910.828 .0235907
911.478 .0235834
912.129 .0235766
912.778 .0235700
913.428 .0235640
914.077 .0235580
914.726 .0235512
915.375 .0235436
916.023 .0235348
916.670 .0235251
917.318 .0235139
917.964 .0235013
918.611 .0234878
919.257 .0234747
919.903 .0234616
920.548 .0234488
921.193 .0234366
921.838 .0234252
922.482 .0234140
923.126 .0234033
923.770 .0233932
924.413 .0233833
925.056 .0233742
925.698 .0233664
926.340 .0233593
926.982 .0233532
927.623 .0233481
928.264 .0233432
928.904 .0233384
929.544 .0233331
930.184 .0233271
930.823 .0233202
931.462 .0233133
932.101 .0233055
932.739 .0232970
933.377 .0232881
934.014 .0232781
934.651 .0232668
935.288 .0232547
935.924 .0232412
936.560 .0232266
937.196 .0232114
937.831 .0231962
938.466 .0231811
939.100 .0231669
939.734 .0231534
940.368 .0231406
941.001 .0231280
941.634 .0231154
942.266 .0231023
942.899 .0230891
943.530 .0230759
944.162 .0230622
944.793 .0230486
945.423 .0230351
946.053 .0230215
946.683 .0230081
947.313 .0229947
947.942 .0229811
948.571 .0229670
949.199 .0229522
949.827 .0229369
950.455 .0229210
951.082 .0229052
951.709 .0228888
952.335 .0228722
952.961 .0228557
953.587 .0228388
954.212 .0228212
954.837 .0228035
955.462 .0227856
956.086 .0227676
956.710 .0227501
957.334 .0227327
957.957 .0227152
958.579 .0226982
959.202 .0226813
959.824 .0226633
960.445 .0226452
961.067 .0226271
961.688 .0226088
962.308 .0225912
962.928 .0225749
963.548 .0225594
964.168 .0225454
964.787 .0225336
965.406 .0225230
966.024 .0225133
966.642 .0225049
967.260 .0224966
967.877 .0224885
968.494 .0224812
969.110 .0224747
969.727 .0224693
970.342 .0224668
970.958 .0224665
971.573 .0224686
972.188 .0224733
972.802 .0224801
973.416 .0224872
974.030 .0224945
974.643 .0225013
975.256 .0225067
975.869 .0225112
976.481 .0225153
977.093 .0225193
977.705 .0225243
978.316 .0225302
978.927 .0225367
979.538 .0225432
980.148 .0225491
980.758 .0225538
981.367 .0225566
981.977 .0225574
982.586 .0225572
983.194 .0225568
983.802 .0225571
984.410 .0225581
985.018 .0225605
985.625 .0225642
986.232 .0225682
986.838 .0225724
987.445 .0225755
988.050 .0225770
988.656 .0225778
989.261 .0225770
989.866 .0225750
990.471 .0225724
991.075 .0225692
991.679 .0225654
992.282 .0225615
992.886 .0225569
993.489 .0225505
994.091 .0225439
994.694 .0225371
995.296 .0225299
995.897 .0225231
996.499 .0225174
997.100 .0225118
997.701 .0225073
998.301 .0225039
998.901 .0225010
999.501 .0224994
1000.101 .0224994
1000.700 .0225002
1001.299 .0225022
1001.898 .0225051
1002.496 .0225084
1003.094 .0225114
1003.692 .0225151
1004.289 .0225176
1004.887 .0225201
1005.484 .0225228
1006.080 .0225255
1006.677 .0225288
1007.273 .0225329
1007.868 .0225379
1008.464 .0225430
1009.059 .0225487
1009.654 .0225547
1010.249 .0225607
1010.843 .0225676
1011.437 .0225743
1012.031 .0225812
1012.625 .0225879
1013.218 .0225942
1013.811 .0225993
1014.404 .0226025
1014.997 .0226041
1015.589 .0226035
1016.181 .0226011
1016.773 .0225971
1017.365 .0225925
1017.956 .0225879
1018.547 .0225843
1019.138 .0225805
1019.728 .0225762
1020.319 .0225709
1020.909 .0225642
1021.499 .0225559
1022.088 .0225463
1022.678 .0225359
1023.267 .0225262
1023.856 .0225176
1024.445 .0225117
1025.033 .0225074
1025.621 .0225049
1026.209 .0225032
1026.797 .0225015
1027.385 .0224993
1027.972 .0224963
1028.560 .0224922
1029.147 .0224889
1029.734 .0224858
1030.320 .0224841
1030.907 .0224840
1031.493 .0224858
1032.079 .0224886
1032.665 .0224919
1033.250 .0224944
1033.836 .0224959
1034.421 .0224962
1035.006 .0224962
1035.591 .0224951
1036.176 .0224946
1036.761 .0224939
1037.345 .0224936
1037.929 .0224925
1038.514 .0224913
1039.097 .0224884
1039.681 .0224855
1040.265 .0224812
1040.848 .0224763
1041.432 .0224716
1042.015 .0224683
1042.598 .0224668
1043.181 .0224668
1043.764 .0224679
1044.346 .0224698
1044.929 .0224711
1045.511 .0224723
1046.094 .0224722
1046.676 .0224724
1047.258 .0224711
1047.840 .0224703
1048.422 .0224690
1049.003 .0224682
1049.585 .0224675
1050.166 .0224683
1050.748 .0224697
1051.329 .0224709
1051.910 .0224723
1052.491 .0224735
1053.072 .0224750
1053.653 .0224768
1054.234 .0224781
1054.815 .0224794
1055.396 .0224803
1055.976 .0224814
1056.557 .0224814
1057.138 .0224816
1057.718 .0224805
1058.298 .0224783
1058.879 .0224746
1059.459 .0224688
1060.039 .0224608
1060.620 .0224507
1061.200 .0224396
1061.780 .0224251
1062.360 .0224086
1062.940 .0223901
1063.520 .0223703
1064.101 .0223498
1064.681 .0223290
1065.261 .0223083
1065.841 .0222876
1066.421 .0222685
1067.001 .0222502
1067.581 .0222330
1068.161 .0222173
1068.741 .0222037
1069.321 .0221901
1069.901 .0221785
1070.482 .0221680
1071.062 .0221566
1071.642 .0221468
1072.222 .0221369
1072.803 .0221251
1073.383 .0221127
1073.963 .0221003
1074.544 .0220885
1075.124 .0220761
1075.705 .0220658
1076.286 .0220555
1076.866 .0220468
1077.447 .0220404
1078.028 .0220332
1078.609 .0220261
1079.190 .0220212
1079.771 .0220144
1080.352 .0220070
1080.934 .0219997
1081.515 .0219940
1082.097 .0219890
1082.679 .0219849
1083.260 .0219806
1083.842 .0219762
1084.424 .0219718
1085.007 .0219667
1085.589 .0219572
1086.172 .0219476
1086.754 .0219377
1087.337 .0219272
1087.920 .0219177
1088.503 .0219112
1089.087 .0219083
1089.670 .0219086
1090.254 .0219097
1090.838 .0219119
1091.422 .0219121
1092.006 .0219124
1092.590 .0219120
1093.175 .0219112
1093.760 .0219109
1094.345 .0219121
1094.930 .0219130
1095.516 .0219169
1096.102 .0219198
1096.688 .0219211
1097.274 .0219205
1097.860 .0219198
1098.447 .0219164
1099.034 .0219100
1099.622 .0219030
1100.209 .0218969
1100.797 .0218896
1101.385 .0218821
1101.973 .0218727
1102.562 .0218652
1103.151 .0218581
1103.740 .0218519
1104.330 .0218452
1104.920 .0218413
1105.510 .0218414
1106.101 .0218441
1106.691 .0218481
1107.283 .0218534
1107.874 .0218601
1108.466 .0218623
1109.058 .0218609
1109.651 .0218584
1110.244 .0218522
1110.837 .0218460
1111.431 .0218416
1112.025 .0218376
1112.620 .0218326
1113.215 .0218284
1113.810 .0218226
1114.406 .0218140
1115.002 .0218048
1115.599 .0217915
1116.196 .0217753
1116.793 .0217607
1117.391 .0217458
1117.989 .0217276
1118.588 .0217124
1119.187 .0217000
1119.787 .0216822
1120.387 .0216639
1120.988 .0216448
1121.589 .0216277
1122.190 .0216116
1122.793 .0216052
1123.395 .0216063
1123.998 .0216153
1124.602 .0216316
1125.206 .0216501
1125.811 .0216671
1126.416 .0216854
1127.022 .0216988
1127.628 .0217103
1128.235 .0217202
1128.843 .0217355
1129.451 .0217530
1130.059 .0217793
1130.669 .0218122
1131.278 .0218494
1131.889 .0218838
1132.500 .0219190
1133.112 .0219458
1133.724 .0219676
1134.337 .0219887
1134.950 .0220166
1135.564 .0220491
1136.179 .0220923
1136.795 .0221463
1137.411 .0222112
1138.028 .0222830
1138.645 .0223623
1139.263 .0224446
1139.882 .0225370
1140.502 .0226405
1141.122 .0227543
1141.743 .0228709
1142.365 .0230081
1142.987 .0231425
1143.611 .0234239
1144.235 .0235433
1144.859 .0234266
1145.485 .0238564
