Measurement Sequence started on: 10-20-44-796
Integration time: 35
Scans to Average: 2 
>>>>>Begin Spectral Data<<<<<
432.953 .0316336
433.882 .0423247
434.810 .0416104
435.737 .0422681
436.662 .0414987
437.586 .0406778
438.509 .0407543
439.431 .0404501
440.351 .0401798
441.269 .0399248
442.187 .0397228
443.103 .0395666
444.018 .0394234
444.932 .0393014
445.844 .0392005
446.756 .0390939
447.666 .0389949
448.575 .0388945
449.482 .0388125
450.388 .0387486
451.294 .0387094
452.198 .0386917
453.100 .0386883
454.002 .0387004
454.902 .0387183
455.801 .0387264
456.699 .0387298
457.596 .0387260
458.492 .0387184
459.387 .0387035
460.280 .0386969
461.172 .0386876
462.064 .0386882
462.954 .0386878
463.843 .0386791
464.730 .0386587
465.617 .0386290
466.503 .0385809
467.387 .0385205
468.271 .0384531
469.153 .0383827
470.035 .0383093
470.915 .0382485
471.794 .0381921
472.673 .0381374
473.550 .0380876
474.426 .0380379
475.301 .0379832
476.175 .0379302
477.048 .0378751
477.920 .0378232
478.791 .0377755
479.661 .0377368
480.530 .0377047
481.398 .0376817
482.266 .0376676
483.132 .0376546
483.997 .0376427
484.861 .0376327
485.724 .0376225
486.587 .0376095
487.448 .0375977
488.308 .0375852
489.168 .0375717
490.026 .0375553
490.884 .0375353
491.741 .0375074
492.597 .0374709
493.452 .0374278
494.306 .0373764
495.159 .0373181
496.011 .0372608
496.862 .0372046
497.713 .0371514
498.562 .0370956
499.411 .0370389
500.259 .0369729
501.106 .0369005
501.952 .0368160
502.798 .0367200
503.642 .0366181
504.486 .0365151
505.329 .0364119
506.171 .0363092
507.012 .0362142
507.852 .0361248
508.692 .0360355
509.531 .0359467
510.369 .0358558
511.206 .0357641
512.043 .0356676
512.878 .0355670
513.713 .0354583
514.547 .0353449
515.381 .0352263
516.213 .0351033
517.045 .0349754
517.876 .0348384
518.706 .0346930
519.536 .0345400
520.365 .0343868
521.193 .0342276
522.020 .0340605
522.847 .0338915
523.673 .0337116
524.498 .0335142
525.323 .0332939
526.146 .0330634
526.969 .0328269
527.792 .0325913
528.614 .0323597
529.435 .0321401
530.255 .0319434
531.075 .0317669
531.894 .0316108
532.712 .0314707
533.530 .0313426
534.347 .0312192
535.163 .0310928
535.979 .0309759
536.794 .0308659
537.608 .0307712
538.422 .0306947
539.235 .0306393
540.048 .0306033
540.860 .0305895
541.671 .0305956
542.481 .0306175
543.292 .0306531
544.101 .0306933
544.910 .0307326
545.718 .0307689
546.526 .0308023
547.333 .0308333
548.139 .0308651
548.945 .0308995
549.750 .0309320
550.555 .0309718
551.359 .0310194
552.162 .0310672
552.965 .0311186
553.768 .0311670
554.569 .0312119
555.371 .0312468
556.171 .0312771
556.972 .0313013
557.771 .0313225
558.570 .0313427
559.369 .0313673
560.167 .0313962
560.964 .0314325
561.761 .0314744
562.558 .0315245
563.354 .0315814
564.149 .0316403
564.944 .0316965
565.738 .0317554
566.532 .0318134
567.325 .0318724
568.118 .0319301
568.910 .0319884
569.702 .0320484
570.494 .0321140
571.285 .0321829
572.075 .0322584
572.865 .0323387
573.654 .0324215
574.443 .0325026
575.232 .0325818
576.020 .0326544
576.807 .0327197
577.594 .0327766
578.381 .0328279
579.167 .0328700
579.952 .0329104
580.738 .0329489
581.522 .0329875
582.307 .0330255
583.091 .0330642
583.874 .0331006
584.657 .0331337
585.440 .0331611
586.222 .0331825
587.004 .0331981
587.785 .0332100
588.566 .0332173
589.346 .0332244
590.126 .0332306
590.906 .0332369
591.685 .0332423
592.464 .0332463
593.242 .0332474
594.020 .0332449
594.797 .0332393
595.575 .0332296
596.351 .0332168
597.128 .0332020
597.904 .0331858
598.679 .0331702
599.454 .0331538
600.229 .0331375
601.004 .0331213
601.778 .0331045
602.551 .0330866
603.325 .0330673
604.097 .0330473
604.870 .0330266
605.642 .0330066
606.414 .0329863
607.185 .0329661
607.956 .0329465
608.727 .0329275
609.497 .0329084
610.267 .0328899
611.037 .0328716
611.806 .0328529
612.575 .0328346
613.344 .0328159
614.112 .0327961
614.880 .0327767
615.647 .0327562
616.414 .0327349
617.181 .0327130
617.948 .0326910
618.714 .0326681
619.480 .0326461
620.245 .0326253
621.011 .0326047
621.775 .0325856
622.540 .0325669
623.304 .0325482
624.068 .0325300
624.832 .0325116
625.595 .0324926
626.358 .0324737
627.120 .0324553
627.883 .0324366
628.645 .0324189
629.406 .0324022
630.168 .0323860
630.929 .0323707
631.689 .0323551
632.450 .0323381
633.210 .0323206
633.970 .0323019
634.729 .0322817
635.489 .0322603
636.248 .0322376
637.006 .0322134
637.765 .0321880
638.523 .0321615
639.280 .0321343
640.038 .0321069
640.795 .0320800
641.552 .0320528
642.309 .0320267
643.065 .0320014
643.821 .0319772
644.577 .0319546
645.332 .0319335
646.088 .0319125
646.843 .0318919
647.597 .0318715
648.352 .0318513
649.106 .0318317
649.860 .0318122
650.613 .0317930
651.367 .0317741
652.120 .0317545
652.872 .0317340
653.625 .0317123
654.377 .0316900
655.129 .0316657
655.881 .0316395
656.632 .0316116
657.384 .0315826
658.135 .0315536
658.885 .0315244
659.636 .0314955
660.386 .0314670
661.136 .0314390
661.885 .0314109
662.635 .0313831
663.384 .0313559
664.133 .0313294
664.881 .0313039
665.630 .0312789
666.378 .0312548
667.126 .0312315
667.874 .0312085
668.621 .0311856
669.368 .0311620
670.115 .0311381
670.862 .0311131
671.608 .0310881
672.354 .0310633
673.100 .0310392
673.846 .0310165
674.591 .0309954
675.337 .0309758
676.082 .0309574
676.826 .0309398
677.571 .0309224
678.315 .0309049
679.059 .0308870
679.803 .0308682
680.547 .0308497
681.290 .0308312
682.033 .0308127
682.776 .0307937
683.518 .0307748
684.261 .0307548
685.003 .0307345
685.745 .0307127
686.487 .0306896
687.228 .0306655
687.969 .0306400
688.710 .0306139
689.451 .0305876
690.192 .0305621
690.932 .0305377
691.672 .0305140
692.412 .0304918
693.152 .0304704
693.891 .0304504
694.630 .0304312
695.369 .0304123
696.108 .0303934
696.846 .0303746
697.585 .0303559
698.323 .0303371
699.061 .0303189
699.798 .0303014
700.536 .0302846
701.273 .0302679
702.010 .0302515
702.746 .0302348
703.483 .0302182
704.219 .0302016
704.955 .0301844
705.691 .0301668
706.427 .0301487
707.162 .0301305
707.897 .0301125
708.632 .0300948
709.367 .0300775
710.101 .0300600
710.835 .0300431
711.569 .0300264
712.303 .0300094
713.037 .0299927
713.770 .0299761
714.503 .0299595
715.236 .0299429
715.969 .0299266
716.702 .0299106
717.434 .0298954
718.166 .0298811
718.898 .0298670
719.629 .0298529
720.361 .0298391
721.092 .0298249
721.823 .0298101
722.554 .0297945
723.284 .0297783
724.014 .0297603
724.744 .0297414
725.474 .0297212
726.204 .0297005
726.933 .0296792
727.662 .0296576
728.391 .0296353
729.120 .0296130
729.849 .0295912
730.577 .0295698
731.305 .0295489
732.033 .0295296
732.760 .0295114
733.488 .0294944
734.215 .0294785
734.942 .0294637
735.669 .0294490
736.395 .0294354
737.122 .0294217
737.848 .0294079
738.573 .0293944
739.299 .0293815
740.024 .0293690
740.750 .0293570
741.474 .0293450
742.199 .0293324
742.924 .0293186
743.648 .0293034
744.372 .0292862
745.096 .0292684
745.819 .0292501
746.543 .0292318
747.266 .0292145
747.989 .0291992
748.711 .0291858
749.434 .0291749
750.156 .0291662
750.878 .0291591
751.599 .0291531
752.321 .0291476
753.042 .0291424
753.763 .0291375
754.484 .0291324
755.205 .0291271
755.925 .0291216
756.645 .0291156
757.365 .0291081
758.085 .0290999
758.804 .0290907
759.523 .0290801
760.242 .0290678
760.961 .0290538
761.679 .0290377
762.397 .0290198
763.115 .0289994
763.833 .0289764
764.551 .0289510
765.268 .0289233
765.985 .0288933
766.702 .0288627
767.418 .0288319
768.134 .0288020
768.850 .0287740
769.566 .0287481
770.282 .0287240
770.997 .0287014
771.712 .0286797
772.427 .0286583
773.142 .0286368
773.856 .0286151
774.570 .0285933
775.284 .0285723
775.998 .0285521
776.711 .0285339
777.424 .0285174
778.137 .0285026
778.849 .0284885
779.562 .0284747
780.274 .0284607
780.986 .0284457
781.697 .0284298
782.409 .0284129
783.120 .0283957
783.831 .0283788
784.541 .0283622
785.252 .0283467
785.962 .0283324
786.671 .0283193
787.381 .0283067
788.090 .0282945
788.799 .0282822
789.508 .0282692
790.217 .0282552
790.925 .0282402
791.633 .0282243
792.341 .0282072
793.048 .0281892
793.755 .0281708
794.462 .0281517
795.169 .0281326
795.875 .0281137
796.581 .0280957
797.287 .0280786
797.993 .0280624
798.698 .0280465
799.403 .0280307
800.108 .0280153
800.812 .0279997
801.517 .0279843
802.221 .0279695
802.924 .0279554
803.628 .0279421
804.331 .0279305
805.034 .0279202
805.736 .0279108
806.439 .0279021
807.141 .0278933
807.843 .0278835
808.544 .0278721
809.245 .0278584
809.946 .0278426
810.647 .0278250
811.347 .0278065
812.047 .0277872
812.747 .0277684
813.447 .0277501
814.146 .0277329
814.845 .0277171
815.543 .0277027
816.242 .0276896
816.940 .0276776
817.638 .0276662
818.335 .0276556
819.032 .0276452
819.729 .0276355
820.426 .0276262
821.122 .0276174
821.818 .0276089
822.514 .0276005
823.209 .0275927
823.905 .0275848
824.599 .0275766
825.294 .0275683
825.988 .0275592
826.682 .0275493
827.376 .0275384
828.069 .0275265
828.762 .0275133
829.455 .0274996
830.147 .0274851
830.840 .0274704
831.531 .0274565
832.223 .0274433
832.914 .0274310
833.605 .0274201
834.296 .0274111
834.986 .0274031
835.676 .0273966
836.366 .0273910
837.055 .0273857
837.744 .0273808
838.433 .0273755
839.121 .0273699
839.809 .0273643
840.497 .0273592
841.185 .0273539
841.872 .0273484
842.559 .0273432
843.245 .0273373
843.932 .0273310
844.617 .0273240
845.303 .0273162
845.988 .0273072
846.673 .0272972
847.358 .0272866
848.042 .0272754
848.726 .0272646
849.410 .0272544
850.093 .0272449
850.776 .0272366
851.459 .0272290
852.141 .0272219
852.823 .0272153
853.505 .0272091
854.186 .0272023
854.867 .0271957
855.548 .0271890
856.228 .0271827
856.908 .0271771
857.588 .0271722
858.267 .0271678
858.946 .0271639
859.625 .0271603
860.303 .0271563
860.981 .0271514
861.659 .0271462
862.336 .0271396
863.013 .0271320
863.690 .0271237
864.366 .0271151
865.042 .0271062
865.718 .0270974
866.393 .0270882
867.068 .0270789
867.743 .0270695
868.417 .0270597
869.091 .0270495
869.765 .0270394
870.438 .0270293
871.111 .0270189
871.783 .0270088
872.456 .0269989
873.127 .0269891
873.799 .0269799
874.470 .0269711
875.141 .0269624
875.811 .0269543
876.481 .0269468
877.151 .0269404
877.820 .0269348
878.489 .0269300
879.158 .0269254
879.826 .0269210
880.494 .0269167
881.162 .0269119
881.829 .0269067
882.496 .0269012
883.163 .0268952
883.829 .0268888
884.495 .0268822
885.160 .0268762
885.825 .0268708
886.490 .0268662
887.154 .0268619
887.818 .0268582
888.482 .0268547
889.145 .0268514
889.808 .0268485
890.471 .0268456
891.133 .0268428
891.795 .0268400
892.456 .0268378
893.117 .0268363
893.778 .0268356
894.439 .0268363
895.099 .0268378
895.758 .0268392
896.417 .0268399
897.076 .0268391
897.735 .0268365
898.393 .0268320
899.051 .0268256
899.708 .0268170
900.365 .0268073
901.022 .0267969
901.678 .0267865
902.334 .0267760
902.990 .0267658
903.645 .0267551
904.300 .0267440
904.954 .0267320
905.608 .0267183
906.262 .0267036
906.915 .0266886
907.568 .0266732
908.221 .0266580
908.873 .0266435
909.525 .0266302
910.176 .0266181
910.828 .0266076
911.478 .0265985
912.129 .0265894
912.778 .0265807
913.428 .0265718
914.077 .0265626
914.726 .0265531
915.375 .0265433
916.023 .0265341
916.670 .0265255
917.318 .0265174
917.964 .0265096
918.611 .0265016
919.257 .0264939
919.903 .0264853
920.548 .0264755
921.193 .0264646
921.838 .0264531
922.482 .0264404
923.126 .0264272
923.770 .0264135
924.413 .0263997
925.056 .0263850
925.698 .0263702
926.340 .0263547
926.982 .0263384
927.623 .0263219
928.264 .0263050
928.904 .0262877
929.544 .0262711
930.184 .0262546
930.823 .0262392
931.462 .0262249
932.101 .0262111
932.739 .0261977
933.377 .0261843
934.014 .0261706
934.651 .0261564
935.288 .0261415
935.924 .0261266
936.560 .0261115
937.196 .0260964
937.831 .0260813
938.466 .0260659
939.100 .0260507
939.734 .0260348
940.368 .0260179
941.001 .0260004
941.634 .0259815
942.266 .0259616
942.899 .0259412
943.530 .0259200
944.162 .0258984
944.793 .0258768
945.423 .0258549
946.053 .0258326
946.683 .0258097
947.313 .0257865
947.942 .0257624
948.571 .0257380
949.199 .0257127
949.827 .0256857
950.455 .0256583
951.082 .0256310
951.709 .0256035
952.335 .0255768
952.961 .0255508
953.587 .0255259
954.212 .0255016
954.837 .0254780
955.462 .0254546
956.086 .0254314
956.710 .0254086
957.334 .0253858
957.957 .0253628
958.579 .0253403
959.202 .0253183
959.824 .0252972
960.445 .0252775
961.067 .0252590
961.688 .0252409
962.308 .0252236
962.928 .0252063
963.548 .0251885
964.168 .0251696
964.787 .0251497
965.406 .0251289
966.024 .0251078
966.642 .0250868
967.260 .0250665
967.877 .0250477
968.494 .0250301
969.110 .0250135
969.727 .0249973
970.342 .0249813
970.958 .0249654
971.573 .0249494
972.188 .0249337
972.802 .0249184
973.416 .0249036
974.030 .0248900
974.643 .0248776
975.256 .0248663
975.869 .0248550
976.481 .0248442
977.093 .0248336
977.705 .0248227
978.316 .0248118
978.927 .0248007
979.538 .0247898
980.148 .0247787
980.758 .0247679
981.367 .0247572
981.977 .0247473
982.586 .0247381
983.194 .0247291
983.802 .0247208
984.410 .0247128
985.018 .0247049
985.625 .0246973
986.232 .0246900
986.838 .0246827
987.445 .0246752
988.050 .0246678
988.656 .0246602
989.261 .0246523
989.866 .0246436
990.471 .0246342
991.075 .0246242
991.679 .0246133
992.282 .0246014
992.886 .0245893
993.489 .0245771
994.091 .0245653
994.694 .0245541
995.296 .0245435
995.897 .0245335
996.499 .0245245
997.100 .0245161
997.701 .0245086
998.301 .0245023
998.901 .0244969
999.501 .0244927
1000.101 .0244905
1000.700 .0244894
1001.299 .0244894
1001.898 .0244905
1002.496 .0244922
1003.094 .0244939
1003.692 .0244953
1004.289 .0244959
1004.887 .0244960
1005.484 .0244957
1006.080 .0244951
1006.677 .0244938
1007.273 .0244924
1007.868 .0244896
1008.464 .0244856
1009.059 .0244810
1009.654 .0244752
1010.249 .0244686
1010.843 .0244617
1011.437 .0244544
1012.031 .0244470
1012.625 .0244398
1013.218 .0244326
1013.811 .0244256
1014.404 .0244194
1014.997 .0244137
1015.589 .0244080
1016.181 .0244033
1016.773 .0244000
1017.365 .0243973
1017.956 .0243967
1018.547 .0243960
1019.138 .0243957
1019.728 .0243961
1020.319 .0243967
1020.909 .0243982
1021.499 .0244009
1022.088 .0244054
1022.678 .0244107
1023.267 .0244168
1023.856 .0244231
1024.445 .0244278
1025.033 .0244314
1025.621 .0244327
1026.209 .0244316
1026.797 .0244286
1027.385 .0244243
1027.972 .0244195
1028.560 .0244164
1029.147 .0244149
1029.734 .0244151
1030.320 .0244173
1030.907 .0244202
1031.493 .0244236
1032.079 .0244261
1032.665 .0244284
1033.250 .0244306
1033.836 .0244334
1034.421 .0244380
1035.006 .0244446
1035.591 .0244539
1036.176 .0244656
1036.761 .0244785
1037.345 .0244929
1037.929 .0245065
1038.514 .0245188
1039.097 .0245296
1039.681 .0245396
1040.265 .0245487
1040.848 .0245577
1041.432 .0245668
1042.015 .0245765
1042.598 .0245857
1043.181 .0245944
1043.764 .0246011
1044.346 .0246061
1044.929 .0246095
1045.511 .0246115
1046.094 .0246124
1046.676 .0246145
1047.258 .0246165
1047.840 .0246189
1048.422 .0246211
1049.003 .0246218
1049.585 .0246202
1050.166 .0246167
1050.748 .0246108
1051.329 .0246032
1051.910 .0245949
1052.491 .0245868
1053.072 .0245797
1053.653 .0245755
1054.234 .0245725
1054.815 .0245698
1055.396 .0245675
1055.976 .0245649
1056.557 .0245603
1057.138 .0245561
1057.718 .0245524
1058.298 .0245501
1058.879 .0245508
1059.459 .0245533
1060.039 .0245571
1060.620 .0245619
1061.200 .0245664
1061.780 .0245693
1062.360 .0245708
1062.940 .0245696
1063.520 .0245670
1064.101 .0245644
1064.681 .0245616
1065.261 .0245589
1065.841 .0245568
1066.421 .0245546
1067.001 .0245515
1067.581 .0245474
1068.161 .0245426
1068.741 .0245367
1069.321 .0245318
1069.901 .0245259
1070.482 .0245204
1071.062 .0245155
1071.642 .0245100
1072.222 .0245043
1072.803 .0244994
1073.383 .0244935
1073.963 .0244875
1074.544 .0244828
1075.124 .0244798
1075.705 .0244781
1076.286 .0244788
1076.866 .0244817
1077.447 .0244860
1078.028 .0244916
1078.609 .0244972
1079.190 .0245031
1079.771 .0245119
1080.352 .0245230
1080.934 .0245346
1081.515 .0245497
1082.097 .0245675
1082.679 .0245878
1083.260 .0246092
1083.842 .0246315
1084.424 .0246533
1085.007 .0246742
1085.589 .0246925
1086.172 .0247087
1086.754 .0247226
1087.337 .0247374
1087.920 .0247502
1088.503 .0247628
1089.087 .0247736
1089.670 .0247823
1090.254 .0247861
1090.838 .0247859
1091.422 .0247815
1092.006 .0247723
1092.590 .0247580
1093.175 .0247424
1093.760 .0247257
1094.345 .0247112
1094.930 .0246992
1095.516 .0246926
1096.102 .0246892
1096.688 .0246880
1097.274 .0246851
1097.860 .0246803
1098.447 .0246734
1099.034 .0246634
1099.622 .0246491
1100.209 .0246339
1100.797 .0246193
1101.385 .0246052
1101.973 .0245941
1102.562 .0245866
1103.151 .0245815
1103.740 .0245752
1104.330 .0245663
1104.920 .0245533
1105.510 .0245362
1106.101 .0245154
1106.691 .0244927
1107.283 .0244709
1107.874 .0244554
1108.466 .0244450
1109.058 .0244447
1109.651 .0244515
1110.244 .0244649
1110.837 .0244822
1111.431 .0245012
1112.025 .0245190
1112.620 .0245381
1113.215 .0245562
1113.810 .0245794
1114.406 .0246080
1115.002 .0246438
1115.599 .0246830
1116.196 .0247290
1116.793 .0247759
1117.391 .0248190
1117.989 .0248542
1118.588 .0248832
1119.187 .0249004
1119.787 .0249134
1120.387 .0249207
1120.988 .0249268
1121.589 .0249382
1122.190 .0249557
1122.793 .0249747
1123.395 .0250006
1123.998 .0250305
1124.602 .0250647
1125.206 .0250996
1125.811 .0251385
1126.416 .0251745
1127.022 .0252147
1127.628 .0252593
1128.235 .0253049
1128.843 .0253508
1129.451 .0254031
1130.059 .0254536
1130.669 .0255047
1131.278 .0255544
1131.889 .0255991
1132.500 .0256390
1133.112 .0256765
1133.724 .0257057
1134.337 .0257278
1134.950 .0257451
1135.564 .0257610
1136.179 .0257758
1136.795 .0257982
1137.411 .0258258
1138.028 .0258599
1138.645 .0259076
1139.263 .0259608
1139.882 .0260214
1140.502 .0260948
1141.122 .0261796
1141.743 .0262794
1142.365 .0263800
1142.987 .0263871
1143.611 .0266745
1144.235 .0267972
1144.859 .0270137
1145.485 .0267874
