Measurement Sequence started on: 10-20-44-796
Integration time: 35
Scans to Average: 2 
>>>>>Begin Spectral Data<<<<<
432.953 .0269746
433.882 .0371844
434.810 .0356288
435.737 .0366698
436.662 .0354917
437.586 .0359378
438.509 .0363592
439.431 .0364592
440.351 .0366253
441.269 .0367707
442.187 .0369428
443.103 .0370971
444.018 .0372501
444.932 .0374041
445.844 .0375616
446.756 .0376914
447.666 .0378067
448.575 .0378896
449.482 .0379314
450.388 .0379182
451.294 .0378658
452.198 .0377801
453.100 .0376785
454.002 .0375667
454.902 .0374583
455.801 .0373483
456.699 .0372423
457.596 .0371327
458.492 .0370136
459.387 .0368822
460.280 .0367496
461.172 .0366119
462.064 .0364841
462.954 .0363628
463.843 .0362530
464.730 .0361530
465.617 .0360682
466.503 .0359904
467.387 .0359180
468.271 .0358406
469.153 .0357655
470.035 .0356904
470.915 .0356219
471.794 .0355592
472.673 .0355097
473.550 .0354729
474.426 .0354498
475.301 .0354330
476.175 .0354220
477.048 .0354112
477.920 .0354022
478.791 .0353877
479.661 .0353728
480.530 .0353598
481.398 .0353491
482.266 .0353382
483.132 .0353320
483.997 .0353233
484.861 .0353104
485.724 .0352943
486.587 .0352747
487.448 .0352488
488.308 .0352191
489.168 .0351828
490.026 .0351446
490.884 .0351063
491.741 .0350682
492.597 .0350292
493.452 .0349958
494.306 .0349645
495.159 .0349329
496.011 .0349023
496.862 .0348761
497.713 .0348513
498.562 .0348258
499.411 .0347969
500.259 .0347620
501.106 .0347198
501.952 .0346698
502.798 .0346099
503.642 .0345494
504.486 .0344847
505.329 .0344164
506.171 .0343477
507.012 .0342796
507.852 .0342062
508.692 .0341297
509.531 .0340467
510.369 .0339574
511.206 .0338615
512.043 .0337608
512.878 .0336570
513.713 .0335575
514.547 .0334632
515.381 .0333689
516.213 .0332743
517.045 .0331807
517.876 .0330741
518.706 .0329534
519.536 .0328193
520.365 .0326666
521.193 .0324962
522.020 .0323140
522.847 .0321140
523.673 .0319065
524.498 .0316945
525.323 .0314785
526.146 .0312630
526.969 .0310580
527.792 .0308606
528.614 .0306675
529.435 .0304894
530.255 .0303235
531.075 .0301622
531.894 .0300159
532.712 .0298750
533.530 .0297399
534.347 .0296238
535.163 .0295202
535.979 .0294355
536.794 .0293770
537.608 .0293439
538.422 .0293318
539.235 .0293391
540.048 .0293560
540.860 .0293758
541.671 .0293917
542.481 .0294056
543.292 .0294070
544.101 .0294081
544.910 .0294117
545.718 .0294163
546.526 .0294322
547.333 .0294614
548.139 .0294979
548.945 .0295480
549.750 .0295961
550.555 .0296454
551.359 .0296849
552.162 .0297144
552.965 .0297370
553.768 .0297533
554.569 .0297678
555.371 .0297853
556.171 .0298095
556.972 .0298461
557.771 .0298876
558.570 .0299401
559.369 .0299984
560.167 .0300617
560.964 .0301248
561.761 .0301851
562.558 .0302436
563.354 .0303058
564.149 .0303618
564.944 .0304178
565.738 .0304767
566.532 .0305345
567.325 .0305914
568.118 .0306468
568.910 .0307007
569.702 .0307544
570.494 .0308079
571.285 .0308642
572.075 .0309222
572.865 .0309839
573.654 .0310473
574.443 .0311097
575.232 .0311718
576.020 .0312289
576.807 .0312834
577.594 .0313363
578.381 .0313865
579.167 .0314344
579.952 .0314836
580.738 .0315352
581.522 .0315906
582.307 .0316477
583.091 .0317066
583.874 .0317666
584.657 .0318245
585.440 .0318792
586.222 .0319315
587.004 .0319802
587.785 .0320261
588.566 .0320674
589.346 .0321055
590.126 .0321387
590.906 .0321688
591.685 .0321972
592.464 .0322211
593.242 .0322414
594.020 .0322569
594.797 .0322667
595.575 .0322706
596.351 .0322686
597.128 .0322605
597.904 .0322491
598.679 .0322357
599.454 .0322188
600.229 .0322000
601.004 .0321805
601.778 .0321600
602.551 .0321385
603.325 .0321167
604.097 .0320948
604.870 .0320725
605.642 .0320519
606.414 .0320321
607.185 .0320134
607.956 .0319970
608.727 .0319821
609.497 .0319677
610.267 .0319530
611.037 .0319371
611.806 .0319192
612.575 .0318997
613.344 .0318796
614.112 .0318582
614.880 .0318361
615.647 .0318141
616.414 .0317914
617.181 .0317681
617.948 .0317448
618.714 .0317209
619.480 .0316967
620.245 .0316720
621.011 .0316470
621.775 .0316218
622.540 .0315978
623.304 .0315762
624.068 .0315563
624.832 .0315383
625.595 .0315227
626.358 .0315091
627.120 .0314971
627.883 .0314864
628.645 .0314769
629.406 .0314677
630.168 .0314581
630.929 .0314467
631.689 .0314336
632.450 .0314184
633.210 .0314020
633.970 .0313839
634.729 .0313649
635.489 .0313448
636.248 .0313237
637.006 .0313020
637.765 .0312792
638.523 .0312552
639.280 .0312292
640.038 .0312013
640.795 .0311722
641.552 .0311409
642.309 .0311098
643.065 .0310796
643.821 .0310514
644.577 .0310247
645.332 .0310001
646.088 .0309780
646.843 .0309573
647.597 .0309382
648.352 .0309200
649.106 .0309027
649.860 .0308863
650.613 .0308702
651.367 .0308549
652.120 .0308404
652.872 .0308273
653.625 .0308154
654.377 .0308055
655.129 .0307968
655.881 .0307887
656.632 .0307806
657.384 .0307725
658.135 .0307636
658.885 .0307530
659.636 .0307410
660.386 .0307277
661.136 .0307132
661.885 .0306978
662.635 .0306821
663.384 .0306677
664.133 .0306534
664.881 .0306394
665.630 .0306248
666.378 .0306090
667.126 .0305913
667.874 .0305719
668.621 .0305509
669.368 .0305295
670.115 .0305080
670.862 .0304876
671.608 .0304692
672.354 .0304531
673.100 .0304390
673.846 .0304269
674.591 .0304156
675.337 .0304044
676.082 .0303918
676.826 .0303782
677.571 .0303629
678.315 .0303468
679.059 .0303300
679.803 .0303133
680.547 .0302968
681.290 .0302803
682.033 .0302634
682.776 .0302462
683.518 .0302280
684.261 .0302080
685.003 .0301868
685.745 .0301643
686.487 .0301403
687.228 .0301160
687.969 .0300911
688.710 .0300666
689.451 .0300427
690.192 .0300192
690.932 .0299959
691.672 .0299730
692.412 .0299503
693.152 .0299273
693.891 .0299047
694.630 .0298827
695.369 .0298605
696.108 .0298387
696.846 .0298170
697.585 .0297950
698.323 .0297733
699.061 .0297512
699.798 .0297283
700.536 .0297050
701.273 .0296815
702.010 .0296579
702.746 .0296348
703.483 .0296128
704.219 .0295916
704.955 .0295715
705.691 .0295523
706.427 .0295328
707.162 .0295131
707.897 .0294934
708.632 .0294731
709.367 .0294523
710.101 .0294312
710.835 .0294098
711.569 .0293890
712.303 .0293686
713.037 .0293487
713.770 .0293292
714.503 .0293099
715.236 .0292900
715.969 .0292689
716.702 .0292468
717.434 .0292241
718.166 .0292010
718.898 .0291783
719.629 .0291559
720.361 .0291347
721.092 .0291145
721.823 .0290953
722.554 .0290765
723.284 .0290576
724.014 .0290376
724.744 .0290163
725.474 .0289936
726.204 .0289701
726.933 .0289462
727.662 .0289227
728.391 .0288999
729.120 .0288780
729.849 .0288567
730.577 .0288364
731.305 .0288160
732.033 .0287957
732.760 .0287743
733.488 .0287527
734.215 .0287304
734.942 .0287082
735.669 .0286862
736.395 .0286656
737.122 .0286462
737.848 .0286282
738.573 .0286109
739.299 .0285944
740.024 .0285782
740.750 .0285624
741.474 .0285464
742.199 .0285305
742.924 .0285143
743.648 .0284988
744.372 .0284838
745.096 .0284703
745.819 .0284570
746.543 .0284448
747.266 .0284336
747.989 .0284232
748.711 .0284137
749.434 .0284048
750.156 .0283969
750.878 .0283902
751.599 .0283844
752.321 .0283794
753.042 .0283755
753.763 .0283727
754.484 .0283699
755.205 .0283670
755.925 .0283631
756.645 .0283579
757.365 .0283512
758.085 .0283433
758.804 .0283336
759.523 .0283222
760.242 .0283098
760.961 .0282959
761.679 .0282815
762.397 .0282660
763.115 .0282491
763.833 .0282313
764.551 .0282123
765.268 .0281919
765.985 .0281703
766.702 .0281485
767.418 .0281266
768.134 .0281051
768.850 .0280842
769.566 .0280639
770.282 .0280446
770.997 .0280264
771.712 .0280089
772.427 .0279917
773.142 .0279752
773.856 .0279586
774.570 .0279421
775.284 .0279257
775.998 .0279091
776.711 .0278926
777.424 .0278761
778.137 .0278597
778.849 .0278428
779.562 .0278259
780.274 .0278094
780.986 .0277928
781.697 .0277771
782.409 .0277623
783.120 .0277485
783.831 .0277358
784.541 .0277245
785.252 .0277136
785.962 .0277029
786.671 .0276922
787.381 .0276808
788.090 .0276688
788.799 .0276561
789.508 .0276427
790.217 .0276285
790.925 .0276143
791.633 .0275997
792.341 .0275845
793.048 .0275691
793.755 .0275526
794.462 .0275350
795.169 .0275164
795.875 .0274975
796.581 .0274781
797.287 .0274591
797.993 .0274412
798.698 .0274246
799.403 .0274094
800.108 .0273956
800.812 .0273830
801.517 .0273717
802.221 .0273611
802.924 .0273510
803.628 .0273416
804.331 .0273331
805.034 .0273251
805.736 .0273177
806.439 .0273102
807.141 .0273023
807.843 .0272936
808.544 .0272836
809.245 .0272724
809.946 .0272600
810.647 .0272467
811.347 .0272331
812.047 .0272194
812.747 .0272059
813.447 .0271922
814.146 .0271786
814.845 .0271647
815.543 .0271498
816.242 .0271342
816.940 .0271176
817.638 .0271007
818.335 .0270839
819.032 .0270676
819.729 .0270520
820.426 .0270372
821.122 .0270227
821.818 .0270079
822.514 .0269927
823.209 .0269765
823.905 .0269588
824.599 .0269395
825.294 .0269190
825.988 .0268981
826.682 .0268773
827.376 .0268576
828.069 .0268386
828.762 .0268208
829.455 .0268035
830.147 .0267862
830.840 .0267687
831.531 .0267507
832.223 .0267324
832.914 .0267134
833.605 .0266939
834.296 .0266744
834.986 .0266551
835.676 .0266370
836.366 .0266200
837.055 .0266043
837.744 .0265895
838.433 .0265753
839.121 .0265615
839.809 .0265477
840.497 .0265342
841.185 .0265207
841.872 .0265070
842.559 .0264935
843.245 .0264805
843.932 .0264675
844.617 .0264553
845.303 .0264441
845.988 .0264332
846.673 .0264231
847.358 .0264133
848.042 .0264035
848.726 .0263935
849.410 .0263835
850.093 .0263726
850.776 .0263607
851.459 .0263481
852.141 .0263340
852.823 .0263192
853.505 .0263040
854.186 .0262881
854.867 .0262723
855.548 .0262570
856.228 .0262421
856.908 .0262278
857.588 .0262143
858.267 .0262011
858.946 .0261878
859.625 .0261750
860.303 .0261619
860.981 .0261483
861.659 .0261347
862.336 .0261211
863.013 .0261076
863.690 .0260944
864.366 .0260816
865.042 .0260697
865.718 .0260589
866.393 .0260482
867.068 .0260372
867.743 .0260260
868.417 .0260142
869.091 .0260012
869.765 .0259873
870.438 .0259728
871.111 .0259578
871.783 .0259426
872.456 .0259277
873.127 .0259136
873.799 .0259003
874.470 .0258876
875.141 .0258754
875.811 .0258634
876.481 .0258508
877.151 .0258375
877.820 .0258237
878.489 .0258096
879.158 .0257951
879.826 .0257806
880.494 .0257663
881.162 .0257527
881.829 .0257398
882.496 .0257270
883.163 .0257144
883.829 .0257024
884.495 .0256905
885.160 .0256796
885.825 .0256701
886.490 .0256625
887.154 .0256566
887.818 .0256524
888.482 .0256498
889.145 .0256481
889.808 .0256472
890.471 .0256466
891.133 .0256458
891.795 .0256449
892.456 .0256437
893.117 .0256427
893.778 .0256424
894.439 .0256426
895.099 .0256426
895.758 .0256418
896.417 .0256397
897.076 .0256360
897.735 .0256305
898.393 .0256239
899.051 .0256161
899.708 .0256075
900.365 .0255984
901.022 .0255890
901.678 .0255799
902.334 .0255713
902.990 .0255626
903.645 .0255538
904.300 .0255445
904.954 .0255346
905.608 .0255242
906.262 .0255139
906.915 .0255039
907.568 .0254943
908.221 .0254851
908.873 .0254761
909.525 .0254670
910.176 .0254585
910.828 .0254503
911.478 .0254421
912.129 .0254339
912.778 .0254255
913.428 .0254167
914.077 .0254079
914.726 .0253994
915.375 .0253908
916.023 .0253827
916.670 .0253755
917.318 .0253686
917.964 .0253622
918.611 .0253561
919.257 .0253502
919.903 .0253440
920.548 .0253372
921.193 .0253300
921.838 .0253223
922.482 .0253146
923.126 .0253073
923.770 .0253005
924.413 .0252944
925.056 .0252889
925.698 .0252832
926.340 .0252772
926.982 .0252703
927.623 .0252620
928.264 .0252523
928.904 .0252414
929.544 .0252297
930.184 .0252173
930.823 .0252048
931.462 .0251926
932.101 .0251804
932.739 .0251680
933.377 .0251553
934.014 .0251418
934.651 .0251276
935.288 .0251125
935.924 .0250968
936.560 .0250815
937.196 .0250664
937.831 .0250519
938.466 .0250384
939.100 .0250262
939.734 .0250148
940.368 .0250031
941.001 .0249916
941.634 .0249793
942.266 .0249660
942.899 .0249517
943.530 .0249357
944.162 .0249188
944.793 .0249009
945.423 .0248821
946.053 .0248625
946.683 .0248424
947.313 .0248219
947.942 .0248007
948.571 .0247790
949.199 .0247569
949.827 .0247339
950.455 .0247110
951.082 .0246889
951.709 .0246673
952.335 .0246467
952.961 .0246270
953.587 .0246084
954.212 .0245915
954.837 .0245756
955.462 .0245607
956.086 .0245471
956.710 .0245350
957.334 .0245241
957.957 .0245148
958.579 .0245071
959.202 .0245010
959.824 .0244962
960.445 .0244922
961.067 .0244880
961.688 .0244840
962.308 .0244796
962.928 .0244744
963.548 .0244686
964.168 .0244614
964.787 .0244533
965.406 .0244448
966.024 .0244360
966.642 .0244269
967.260 .0244176
967.877 .0244081
968.494 .0243978
969.110 .0243864
969.727 .0243736
970.342 .0243588
970.958 .0243425
971.573 .0243250
972.188 .0243066
972.802 .0242887
973.416 .0242722
974.030 .0242578
974.643 .0242458
975.256 .0242361
975.869 .0242273
976.481 .0242190
977.093 .0242108
977.705 .0242020
978.316 .0241920
978.927 .0241819
979.538 .0241719
980.148 .0241626
980.758 .0241545
981.367 .0241484
981.977 .0241440
982.586 .0241416
983.194 .0241399
983.802 .0241387
984.410 .0241374
985.018 .0241362
985.625 .0241338
986.232 .0241314
986.838 .0241292
987.445 .0241269
988.050 .0241244
988.656 .0241221
989.261 .0241191
989.866 .0241156
990.471 .0241110
991.075 .0241055
991.679 .0240984
992.282 .0240910
992.886 .0240826
993.489 .0240735
994.091 .0240644
994.694 .0240546
995.296 .0240440
995.897 .0240331
996.499 .0240216
997.100 .0240098
997.701 .0239988
998.301 .0239892
998.901 .0239815
999.501 .0239761
1000.101 .0239731
1000.700 .0239717
1001.299 .0239719
1001.898 .0239734
1002.496 .0239745
1003.094 .0239751
1003.692 .0239758
1004.289 .0239755
1004.887 .0239751
1005.484 .0239745
1006.080 .0239743
1006.677 .0239743
1007.273 .0239745
1007.868 .0239742
1008.464 .0239734
1009.059 .0239725
1009.654 .0239709
1010.249 .0239690
1010.843 .0239675
1011.437 .0239660
1012.031 .0239641
1012.625 .0239624
1013.218 .0239607
1013.811 .0239579
1014.404 .0239549
1014.997 .0239511
1015.589 .0239474
1016.181 .0239443
1016.773 .0239425
1017.365 .0239417
1017.956 .0239420
1018.547 .0239434
1019.138 .0239447
1019.728 .0239456
1020.319 .0239461
1020.909 .0239450
1021.499 .0239434
1022.088 .0239415
1022.678 .0239394
1023.267 .0239373
1023.856 .0239364
1024.445 .0239359
1025.033 .0239357
1025.621 .0239351
1026.209 .0239344
1026.797 .0239325
1027.385 .0239304
1027.972 .0239279
1028.560 .0239248
1029.147 .0239215
1029.734 .0239190
1030.320 .0239155
1030.907 .0239121
1031.493 .0239088
1032.079 .0239050
1032.665 .0239010
1033.250 .0238979
1033.836 .0238949
1034.421 .0238931
1035.006 .0238930
1035.591 .0238938
1036.176 .0238938
1036.761 .0238939
1037.345 .0238927
1037.929 .0238898
1038.514 .0238855
1039.097 .0238802
1039.681 .0238739
1040.265 .0238678
1040.848 .0238620
1041.432 .0238563
1042.015 .0238509
1042.598 .0238456
1043.181 .0238392
1043.764 .0238321
1044.346 .0238245
1044.929 .0238167
1045.511 .0238097
1046.094 .0238050
1046.676 .0238025
1047.258 .0238016
1047.840 .0238034
1048.422 .0238069
1049.003 .0238114
1049.585 .0238159
1050.166 .0238198
1050.748 .0238234
1051.329 .0238265
1051.910 .0238288
1052.491 .0238303
1053.072 .0238316
1053.653 .0238323
1054.234 .0238310
1054.815 .0238280
1055.396 .0238229
1055.976 .0238153
1056.557 .0238052
1057.138 .0237938
1057.718 .0237807
1058.298 .0237670
1058.879 .0237534
1059.459 .0237401
1060.039 .0237285
1060.620 .0237170
1061.200 .0237053
1061.780 .0236939
1062.360 .0236823
1062.940 .0236711
1063.520 .0236594
1064.101 .0236482
1064.681 .0236370
1065.261 .0236254
1065.841 .0236140
1066.421 .0236023
1067.001 .0235900
1067.581 .0235766
1068.161 .0235618
1068.741 .0235465
1069.321 .0235315
1069.901 .0235179
1070.482 .0235072
1071.062 .0234998
1071.642 .0234961
1072.222 .0234957
1072.803 .0234973
1073.383 .0235015
1073.963 .0235061
1074.544 .0235110
1075.124 .0235162
1075.705 .0235203
1076.286 .0235248
1076.866 .0235304
1077.447 .0235374
1078.028 .0235451
1078.609 .0235521
1079.190 .0235591
1079.771 .0235638
1080.352 .0235673
1080.934 .0235686
1081.515 .0235687
1082.097 .0235689
1082.679 .0235686
1083.260 .0235676
1083.842 .0235673
1084.424 .0235675
1085.007 .0235675
1085.589 .0235671
1086.172 .0235654
1086.754 .0235619
1087.337 .0235581
1087.920 .0235549
1088.503 .0235525
1089.087 .0235508
1089.670 .0235495
1090.254 .0235469
1090.838 .0235437
1091.422 .0235386
1092.006 .0235323
1092.590 .0235271
1093.175 .0235234
1093.760 .0235215
1094.345 .0235207
1094.930 .0235223
1095.516 .0235251
1096.102 .0235290
1096.688 .0235326
1097.274 .0235339
1097.860 .0235337
1098.447 .0235322
1099.034 .0235300
1099.622 .0235293
1100.209 .0235295
1100.797 .0235320
1101.385 .0235330
1101.973 .0235328
1102.562 .0235284
1103.151 .0235214
1103.740 .0235115
1104.330 .0235006
1104.920 .0234896
1105.510 .0234810
1106.101 .0234752
1106.691 .0234723
1107.283 .0234729
1107.874 .0234776
1108.466 .0234829
1109.058 .0234897
1109.651 .0234948
1110.244 .0235011
1110.837 .0235053
1111.431 .0235110
1112.025 .0235159
1112.620 .0235217
1113.215 .0235279
1113.810 .0235332
1114.406 .0235386
1115.002 .0235437
1115.599 .0235476
1116.196 .0235506
1116.793 .0235491
1117.391 .0235443
1117.989 .0235322
1118.588 .0235177
1119.187 .0234968
1119.787 .0234732
1120.387 .0234485
1120.988 .0234259
1121.589 .0234100
1122.190 .0234024
1122.793 .0234037
1123.395 .0234135
1123.998 .0234329
1124.602 .0234583
1125.206 .0234859
1125.811 .0235177
1126.416 .0235465
1127.022 .0235753
1127.628 .0236005
1128.235 .0236240
1128.843 .0236479
1129.451 .0236778
1130.059 .0237143
1130.669 .0237546
1131.278 .0238025
1131.889 .0238521
1132.500 .0239021
1133.112 .0239535
1133.724 .0240002
1134.337 .0240428
1134.950 .0240803
1135.564 .0241147
1136.179 .0241459
1136.795 .0241827
1137.411 .0242258
1138.028 .0242767
1138.645 .0243385
1139.263 .0244063
1139.882 .0244766
1140.502 .0245494
1141.122 .0246183
1141.743 .0246807
1142.365 .0247401
1142.987 .0247865
1143.611 .0248656
1144.235 .0248001
1144.859 .0248543
1145.485 .0250712
