Measurement Sequence started on: 10-20-44-796
Integration time: 35
Scans to Average: 2 
>>>>>Begin Spectral Data<<<<<
432.953 .0417012
433.882 .0511115
434.810 .0417236
435.737 .0396894
436.662 .0379396
437.586 .0390250
438.509 .0382649
439.431 .0374727
440.351 .0371189
441.269 .0368979
442.187 .0367762
443.103 .0367041
444.018 .0366768
444.932 .0366918
445.844 .0367150
446.756 .0367469
447.666 .0367715
448.575 .0367848
449.482 .0367815
450.388 .0367668
451.294 .0367473
452.198 .0367198
453.100 .0366857
454.002 .0366553
454.902 .0366174
455.801 .0365732
456.699 .0365218
457.596 .0364796
458.492 .0364413
459.387 .0364145
460.280 .0363987
461.172 .0363920
462.064 .0363897
462.954 .0363882
463.843 .0363754
464.730 .0363557
465.617 .0363328
466.503 .0363006
467.387 .0362598
468.271 .0362134
469.153 .0361615
470.035 .0361110
470.915 .0360633
471.794 .0360162
472.673 .0359662
473.550 .0359247
474.426 .0358855
475.301 .0358476
476.175 .0358159
477.048 .0357862
477.920 .0357516
478.791 .0357179
479.661 .0356771
480.530 .0356337
481.398 .0355913
482.266 .0355560
483.132 .0355265
483.997 .0355047
484.861 .0354880
485.724 .0354796
486.587 .0354757
487.448 .0354732
488.308 .0354596
489.168 .0354381
490.026 .0354093
490.884 .0353728
491.741 .0353318
492.597 .0352956
493.452 .0352664
494.306 .0352493
495.159 .0352369
496.011 .0352296
496.862 .0352222
497.713 .0352089
498.562 .0351813
499.411 .0351369
500.259 .0350717
501.106 .0349877
501.952 .0348896
502.798 .0347817
503.642 .0346683
504.486 .0345511
505.329 .0344309
506.171 .0343057
507.012 .0341787
507.852 .0340425
508.692 .0338938
509.531 .0337380
510.369 .0335745
511.206 .0334076
512.043 .0332406
512.878 .0330769
513.713 .0329206
514.547 .0327767
515.381 .0326452
516.213 .0325171
517.045 .0323980
517.876 .0322794
518.706 .0321610
519.536 .0320409
520.365 .0319151
521.193 .0317784
522.020 .0316417
522.847 .0315071
523.673 .0313625
524.498 .0312071
525.323 .0310482
526.146 .0308941
526.969 .0307482
527.792 .0306081
528.614 .0304737
529.435 .0303467
530.255 .0302289
531.075 .0301020
531.894 .0299731
532.712 .0298366
533.530 .0296917
534.347 .0295387
535.163 .0293770
535.979 .0292222
536.794 .0290799
537.608 .0289593
538.422 .0288654
539.235 .0287807
540.048 .0287026
540.860 .0286244
541.671 .0285511
542.481 .0284672
543.292 .0283757
544.101 .0282842
544.910 .0282141
545.718 .0281649
546.526 .0281502
547.333 .0281681
548.139 .0282286
548.945 .0283184
549.750 .0284207
550.555 .0285277
551.359 .0286420
552.162 .0287471
552.965 .0288510
553.768 .0289473
554.569 .0290512
555.371 .0291487
556.171 .0292475
556.972 .0293430
557.771 .0294328
558.570 .0295103
559.369 .0295843
560.167 .0296437
560.964 .0296989
561.761 .0297460
562.558 .0297950
563.354 .0298445
564.149 .0298973
564.944 .0299498
565.738 .0300084
566.532 .0300685
567.325 .0301305
568.118 .0301821
568.910 .0302329
569.702 .0302806
570.494 .0303269
571.285 .0303682
572.075 .0304118
572.865 .0304555
573.654 .0305018
574.443 .0305493
575.232 .0305996
576.020 .0306514
576.807 .0307049
577.594 .0307583
578.381 .0308107
579.167 .0308572
579.952 .0309038
580.738 .0309502
581.522 .0309952
582.307 .0310378
583.091 .0310805
583.874 .0311264
584.657 .0311769
585.440 .0312281
586.222 .0312760
587.004 .0313198
587.785 .0313600
588.566 .0313900
589.346 .0314109
590.126 .0314239
590.906 .0314314
591.685 .0314329
592.464 .0314325
593.242 .0314293
594.020 .0314257
594.797 .0314244
595.575 .0314244
596.351 .0314244
597.128 .0314240
597.904 .0314223
598.679 .0314207
599.454 .0314180
600.229 .0314153
601.004 .0314106
601.778 .0314052
602.551 .0313979
603.325 .0313894
604.097 .0313787
604.870 .0313668
605.642 .0313549
606.414 .0313427
607.185 .0313292
607.956 .0313162
608.727 .0313033
609.497 .0312900
610.267 .0312755
611.037 .0312585
611.806 .0312369
612.575 .0312120
613.344 .0311838
614.112 .0311516
614.880 .0311184
615.647 .0310855
616.414 .0310527
617.181 .0310214
617.948 .0309921
618.714 .0309633
619.480 .0309342
620.245 .0309042
621.011 .0308715
621.775 .0308361
622.540 .0307994
623.304 .0307609
624.068 .0307236
624.832 .0306895
625.595 .0306588
626.358 .0306318
627.120 .0306096
627.883 .0305901
628.645 .0305722
629.406 .0305548
630.168 .0305365
630.929 .0305160
631.689 .0304936
632.450 .0304690
633.210 .0304430
633.970 .0304168
634.729 .0303908
635.489 .0303642
636.248 .0303387
637.006 .0303125
637.765 .0302857
638.523 .0302578
639.280 .0302285
640.038 .0301981
640.795 .0301674
641.552 .0301374
642.309 .0301085
643.065 .0300822
643.821 .0300601
644.577 .0300413
645.332 .0300267
646.088 .0300156
646.843 .0300068
647.597 .0299997
648.352 .0299930
649.106 .0299867
649.860 .0299805
650.613 .0299742
651.367 .0299683
652.120 .0299627
652.872 .0299574
653.625 .0299523
654.377 .0299461
655.129 .0299387
655.881 .0299293
656.632 .0299171
657.384 .0299016
658.135 .0298839
658.885 .0298648
659.636 .0298442
660.386 .0298235
661.136 .0298035
661.885 .0297835
662.635 .0297648
663.384 .0297467
664.133 .0297287
664.881 .0297112
665.630 .0296944
666.378 .0296784
667.126 .0296644
667.874 .0296528
668.621 .0296432
669.368 .0296360
670.115 .0296309
670.862 .0296263
671.608 .0296217
672.354 .0296167
673.100 .0296104
673.846 .0296031
674.591 .0295953
675.337 .0295860
676.082 .0295771
676.826 .0295684
677.571 .0295601
678.315 .0295514
679.059 .0295422
679.803 .0295313
680.547 .0295183
681.290 .0295026
682.033 .0294836
682.776 .0294623
683.518 .0294398
684.261 .0294161
685.003 .0293931
685.745 .0293708
686.487 .0293497
687.228 .0293293
687.969 .0293100
688.710 .0292896
689.451 .0292687
690.192 .0292469
690.932 .0292240
691.672 .0292005
692.412 .0291767
693.152 .0291534
693.891 .0291312
694.630 .0291101
695.369 .0290891
696.108 .0290679
696.846 .0290466
697.585 .0290240
698.323 .0290004
699.061 .0289755
699.798 .0289500
700.536 .0289236
701.273 .0288971
702.010 .0288700
702.746 .0288432
703.483 .0288162
704.219 .0287888
704.955 .0287611
705.691 .0287331
706.427 .0287043
707.162 .0286762
707.897 .0286496
708.632 .0286248
709.367 .0286024
710.101 .0285820
710.835 .0285636
711.569 .0285471
712.303 .0285310
713.037 .0285154
713.770 .0284996
714.503 .0284838
715.236 .0284666
715.969 .0284488
716.702 .0284309
717.434 .0284133
718.166 .0283964
718.898 .0283802
719.629 .0283648
720.361 .0283501
721.092 .0283350
721.823 .0283192
722.554 .0283019
723.284 .0282827
724.014 .0282601
724.744 .0282349
725.474 .0282074
726.204 .0281790
726.933 .0281505
727.662 .0281228
728.391 .0280967
729.120 .0280717
729.849 .0280472
730.577 .0280227
731.305 .0279980
732.033 .0279723
732.760 .0279445
733.488 .0279161
734.215 .0278869
734.942 .0278584
735.669 .0278311
736.395 .0278067
737.122 .0277855
737.848 .0277673
738.573 .0277513
739.299 .0277367
740.024 .0277231
740.750 .0277100
741.474 .0276967
742.199 .0276836
742.924 .0276699
743.648 .0276566
744.372 .0276436
745.096 .0276322
745.819 .0276218
746.543 .0276126
747.266 .0276041
747.989 .0275958
748.711 .0275874
749.434 .0275780
750.156 .0275679
750.878 .0275581
751.599 .0275486
752.321 .0275396
753.042 .0275319
753.763 .0275259
754.484 .0275216
755.205 .0275192
755.925 .0275177
756.645 .0275155
757.365 .0275127
758.085 .0275085
758.804 .0275027
759.523 .0274954
760.242 .0274872
760.961 .0274784
761.679 .0274691
762.397 .0274591
763.115 .0274483
763.833 .0274364
764.551 .0274237
765.268 .0274094
765.985 .0273939
766.702 .0273774
767.418 .0273603
768.134 .0273432
768.850 .0273273
769.566 .0273123
770.282 .0272984
770.997 .0272852
771.712 .0272735
772.427 .0272632
773.142 .0272544
773.856 .0272473
774.570 .0272418
775.284 .0272370
775.998 .0272331
776.711 .0272289
777.424 .0272244
778.137 .0272190
778.849 .0272131
779.562 .0272064
780.274 .0271993
780.986 .0271920
781.697 .0271850
782.409 .0271789
783.120 .0271740
783.831 .0271688
784.541 .0271638
785.252 .0271580
785.962 .0271510
786.671 .0271433
787.381 .0271343
788.090 .0271245
788.799 .0271147
789.508 .0271045
790.217 .0270942
790.925 .0270843
791.633 .0270749
792.341 .0270652
793.048 .0270555
793.755 .0270447
794.462 .0270322
795.169 .0270185
795.875 .0270041
796.581 .0269889
797.287 .0269731
797.993 .0269574
798.698 .0269420
799.403 .0269279
800.108 .0269153
800.812 .0269039
801.517 .0268940
802.221 .0268852
802.924 .0268771
803.628 .0268694
804.331 .0268618
805.034 .0268548
805.736 .0268477
806.439 .0268409
807.141 .0268339
807.843 .0268271
808.544 .0268204
809.245 .0268139
809.946 .0268072
810.647 .0267993
811.347 .0267907
812.047 .0267812
812.747 .0267706
813.447 .0267592
814.146 .0267470
814.845 .0267341
815.543 .0267204
816.242 .0267057
816.940 .0266898
817.638 .0266730
818.335 .0266560
819.032 .0266380
819.729 .0266201
820.426 .0266019
821.122 .0265840
821.818 .0265664
822.514 .0265495
823.209 .0265321
823.905 .0265136
824.599 .0264932
825.294 .0264709
825.988 .0264469
826.682 .0264216
827.376 .0263954
828.069 .0263705
828.762 .0263471
829.455 .0263258
830.147 .0263064
830.840 .0262897
831.531 .0262746
832.223 .0262596
832.914 .0262436
833.605 .0262260
834.296 .0262068
834.986 .0261861
835.676 .0261643
836.366 .0261428
837.055 .0261224
837.744 .0261040
838.433 .0260871
839.121 .0260721
839.809 .0260579
840.497 .0260436
841.185 .0260282
841.872 .0260115
842.559 .0259928
843.245 .0259724
843.932 .0259518
844.617 .0259315
845.303 .0259127
845.988 .0258965
846.673 .0258826
847.358 .0258708
848.042 .0258612
848.726 .0258527
849.410 .0258437
850.093 .0258339
850.776 .0258229
851.459 .0258099
852.141 .0257960
852.823 .0257817
853.505 .0257670
854.186 .0257528
854.867 .0257397
855.548 .0257265
856.228 .0257140
856.908 .0257018
857.588 .0256892
858.267 .0256765
858.946 .0256639
859.625 .0256506
860.303 .0256368
860.981 .0256236
861.659 .0256101
862.336 .0255964
863.013 .0255828
863.690 .0255686
864.366 .0255543
865.042 .0255408
865.718 .0255278
866.393 .0255150
867.068 .0255034
867.743 .0254927
868.417 .0254824
869.091 .0254727
869.765 .0254623
870.438 .0254513
871.111 .0254398
871.783 .0254275
872.456 .0254134
873.127 .0253986
873.799 .0253838
874.470 .0253687
875.141 .0253536
875.811 .0253385
876.481 .0253228
877.151 .0253067
877.820 .0252901
878.489 .0252729
879.158 .0252554
879.826 .0252379
880.494 .0252205
881.162 .0252040
881.829 .0251889
882.496 .0251747
883.163 .0251616
883.829 .0251500
884.495 .0251396
885.160 .0251305
885.825 .0251228
886.490 .0251168
887.154 .0251127
887.818 .0251103
888.482 .0251084
889.145 .0251071
889.808 .0251063
890.471 .0251048
891.133 .0251029
891.795 .0251007
892.456 .0250982
893.117 .0250958
893.778 .0250942
894.439 .0250928
895.099 .0250913
895.758 .0250901
896.417 .0250877
897.076 .0250839
897.735 .0250792
898.393 .0250732
899.051 .0250659
899.708 .0250586
900.365 .0250515
901.022 .0250445
901.678 .0250384
902.334 .0250329
902.990 .0250276
903.645 .0250229
904.300 .0250178
904.954 .0250122
905.608 .0250068
906.262 .0250021
906.915 .0249976
907.568 .0249941
908.221 .0249915
908.873 .0249894
909.525 .0249877
910.176 .0249862
910.828 .0249843
911.478 .0249819
912.129 .0249794
912.778 .0249768
913.428 .0249747
914.077 .0249731
914.726 .0249721
915.375 .0249718
916.023 .0249718
916.670 .0249716
917.318 .0249711
917.964 .0249706
918.611 .0249701
919.257 .0249696
919.903 .0249693
920.548 .0249697
921.193 .0249713
921.838 .0249744
922.482 .0249788
923.126 .0249841
923.770 .0249897
924.413 .0249950
925.056 .0249991
925.698 .0250016
926.340 .0250023
926.982 .0250014
927.623 .0249992
928.264 .0249953
928.904 .0249906
929.544 .0249858
930.184 .0249813
930.823 .0249770
931.462 .0249727
932.101 .0249682
932.739 .0249626
933.377 .0249559
934.014 .0249476
934.651 .0249382
935.288 .0249281
935.924 .0249171
936.560 .0249058
937.196 .0248950
937.831 .0248849
938.466 .0248760
939.100 .0248680
939.734 .0248604
940.368 .0248523
941.001 .0248435
941.634 .0248340
942.266 .0248234
942.899 .0248116
943.530 .0247988
944.162 .0247854
944.793 .0247714
945.423 .0247565
946.053 .0247405
946.683 .0247245
947.313 .0247078
947.942 .0246900
948.571 .0246715
949.199 .0246522
949.827 .0246327
950.455 .0246132
951.082 .0245947
951.709 .0245769
952.335 .0245606
952.961 .0245471
953.587 .0245354
954.212 .0245256
954.837 .0245167
955.462 .0245081
956.086 .0244999
956.710 .0244917
957.334 .0244835
957.957 .0244752
958.579 .0244685
959.202 .0244632
959.824 .0244592
960.445 .0244571
961.067 .0244567
961.688 .0244562
962.308 .0244557
962.928 .0244535
963.548 .0244480
964.168 .0244399
964.787 .0244298
965.406 .0244184
966.024 .0244068
966.642 .0243952
967.260 .0243843
967.877 .0243747
968.494 .0243668
969.110 .0243582
969.727 .0243492
970.342 .0243393
970.958 .0243277
971.573 .0243143
972.188 .0242998
972.802 .0242850
973.416 .0242706
974.030 .0242571
974.643 .0242444
975.256 .0242329
975.869 .0242228
976.481 .0242136
977.093 .0242059
977.705 .0241992
978.316 .0241936
978.927 .0241889
979.538 .0241849
980.148 .0241813
980.758 .0241779
981.367 .0241748
981.977 .0241713
982.586 .0241681
983.194 .0241649
983.802 .0241609
984.410 .0241561
985.018 .0241510
985.625 .0241444
986.232 .0241374
986.838 .0241297
987.445 .0241214
988.050 .0241124
988.656 .0241027
989.261 .0240924
989.866 .0240814
990.471 .0240698
991.075 .0240571
991.679 .0240432
992.282 .0240292
992.886 .0240146
993.489 .0240004
994.091 .0239875
994.694 .0239767
995.296 .0239675
995.897 .0239599
996.499 .0239525
997.100 .0239462
997.701 .0239395
998.301 .0239322
998.901 .0239247
999.501 .0239167
1000.101 .0239087
1000.700 .0239012
1001.299 .0238943
1001.898 .0238884
1002.496 .0238822
1003.094 .0238763
1003.692 .0238692
1004.289 .0238613
1004.887 .0238519
1005.484 .0238415
1006.080 .0238304
1006.677 .0238187
1007.273 .0238059
1007.868 .0237932
1008.464 .0237805
1009.059 .0237675
1009.654 .0237545
1010.249 .0237411
1010.843 .0237279
1011.437 .0237154
1012.031 .0237030
1012.625 .0236917
1013.218 .0236805
1013.811 .0236698
1014.404 .0236596
1014.997 .0236502
1015.589 .0236410
1016.181 .0236321
1016.773 .0236241
1017.365 .0236161
1017.956 .0236073
1018.547 .0235985
1019.138 .0235898
1019.728 .0235809
1020.319 .0235717
1020.909 .0235625
1021.499 .0235531
1022.088 .0235448
1022.678 .0235366
1023.267 .0235289
1023.856 .0235218
1024.445 .0235149
1025.033 .0235075
1025.621 .0235009
1026.209 .0234947
1026.797 .0234881
1027.385 .0234816
1027.972 .0234763
1028.560 .0234719
1029.147 .0234675
1029.734 .0234632
1030.320 .0234604
1030.907 .0234580
1031.493 .0234557
1032.079 .0234532
1032.665 .0234519
1033.250 .0234512
1033.836 .0234503
1034.421 .0234493
1035.006 .0234488
1035.591 .0234480
1036.176 .0234468
1036.761 .0234456
1037.345 .0234457
1037.929 .0234460
1038.514 .0234460
1039.097 .0234472
1039.681 .0234497
1040.265 .0234523
1040.848 .0234547
1041.432 .0234566
1042.015 .0234573
1042.598 .0234558
1043.181 .0234516
1043.764 .0234462
1044.346 .0234401
1044.929 .0234333
1045.511 .0234252
1046.094 .0234180
1046.676 .0234111
1047.258 .0234028
1047.840 .0233931
1048.422 .0233822
1049.003 .0233683
1049.585 .0233510
1050.166 .0233307
1050.748 .0233091
1051.329 .0232863
1051.910 .0232647
1052.491 .0232433
1053.072 .0232248
1053.653 .0232084
1054.234 .0231935
1054.815 .0231790
1055.396 .0231640
1055.976 .0231484
1056.557 .0231305
1057.138 .0231125
1057.718 .0230969
1058.298 .0230838
1058.879 .0230755
1059.459 .0230732
1060.039 .0230763
1060.620 .0230826
1061.200 .0230914
1061.780 .0230997
1062.360 .0231051
1062.940 .0231092
1063.520 .0231084
1064.101 .0231042
1064.681 .0230988
1065.261 .0230955
1065.841 .0230928
1066.421 .0230941
1067.001 .0230970
1067.581 .0230990
1068.161 .0230978
1068.741 .0230920
1069.321 .0230784
1069.901 .0230587
1070.482 .0230334
1071.062 .0230039
1071.642 .0229730
1072.222 .0229472
1072.803 .0229249
1073.383 .0229116
1073.963 .0229046
1074.544 .0229027
1075.124 .0229035
1075.705 .0229049
1076.286 .0229052
1076.866 .0229044
1077.447 .0229027
1078.028 .0229024
1078.609 .0229020
1079.190 .0229040
1079.771 .0229070
1080.352 .0229134
1080.934 .0229214
1081.515 .0229287
1082.097 .0229335
1082.679 .0229356
1083.260 .0229321
1083.842 .0229245
1084.424 .0229127
1085.007 .0228981
1085.589 .0228820
1086.172 .0228665
1086.754 .0228522
1087.337 .0228397
1087.920 .0228294
1088.503 .0228226
1089.087 .0228181
1089.670 .0228165
1090.254 .0228154
1090.838 .0228160
1091.422 .0228194
1092.006 .0228236
1092.590 .0228271
1093.175 .0228307
1093.760 .0228344
1094.345 .0228356
1094.930 .0228334
1095.516 .0228276
1096.102 .0228162
1096.688 .0228032
1097.274 .0227900
1097.860 .0227774
1098.447 .0227684
1099.034 .0227651
1099.622 .0227662
1100.209 .0227711
1100.797 .0227784
1101.385 .0227855
1101.973 .0227926
1102.562 .0227995
1103.151 .0228043
1103.740 .0228070
1104.330 .0228126
1104.920 .0228195
1105.510 .0228271
1106.101 .0228389
1106.691 .0228501
1107.283 .0228582
1107.874 .0228620
1108.466 .0228609
1109.058 .0228563
1109.651 .0228500
1110.244 .0228437
1110.837 .0228383
1111.431 .0228393
1112.025 .0228494
1112.620 .0228645
1113.215 .0228871
1113.810 .0229168
1114.406 .0229503
1115.002 .0229841
1115.599 .0230186
1116.196 .0230508
1116.793 .0230840
1117.391 .0231175
1117.989 .0231522
1118.588 .0231888
1119.187 .0232255
1119.787 .0232593
1120.387 .0232875
1120.988 .0233104
1121.589 .0233221
1122.190 .0233216
1122.793 .0233125
1123.395 .0232951
1123.998 .0232757
1124.602 .0232566
1125.206 .0232432
1125.811 .0232425
1126.416 .0232539
1127.022 .0232752
1127.628 .0233014
1128.235 .0233324
1128.843 .0233619
1129.451 .0233890
1130.059 .0234109
1130.669 .0234345
1131.278 .0234574
1131.889 .0234880
1132.500 .0235256
1133.112 .0235729
1133.724 .0236316
1134.337 .0236988
1134.950 .0237707
1135.564 .0238448
1136.179 .0239135
1136.795 .0239792
1137.411 .0240330
1138.028 .0240827
1138.645 .0241257
1139.263 .0241739
1139.882 .0242250
1140.502 .0242813
1141.122 .0243453
1141.743 .0244066
1142.365 .0244642
1142.987 .0246591
1143.611 .0246801
1144.235 .0246787
1144.859 .0244604
1145.485 .0245347
