Measurement Sequence started on: 10-20-44-796
Integration time: 35
Scans to Average: 2 
>>>>>Begin Spectral Data<<<<<
432.953 .0404805
433.882 .0364992
434.810 .0322039
435.737 .0300319
436.662 .0299470
437.586 .0312970
438.509 .0307337
439.431 .0304645
440.351 .0303882
441.269 .0304049
442.187 .0304502
443.103 .0304969
444.018 .0305923
444.932 .0307116
445.844 .0308291
446.756 .0309462
447.666 .0310457
448.575 .0311305
449.482 .0312031
450.388 .0312795
451.294 .0313537
452.198 .0314297
453.100 .0315083
454.002 .0315916
454.902 .0316687
455.801 .0317391
456.699 .0317958
457.596 .0318466
458.492 .0318876
459.387 .0319130
460.280 .0319353
461.172 .0319435
462.064 .0319445
462.954 .0319383
463.843 .0319217
464.730 .0318971
465.617 .0318589
466.503 .0318138
467.387 .0317619
468.271 .0317054
469.153 .0316463
470.035 .0315869
470.915 .0315358
471.794 .0314898
472.673 .0314493
473.550 .0314170
474.426 .0313938
475.301 .0313767
476.175 .0313642
477.048 .0313576
477.920 .0313558
478.791 .0313625
479.661 .0313727
480.530 .0313904
481.398 .0314114
482.266 .0314362
483.132 .0314601
483.997 .0314801
484.861 .0314939
485.724 .0315009
486.587 .0315012
487.448 .0314928
488.308 .0314751
489.168 .0314524
490.026 .0314216
490.884 .0313874
491.741 .0313455
492.597 .0313001
493.452 .0312507
494.306 .0312004
495.159 .0311469
496.011 .0310904
496.862 .0310349
497.713 .0309784
498.562 .0309201
499.411 .0308636
500.259 .0308029
501.106 .0307399
501.952 .0306756
502.798 .0306144
503.642 .0305527
504.486 .0304945
505.329 .0304388
506.171 .0303850
507.012 .0303311
507.852 .0302738
508.692 .0302102
509.531 .0301409
510.369 .0300651
511.206 .0299785
512.043 .0298854
512.878 .0297889
513.713 .0296876
514.547 .0295887
515.381 .0294900
516.213 .0293881
517.045 .0292783
517.876 .0291605
518.706 .0290329
519.536 .0288951
520.365 .0287478
521.193 .0285885
522.020 .0284240
522.847 .0282550
523.673 .0280811
524.498 .0279100
525.323 .0277401
526.146 .0275707
526.969 .0274064
527.792 .0272395
528.614 .0270661
529.435 .0268934
530.255 .0267262
531.075 .0265553
531.894 .0263872
532.712 .0262178
533.530 .0260500
534.347 .0258912
535.163 .0257396
535.979 .0255947
536.794 .0254674
537.608 .0253617
538.422 .0252752
539.235 .0252146
540.048 .0251778
540.860 .0251549
541.671 .0251483
542.481 .0251467
543.292 .0251466
544.101 .0251492
544.910 .0251620
545.718 .0251868
546.526 .0252279
547.333 .0252844
548.139 .0253578
548.945 .0254503
549.750 .0255497
550.555 .0256458
551.359 .0257335
552.162 .0258055
552.965 .0258605
553.768 .0259004
554.569 .0259342
555.371 .0259643
556.171 .0260033
556.972 .0260499
557.771 .0261105
558.570 .0261824
559.369 .0262653
560.167 .0263538
560.964 .0264444
561.761 .0265293
562.558 .0266078
563.354 .0266840
564.149 .0267599
564.944 .0268363
565.738 .0269187
566.532 .0270085
567.325 .0271083
568.118 .0272131
568.910 .0273257
569.702 .0274433
570.494 .0275639
571.285 .0276785
572.075 .0277848
572.865 .0278801
573.654 .0279631
574.443 .0280348
575.232 .0280957
576.020 .0281501
576.807 .0282009
577.594 .0282510
578.381 .0283041
579.167 .0283601
579.952 .0284206
580.738 .0284851
581.522 .0285511
582.307 .0286165
583.091 .0286798
583.874 .0287406
584.657 .0287979
585.440 .0288528
586.222 .0289053
587.004 .0289544
587.785 .0290029
588.566 .0290507
589.346 .0290958
590.126 .0291388
590.906 .0291788
591.685 .0292135
592.464 .0292428
593.242 .0292674
594.020 .0292853
594.797 .0292982
595.575 .0293073
596.351 .0293121
597.128 .0293132
597.904 .0293107
598.679 .0293057
599.454 .0292975
600.229 .0292891
601.004 .0292792
601.778 .0292683
602.551 .0292579
603.325 .0292480
604.097 .0292386
604.870 .0292301
605.642 .0292224
606.414 .0292150
607.185 .0292068
607.956 .0291990
608.727 .0291893
609.497 .0291793
610.267 .0291689
611.037 .0291586
611.806 .0291470
612.575 .0291355
613.344 .0291232
614.112 .0291102
614.880 .0290965
615.647 .0290819
616.414 .0290657
617.181 .0290488
617.948 .0290311
618.714 .0290125
619.480 .0289931
620.245 .0289748
621.011 .0289557
621.775 .0289374
622.540 .0289189
623.304 .0289004
624.068 .0288822
624.832 .0288653
625.595 .0288491
626.358 .0288335
627.120 .0288190
627.883 .0288051
628.645 .0287917
629.406 .0287788
630.168 .0287657
630.929 .0287530
631.689 .0287407
632.450 .0287288
633.210 .0287170
633.970 .0287062
634.729 .0286960
635.489 .0286866
636.248 .0286777
637.006 .0286684
637.765 .0286584
638.523 .0286475
639.280 .0286353
640.038 .0286214
640.795 .0286063
641.552 .0285905
642.309 .0285743
643.065 .0285583
643.821 .0285423
644.577 .0285268
645.332 .0285119
646.088 .0284980
646.843 .0284846
647.597 .0284717
648.352 .0284594
649.106 .0284475
649.860 .0284357
650.613 .0284241
651.367 .0284131
652.120 .0284027
652.872 .0283934
653.625 .0283851
654.377 .0283777
655.129 .0283714
655.881 .0283664
656.632 .0283621
657.384 .0283583
658.135 .0283548
658.885 .0283504
659.636 .0283446
660.386 .0283381
661.136 .0283295
661.885 .0283198
662.635 .0283091
663.384 .0282978
664.133 .0282851
664.881 .0282722
665.630 .0282585
666.378 .0282444
667.126 .0282304
667.874 .0282155
668.621 .0281992
669.368 .0281822
670.115 .0281636
670.862 .0281440
671.608 .0281232
672.354 .0281027
673.100 .0280821
673.846 .0280629
674.591 .0280450
675.337 .0280286
676.082 .0280144
676.826 .0280022
677.571 .0279912
678.315 .0279809
679.059 .0279712
679.803 .0279616
680.547 .0279522
681.290 .0279432
682.033 .0279341
682.776 .0279252
683.518 .0279161
684.261 .0279067
685.003 .0278970
685.745 .0278865
686.487 .0278749
687.228 .0278621
687.969 .0278486
688.710 .0278338
689.451 .0278177
690.192 .0278013
690.932 .0277842
691.672 .0277664
692.412 .0277476
693.152 .0277280
693.891 .0277081
694.630 .0276888
695.369 .0276697
696.108 .0276515
696.846 .0276344
697.585 .0276186
698.323 .0276033
699.061 .0275889
699.798 .0275743
700.536 .0275598
701.273 .0275452
702.010 .0275308
702.746 .0275162
703.483 .0275022
704.219 .0274890
704.955 .0274771
705.691 .0274655
706.427 .0274533
707.162 .0274404
707.897 .0274271
708.632 .0274127
709.367 .0273978
710.101 .0273826
710.835 .0273682
711.569 .0273543
712.303 .0273414
713.037 .0273291
713.770 .0273175
714.503 .0273065
715.236 .0272949
715.969 .0272828
716.702 .0272701
717.434 .0272566
718.166 .0272428
718.898 .0272292
719.629 .0272155
720.361 .0272012
721.092 .0271863
721.823 .0271704
722.554 .0271528
723.284 .0271336
724.014 .0271122
724.744 .0270894
725.474 .0270652
726.204 .0270399
726.933 .0270138
727.662 .0269879
728.391 .0269620
729.120 .0269368
729.849 .0269117
730.577 .0268875
731.305 .0268633
732.033 .0268401
732.760 .0268170
733.488 .0267950
734.215 .0267743
734.942 .0267546
735.669 .0267359
736.395 .0267189
737.122 .0267032
737.848 .0266889
738.573 .0266754
739.299 .0266628
740.024 .0266501
740.750 .0266375
741.474 .0266236
742.199 .0266088
742.924 .0265929
743.648 .0265763
744.372 .0265583
745.096 .0265402
745.819 .0265221
746.543 .0265038
747.266 .0264864
747.989 .0264699
748.711 .0264542
749.434 .0264397
750.156 .0264263
750.878 .0264143
751.599 .0264037
752.321 .0263947
753.042 .0263874
753.763 .0263820
754.484 .0263786
755.205 .0263760
755.925 .0263747
756.645 .0263744
757.365 .0263744
758.085 .0263743
758.804 .0263736
759.523 .0263712
760.242 .0263671
760.961 .0263609
761.679 .0263525
762.397 .0263416
763.115 .0263283
763.833 .0263125
764.551 .0262947
765.268 .0262749
765.985 .0262533
766.702 .0262301
767.418 .0262064
768.134 .0261821
768.850 .0261574
769.566 .0261330
770.282 .0261088
770.997 .0260856
771.712 .0260631
772.427 .0260416
773.142 .0260211
773.856 .0260013
774.570 .0259824
775.284 .0259643
775.998 .0259473
776.711 .0259313
777.424 .0259162
778.137 .0259023
778.849 .0258891
779.562 .0258760
780.274 .0258629
780.986 .0258500
781.697 .0258370
782.409 .0258244
783.120 .0258117
783.831 .0257996
784.541 .0257886
785.252 .0257786
785.962 .0257695
786.671 .0257611
787.381 .0257531
788.090 .0257447
788.799 .0257356
789.508 .0257258
790.217 .0257151
790.925 .0257039
791.633 .0256927
792.341 .0256813
793.048 .0256702
793.755 .0256594
794.462 .0256486
795.169 .0256383
795.875 .0256283
796.581 .0256180
797.287 .0256074
797.993 .0255966
798.698 .0255856
799.403 .0255739
800.108 .0255619
800.812 .0255498
801.517 .0255373
802.221 .0255251
802.924 .0255130
803.628 .0255016
804.331 .0254916
805.034 .0254824
805.736 .0254738
806.439 .0254658
807.141 .0254576
807.843 .0254486
808.544 .0254385
809.245 .0254276
809.946 .0254154
810.647 .0254029
811.347 .0253905
812.047 .0253785
812.747 .0253675
813.447 .0253574
814.146 .0253473
814.845 .0253377
815.543 .0253275
816.242 .0253164
816.940 .0253042
817.638 .0252911
818.335 .0252772
819.032 .0252627
819.729 .0252484
820.426 .0252344
821.122 .0252207
821.818 .0252079
822.514 .0251949
823.209 .0251822
823.905 .0251693
824.599 .0251560
825.294 .0251419
825.988 .0251271
826.682 .0251118
827.376 .0250961
828.069 .0250802
828.762 .0250642
829.455 .0250479
830.147 .0250317
830.840 .0250156
831.531 .0249998
832.223 .0249845
832.914 .0249699
833.605 .0249557
834.296 .0249423
834.986 .0249294
835.676 .0249170
836.366 .0249050
837.055 .0248933
837.744 .0248823
838.433 .0248713
839.121 .0248610
839.809 .0248516
840.497 .0248429
841.185 .0248351
841.872 .0248274
842.559 .0248201
843.245 .0248124
843.932 .0248038
844.617 .0247944
845.303 .0247836
845.988 .0247719
846.673 .0247595
847.358 .0247469
848.042 .0247347
848.726 .0247233
849.410 .0247127
850.093 .0247026
850.776 .0246932
851.459 .0246834
852.141 .0246733
852.823 .0246628
853.505 .0246524
854.186 .0246415
854.867 .0246309
855.548 .0246207
856.228 .0246112
856.908 .0246021
857.588 .0245935
858.267 .0245846
858.946 .0245756
859.625 .0245662
860.303 .0245563
860.981 .0245460
861.659 .0245358
862.336 .0245250
863.013 .0245141
863.690 .0245028
864.366 .0244910
865.042 .0244789
865.718 .0244666
866.393 .0244543
867.068 .0244417
867.743 .0244290
868.417 .0244164
869.091 .0244034
869.765 .0243901
870.438 .0243761
871.111 .0243618
871.783 .0243472
872.456 .0243320
873.127 .0243164
873.799 .0243007
874.470 .0242850
875.141 .0242695
875.811 .0242543
876.481 .0242390
877.151 .0242241
877.820 .0242092
878.489 .0241946
879.158 .0241803
879.826 .0241667
880.494 .0241537
881.162 .0241417
881.829 .0241307
882.496 .0241199
883.163 .0241091
883.829 .0240990
884.495 .0240889
885.160 .0240793
885.825 .0240703
886.490 .0240621
887.154 .0240551
887.818 .0240494
888.482 .0240443
889.145 .0240398
889.808 .0240361
890.471 .0240322
891.133 .0240278
891.795 .0240230
892.456 .0240177
893.117 .0240120
893.778 .0240063
894.439 .0240005
895.099 .0239941
895.758 .0239874
896.417 .0239797
897.076 .0239704
897.735 .0239601
898.393 .0239484
899.051 .0239355
899.708 .0239216
900.365 .0239075
901.022 .0238932
901.678 .0238796
902.334 .0238665
902.990 .0238543
903.645 .0238428
904.300 .0238316
904.954 .0238204
905.608 .0238091
906.262 .0237980
906.915 .0237872
907.568 .0237767
908.221 .0237673
908.873 .0237585
909.525 .0237508
910.176 .0237437
910.828 .0237372
911.478 .0237309
912.129 .0237243
912.778 .0237170
913.428 .0237091
914.077 .0237003
914.726 .0236910
915.375 .0236812
916.023 .0236715
916.670 .0236620
917.318 .0236525
917.964 .0236431
918.611 .0236337
919.257 .0236242
919.903 .0236145
920.548 .0236043
921.193 .0235945
921.838 .0235850
922.482 .0235759
923.126 .0235674
923.770 .0235597
924.413 .0235532
925.056 .0235477
925.698 .0235432
926.340 .0235396
926.982 .0235367
927.623 .0235344
928.264 .0235319
928.904 .0235289
929.544 .0235254
930.184 .0235209
930.823 .0235158
931.462 .0235096
932.101 .0235024
932.739 .0234945
933.377 .0234860
934.014 .0234767
934.651 .0234668
935.288 .0234560
935.924 .0234442
936.560 .0234313
937.196 .0234177
937.831 .0234031
938.466 .0233883
939.100 .0233736
939.734 .0233593
940.368 .0233450
941.001 .0233314
941.634 .0233181
942.266 .0233055
942.899 .0232931
943.530 .0232800
944.162 .0232660
944.793 .0232515
945.423 .0232358
946.053 .0232191
946.683 .0232019
947.313 .0231848
947.942 .0231673
948.571 .0231500
949.199 .0231328
949.827 .0231162
950.455 .0231001
951.082 .0230847
951.709 .0230695
952.335 .0230548
952.961 .0230403
953.587 .0230261
954.212 .0230127
954.837 .0229998
955.462 .0229877
956.086 .0229761
956.710 .0229658
957.334 .0229565
957.957 .0229475
958.579 .0229393
959.202 .0229315
959.824 .0229233
960.445 .0229147
961.067 .0229059
961.688 .0228978
962.308 .0228899
962.928 .0228828
963.548 .0228763
964.168 .0228707
964.787 .0228658
965.406 .0228615
966.024 .0228573
966.642 .0228533
967.260 .0228488
967.877 .0228437
968.494 .0228379
969.110 .0228315
969.727 .0228244
970.342 .0228167
970.958 .0228086
971.573 .0228002
972.188 .0227914
972.802 .0227831
973.416 .0227751
974.030 .0227678
974.643 .0227612
975.256 .0227555
975.869 .0227510
976.481 .0227474
977.093 .0227450
977.705 .0227438
978.316 .0227434
978.927 .0227439
979.538 .0227455
980.148 .0227476
980.758 .0227499
981.367 .0227529
981.977 .0227561
982.586 .0227593
983.194 .0227629
983.802 .0227663
984.410 .0227694
985.018 .0227722
985.625 .0227740
986.232 .0227748
986.838 .0227749
987.445 .0227742
988.050 .0227722
988.656 .0227700
989.261 .0227677
989.866 .0227648
990.471 .0227619
991.075 .0227596
991.679 .0227574
992.282 .0227552
992.886 .0227530
993.489 .0227509
994.091 .0227490
994.694 .0227472
995.296 .0227450
995.897 .0227429
996.499 .0227401
997.100 .0227372
997.701 .0227336
998.301 .0227301
998.901 .0227263
999.501 .0227227
1000.101 .0227196
1000.700 .0227166
1001.299 .0227136
1001.898 .0227105
1002.496 .0227073
1003.094 .0227041
1003.692 .0227005
1004.289 .0226963
1004.887 .0226922
1005.484 .0226885
1006.080 .0226848
1006.677 .0226816
1007.273 .0226790
1007.868 .0226776
1008.464 .0226773
1009.059 .0226783
1009.654 .0226804
1010.249 .0226832
1010.843 .0226874
1011.437 .0226921
1012.031 .0226970
1012.625 .0227019
1013.218 .0227067
1013.811 .0227113
1014.404 .0227157
1014.997 .0227199
1015.589 .0227240
1016.181 .0227279
1016.773 .0227314
1017.365 .0227340
1017.956 .0227354
1018.547 .0227353
1019.138 .0227336
1019.728 .0227308
1020.319 .0227272
1020.909 .0227232
1021.499 .0227201
1022.088 .0227181
1022.678 .0227174
1023.267 .0227183
1023.856 .0227193
1024.445 .0227201
1025.033 .0227202
1025.621 .0227191
1026.209 .0227168
1026.797 .0227139
1027.385 .0227110
1027.972 .0227083
1028.560 .0227068
1029.147 .0227063
1029.734 .0227060
1030.320 .0227062
1030.907 .0227060
1031.493 .0227044
1032.079 .0227013
1032.665 .0226971
1033.250 .0226910
1033.836 .0226842
1034.421 .0226773
1035.006 .0226707
1035.591 .0226641
1036.176 .0226585
1036.761 .0226530
1037.345 .0226471
1037.929 .0226408
1038.514 .0226335
1039.097 .0226256
1039.681 .0226181
1040.265 .0226109
1040.848 .0226047
1041.432 .0226001
1042.015 .0225980
1042.598 .0225969
1043.181 .0225974
1043.764 .0225992
1044.346 .0226013
1044.929 .0226029
1045.511 .0226046
1046.094 .0226056
1046.676 .0226069
1047.258 .0226080
1047.840 .0226096
1048.422 .0226116
1049.003 .0226139
1049.585 .0226162
1050.166 .0226177
1050.748 .0226192
1051.329 .0226201
1051.910 .0226192
1052.491 .0226182
1053.072 .0226165
1053.653 .0226141
1054.234 .0226122
1054.815 .0226104
1055.396 .0226096
1055.976 .0226098
1056.557 .0226099
1057.138 .0226099
1057.718 .0226106
1058.298 .0226108
1058.879 .0226100
1059.459 .0226084
1060.039 .0226065
1060.620 .0226019
1061.200 .0225963
1061.780 .0225893
1062.360 .0225795
1062.940 .0225695
1063.520 .0225585
1064.101 .0225452
1064.681 .0225311
1065.261 .0225157
1065.841 .0224987
1066.421 .0224817
1067.001 .0224640
1067.581 .0224454
1068.161 .0224264
1068.741 .0224097
1069.321 .0223932
1069.901 .0223781
1070.482 .0223662
1071.062 .0223558
1071.642 .0223467
1072.222 .0223390
1072.803 .0223303
1073.383 .0223216
1073.963 .0223124
1074.544 .0223030
1075.124 .0222928
1075.705 .0222837
1076.286 .0222752
1076.866 .0222681
1077.447 .0222619
1078.028 .0222565
1078.609 .0222509
1079.190 .0222441
1079.771 .0222357
1080.352 .0222251
1080.934 .0222126
1081.515 .0221992
1082.097 .0221866
1082.679 .0221756
1083.260 .0221660
1083.842 .0221599
1084.424 .0221572
1085.007 .0221573
1085.589 .0221591
1086.172 .0221626
1086.754 .0221657
1087.337 .0221689
1087.920 .0221737
1088.503 .0221779
1089.087 .0221850
1089.670 .0221950
1090.254 .0222069
1090.838 .0222203
1091.422 .0222359
1092.006 .0222515
1092.590 .0222651
1093.175 .0222783
1093.760 .0222890
1094.345 .0222948
1094.930 .0222981
1095.516 .0222991
1096.102 .0222986
1096.688 .0222999
1097.274 .0223014
1097.860 .0223025
1098.447 .0223051
1099.034 .0223080
1099.622 .0223060
1100.209 .0223013
1100.797 .0222935
1101.385 .0222812
1101.973 .0222663
1102.562 .0222505
1103.151 .0222334
1103.740 .0222185
1104.330 .0222064
1104.920 .0221964
1105.510 .0221854
1106.101 .0221750
1106.691 .0221600
1107.283 .0221427
1107.874 .0221209
1108.466 .0220936
1109.058 .0220632
1109.651 .0220349
1110.244 .0220070
1110.837 .0219822
1111.431 .0219609
1112.025 .0219432
1112.620 .0219275
1113.215 .0219147
1113.810 .0219015
1114.406 .0218905
1115.002 .0218799
1115.599 .0218695
1116.196 .0218566
1116.793 .0218477
1117.391 .0218417
1117.989 .0218390
1118.588 .0218409
1119.187 .0218457
1119.787 .0218528
1120.387 .0218624
1120.988 .0218719
1121.589 .0218821
1122.190 .0218923
1122.793 .0219019
1123.395 .0219047
1123.998 .0219042
1124.602 .0219000
1125.206 .0218928
1125.811 .0218850
1126.416 .0218771
1127.022 .0218705
1127.628 .0218672
1128.235 .0218682
1128.843 .0218762
1129.451 .0218910
1130.059 .0219133
1130.669 .0219393
1131.278 .0219688
1131.889 .0219966
1132.500 .0220244
1133.112 .0220531
1133.724 .0220872
1134.337 .0221250
1134.950 .0221660
1135.564 .0222087
1136.179 .0222568
1136.795 .0223084
1137.411 .0223627
1138.028 .0224172
1138.645 .0224728
1139.263 .0225264
1139.882 .0225812
1140.502 .0226331
1141.122 .0226845
1141.743 .0227453
1142.365 .0228348
1142.987 .0228953
1143.611 .0228899
1144.235 .0228767
1144.859 .0232242
1145.485 .0239485
