Measurement Sequence started on: 10-20-44-796
Integration time: 35
Scans to Average: 2 
>>>>>Begin Spectral Data<<<<<
432.953 .0421586
433.882 .0385274
434.810 .0343162
435.737 .0314907
436.662 .0299657
437.586 .0311065
438.509 .0301062
439.431 .0294253
440.351 .0289950
441.269 .0287216
442.187 .0285487
443.103 .0284261
444.018 .0283825
444.932 .0284023
445.844 .0284585
446.756 .0285532
447.666 .0286615
448.575 .0287723
449.482 .0288885
450.388 .0289962
451.294 .0291055
452.198 .0292119
453.100 .0293208
454.002 .0294297
454.902 .0295491
455.801 .0296683
456.699 .0297863
457.596 .0299036
458.492 .0300131
459.387 .0301081
460.280 .0301964
461.172 .0302569
462.064 .0302997
462.954 .0303239
463.843 .0303318
464.730 .0303218
465.617 .0303036
466.503 .0302791
467.387 .0302507
468.271 .0302207
469.153 .0301928
470.035 .0301679
470.915 .0301469
471.794 .0301276
472.673 .0301096
473.550 .0300940
474.426 .0300840
475.301 .0300734
476.175 .0300657
477.048 .0300559
477.920 .0300462
478.791 .0300355
479.661 .0300252
480.530 .0300142
481.398 .0300016
482.266 .0299928
483.132 .0299880
483.997 .0299838
484.861 .0299784
485.724 .0299761
486.587 .0299748
487.448 .0299686
488.308 .0299551
489.168 .0299341
490.026 .0299085
490.884 .0298777
491.741 .0298409
492.597 .0297997
493.452 .0297589
494.306 .0297205
495.159 .0296856
496.011 .0296567
496.862 .0296331
497.713 .0296092
498.562 .0295836
499.411 .0295518
500.259 .0295104
501.106 .0294593
501.952 .0294009
502.798 .0293360
503.642 .0292673
504.486 .0291948
505.329 .0291245
506.171 .0290580
507.012 .0289963
507.852 .0289335
508.692 .0288661
509.531 .0287873
510.369 .0286914
511.206 .0285782
512.043 .0284495
512.878 .0283023
513.713 .0281448
514.547 .0279789
515.381 .0278090
516.213 .0276392
517.045 .0274730
517.876 .0273048
518.706 .0271384
519.536 .0269733
520.365 .0268058
521.193 .0266362
522.020 .0264702
522.847 .0263072
523.673 .0261510
524.498 .0260066
525.323 .0258671
526.146 .0257326
526.969 .0256119
527.792 .0254924
528.614 .0253678
529.435 .0252425
530.255 .0251182
531.075 .0249890
531.894 .0248644
532.712 .0247483
533.530 .0246332
534.347 .0245289
535.163 .0244324
535.979 .0243414
536.794 .0242553
537.608 .0241736
538.422 .0240994
539.235 .0240266
540.048 .0239640
540.860 .0239097
541.671 .0238673
542.481 .0238488
543.292 .0238414
544.101 .0238459
544.910 .0238624
545.718 .0238905
546.526 .0239268
547.333 .0239674
548.139 .0240200
548.945 .0240807
549.750 .0241458
550.555 .0242245
551.359 .0243115
552.162 .0244074
552.965 .0245068
553.768 .0246033
554.569 .0246946
555.371 .0247783
556.171 .0248489
556.972 .0249151
557.771 .0249761
558.570 .0250395
559.369 .0251036
560.167 .0251743
560.964 .0252526
561.761 .0253359
562.558 .0254198
563.354 .0255047
564.149 .0255823
564.944 .0256573
565.738 .0257221
566.532 .0257853
567.325 .0258478
568.118 .0259118
568.910 .0259799
569.702 .0260564
570.494 .0261404
571.285 .0262301
572.075 .0263225
572.865 .0264175
573.654 .0265113
574.443 .0266048
575.232 .0266930
576.020 .0267790
576.807 .0268621
577.594 .0269446
578.381 .0270224
579.167 .0270991
579.952 .0271770
580.738 .0272554
581.522 .0273350
582.307 .0274159
583.091 .0274989
583.874 .0275820
584.657 .0276621
585.440 .0277392
586.222 .0278091
587.004 .0278720
587.785 .0279276
588.566 .0279779
589.346 .0280231
590.126 .0280650
590.906 .0281035
591.685 .0281398
592.464 .0281738
593.242 .0282041
594.020 .0282311
594.797 .0282543
595.575 .0282738
596.351 .0282875
597.128 .0282965
597.904 .0283017
598.679 .0283033
599.454 .0283021
600.229 .0282992
601.004 .0282951
601.778 .0282903
602.551 .0282852
603.325 .0282797
604.097 .0282735
604.870 .0282673
605.642 .0282593
606.414 .0282503
607.185 .0282388
607.956 .0282258
608.727 .0282115
609.497 .0281967
610.267 .0281813
611.037 .0281667
611.806 .0281528
612.575 .0281393
613.344 .0281251
614.112 .0281107
614.880 .0280946
615.647 .0280766
616.414 .0280573
617.181 .0280372
617.948 .0280172
618.714 .0279990
619.480 .0279820
620.245 .0279679
621.011 .0279564
621.775 .0279469
622.540 .0279385
623.304 .0279312
624.068 .0279245
624.832 .0279177
625.595 .0279112
626.358 .0279054
627.120 .0279000
627.883 .0278953
628.645 .0278910
629.406 .0278869
630.168 .0278830
630.929 .0278790
631.689 .0278749
632.450 .0278706
633.210 .0278649
633.970 .0278580
634.729 .0278498
635.489 .0278394
636.248 .0278267
637.006 .0278114
637.765 .0277934
638.523 .0277736
639.280 .0277532
640.038 .0277326
640.795 .0277131
641.552 .0276963
642.309 .0276820
643.065 .0276690
643.821 .0276577
644.577 .0276463
645.332 .0276345
646.088 .0276225
646.843 .0276088
647.597 .0275938
648.352 .0275793
649.106 .0275657
649.860 .0275530
650.613 .0275423
651.367 .0275336
652.120 .0275262
652.872 .0275193
653.625 .0275127
654.377 .0275052
655.129 .0274967
655.881 .0274876
656.632 .0274768
657.384 .0274652
658.135 .0274536
658.885 .0274422
659.636 .0274320
660.386 .0274227
661.136 .0274150
661.885 .0274074
662.635 .0274009
663.384 .0273950
664.133 .0273882
664.881 .0273803
665.630 .0273713
666.378 .0273605
667.126 .0273481
667.874 .0273346
668.621 .0273206
669.368 .0273067
670.115 .0272943
670.862 .0272829
671.608 .0272734
672.354 .0272661
673.100 .0272603
673.846 .0272543
674.591 .0272481
675.337 .0272408
676.082 .0272320
676.826 .0272222
677.571 .0272123
678.315 .0272026
679.059 .0271944
679.803 .0271878
680.547 .0271824
681.290 .0271782
682.033 .0271740
682.776 .0271685
683.518 .0271610
684.261 .0271511
685.003 .0271384
685.745 .0271238
686.487 .0271089
687.228 .0270940
687.969 .0270793
688.710 .0270654
689.451 .0270526
690.192 .0270402
690.932 .0270273
691.672 .0270136
692.412 .0269984
693.152 .0269822
693.891 .0269650
694.630 .0269474
695.369 .0269305
696.108 .0269146
696.846 .0268996
697.585 .0268851
698.323 .0268712
699.061 .0268575
699.798 .0268436
700.536 .0268299
701.273 .0268157
702.010 .0268010
702.746 .0267860
703.483 .0267712
704.219 .0267566
704.955 .0267429
705.691 .0267293
706.427 .0267165
707.162 .0267038
707.897 .0266910
708.632 .0266779
709.367 .0266641
710.101 .0266501
710.835 .0266353
711.569 .0266196
712.303 .0266038
713.037 .0265876
713.770 .0265720
714.503 .0265569
715.236 .0265424
715.969 .0265282
716.702 .0265139
717.434 .0264998
718.166 .0264852
718.898 .0264702
719.629 .0264554
720.361 .0264405
721.092 .0264259
721.823 .0264121
722.554 .0263985
723.284 .0263858
724.014 .0263734
724.744 .0263605
725.474 .0263468
726.204 .0263320
726.933 .0263159
727.662 .0262984
728.391 .0262798
729.120 .0262611
729.849 .0262421
730.577 .0262236
731.305 .0262048
732.033 .0261859
732.760 .0261672
733.488 .0261480
734.215 .0261281
734.942 .0261079
735.669 .0260875
736.395 .0260673
737.122 .0260475
737.848 .0260286
738.573 .0260110
739.299 .0259947
740.024 .0259796
740.750 .0259652
741.474 .0259507
742.199 .0259362
742.924 .0259214
743.648 .0259065
744.372 .0258917
745.096 .0258771
745.819 .0258633
746.543 .0258503
747.266 .0258390
747.989 .0258286
748.711 .0258191
749.434 .0258109
750.156 .0258034
750.878 .0257964
751.599 .0257907
752.321 .0257859
753.042 .0257831
753.763 .0257816
754.484 .0257812
755.205 .0257810
755.925 .0257811
756.645 .0257800
757.365 .0257773
758.085 .0257727
758.804 .0257660
759.523 .0257567
760.242 .0257459
760.961 .0257333
761.679 .0257195
762.397 .0257046
763.115 .0256883
763.833 .0256703
764.551 .0256510
765.268 .0256300
765.985 .0256074
766.702 .0255843
767.418 .0255612
768.134 .0255382
768.850 .0255164
769.566 .0254958
770.282 .0254766
770.997 .0254582
771.712 .0254406
772.427 .0254231
773.142 .0254061
773.856 .0253895
774.570 .0253735
775.284 .0253581
775.998 .0253434
776.711 .0253295
777.424 .0253155
778.137 .0253023
778.849 .0252890
779.562 .0252748
780.274 .0252603
780.986 .0252448
781.697 .0252287
782.409 .0252124
783.120 .0251961
783.831 .0251798
784.541 .0251638
785.252 .0251481
785.962 .0251321
786.671 .0251164
787.381 .0251014
788.090 .0250866
788.799 .0250723
789.508 .0250589
790.217 .0250456
790.925 .0250331
791.633 .0250212
792.341 .0250095
793.048 .0249980
793.755 .0249865
794.462 .0249749
795.169 .0249631
795.875 .0249518
796.581 .0249407
797.287 .0249298
797.993 .0249193
798.698 .0249087
799.403 .0248975
800.108 .0248857
800.812 .0248734
801.517 .0248600
802.221 .0248457
802.924 .0248310
803.628 .0248160
804.331 .0248010
805.034 .0247867
805.736 .0247730
806.439 .0247599
807.141 .0247477
807.843 .0247363
808.544 .0247248
809.245 .0247133
809.946 .0247018
810.647 .0246898
811.347 .0246778
812.047 .0246656
812.747 .0246533
813.447 .0246417
814.146 .0246303
814.845 .0246191
815.543 .0246079
816.242 .0245970
816.940 .0245860
817.638 .0245740
818.335 .0245618
819.032 .0245491
819.729 .0245362
820.426 .0245232
821.122 .0245103
821.818 .0244974
822.514 .0244849
823.209 .0244725
823.905 .0244602
824.599 .0244476
825.294 .0244350
825.988 .0244216
826.682 .0244080
827.376 .0243942
828.069 .0243803
828.762 .0243662
829.455 .0243524
830.147 .0243384
830.840 .0243243
831.531 .0243097
832.223 .0242952
832.914 .0242809
833.605 .0242667
834.296 .0242526
834.986 .0242390
835.676 .0242259
836.366 .0242134
837.055 .0242010
837.744 .0241895
838.433 .0241779
839.121 .0241667
839.809 .0241556
840.497 .0241451
841.185 .0241355
841.872 .0241264
842.559 .0241179
843.245 .0241101
843.932 .0241026
844.617 .0240954
845.303 .0240880
845.988 .0240809
846.673 .0240736
847.358 .0240665
848.042 .0240592
848.726 .0240523
849.410 .0240460
850.093 .0240402
850.776 .0240347
851.459 .0240298
852.141 .0240245
852.823 .0240190
853.505 .0240135
854.186 .0240077
854.867 .0240012
855.548 .0239941
856.228 .0239861
856.908 .0239778
857.588 .0239688
858.267 .0239596
858.946 .0239498
859.625 .0239401
860.303 .0239302
860.981 .0239200
861.659 .0239098
862.336 .0238998
863.013 .0238898
863.690 .0238802
864.366 .0238701
865.042 .0238599
865.718 .0238497
866.393 .0238399
867.068 .0238303
867.743 .0238210
868.417 .0238123
869.091 .0238038
869.765 .0237955
870.438 .0237875
871.111 .0237794
871.783 .0237712
872.456 .0237625
873.127 .0237533
873.799 .0237436
874.470 .0237332
875.141 .0237224
875.811 .0237119
876.481 .0237017
877.151 .0236919
877.820 .0236829
878.489 .0236747
879.158 .0236677
879.826 .0236607
880.494 .0236539
881.162 .0236469
881.829 .0236398
882.496 .0236319
883.163 .0236231
883.829 .0236143
884.495 .0236054
885.160 .0235965
885.825 .0235888
886.490 .0235820
887.154 .0235766
887.818 .0235722
888.482 .0235680
889.145 .0235637
889.808 .0235594
890.471 .0235536
891.133 .0235470
891.795 .0235395
892.456 .0235312
893.117 .0235221
893.778 .0235135
894.439 .0235054
895.099 .0234974
895.758 .0234901
896.417 .0234827
897.076 .0234745
897.735 .0234657
898.393 .0234553
899.051 .0234439
899.708 .0234321
900.365 .0234203
901.022 .0234082
901.678 .0233975
902.334 .0233881
902.990 .0233800
903.645 .0233732
904.300 .0233675
904.954 .0233619
905.608 .0233564
906.262 .0233504
906.915 .0233439
907.568 .0233368
908.221 .0233296
908.873 .0233221
909.525 .0233149
910.176 .0233077
910.828 .0233005
911.478 .0232932
912.129 .0232858
912.778 .0232775
913.428 .0232684
914.077 .0232584
914.726 .0232474
915.375 .0232360
916.023 .0232248
916.670 .0232141
917.318 .0232039
917.964 .0231942
918.611 .0231847
919.257 .0231751
919.903 .0231646
920.548 .0231528
921.193 .0231402
921.838 .0231271
922.482 .0231137
923.126 .0231005
923.770 .0230885
924.413 .0230775
925.056 .0230677
925.698 .0230592
926.340 .0230509
926.982 .0230428
927.623 .0230342
928.264 .0230252
928.904 .0230157
929.544 .0230060
930.184 .0229961
930.823 .0229866
931.462 .0229778
932.101 .0229694
932.739 .0229606
933.377 .0229517
934.014 .0229419
934.651 .0229308
935.288 .0229183
935.924 .0229044
936.560 .0228891
937.196 .0228730
937.831 .0228555
938.466 .0228372
939.100 .0228181
939.734 .0227988
940.368 .0227791
941.001 .0227595
941.634 .0227407
942.266 .0227231
942.899 .0227063
943.530 .0226905
944.162 .0226749
944.793 .0226592
945.423 .0226426
946.053 .0226247
946.683 .0226053
947.313 .0225854
947.942 .0225651
948.571 .0225448
949.199 .0225251
949.827 .0225062
950.455 .0224874
951.082 .0224691
951.709 .0224505
952.335 .0224312
952.961 .0224109
953.587 .0223899
954.212 .0223681
954.837 .0223464
955.462 .0223253
956.086 .0223054
956.710 .0222880
957.334 .0222726
957.957 .0222585
958.579 .0222456
959.202 .0222338
959.824 .0222217
960.445 .0222096
961.067 .0221972
961.688 .0221844
962.308 .0221718
962.928 .0221595
963.548 .0221475
964.168 .0221361
964.787 .0221260
965.406 .0221166
966.024 .0221080
966.642 .0221008
967.260 .0220939
967.877 .0220880
968.494 .0220831
969.110 .0220786
969.727 .0220744
970.342 .0220709
970.958 .0220676
971.573 .0220646
972.188 .0220625
972.802 .0220609
973.416 .0220598
974.030 .0220592
974.643 .0220585
975.256 .0220573
975.869 .0220557
976.481 .0220531
977.093 .0220492
977.705 .0220452
978.316 .0220404
978.927 .0220356
979.538 .0220311
980.148 .0220271
980.758 .0220230
981.367 .0220192
981.977 .0220155
982.586 .0220117
983.194 .0220080
983.802 .0220040
984.410 .0219998
985.018 .0219953
985.625 .0219908
986.232 .0219865
986.838 .0219821
987.445 .0219786
988.050 .0219750
988.656 .0219718
989.261 .0219685
989.866 .0219648
990.471 .0219610
991.075 .0219571
991.679 .0219532
992.282 .0219490
992.886 .0219447
993.489 .0219409
994.091 .0219379
994.694 .0219356
995.296 .0219345
995.897 .0219337
996.499 .0219335
997.100 .0219333
997.701 .0219326
998.301 .0219319
998.901 .0219311
999.501 .0219305
1000.101 .0219302
1000.700 .0219300
1001.299 .0219303
1001.898 .0219308
1002.496 .0219322
1003.094 .0219342
1003.692 .0219364
1004.289 .0219382
1004.887 .0219400
1005.484 .0219415
1006.080 .0219428
1006.677 .0219433
1007.273 .0219441
1007.868 .0219450
1008.464 .0219459
1009.059 .0219475
1009.654 .0219498
1010.249 .0219533
1010.843 .0219585
1011.437 .0219649
1012.031 .0219724
1012.625 .0219804
1013.218 .0219893
1013.811 .0219979
1014.404 .0220065
1014.997 .0220150
1015.589 .0220231
1016.181 .0220311
1016.773 .0220396
1017.365 .0220477
1017.956 .0220550
1018.547 .0220619
1019.138 .0220671
1019.728 .0220706
1020.319 .0220724
1020.909 .0220724
1021.499 .0220709
1022.088 .0220688
1022.678 .0220664
1023.267 .0220636
1023.856 .0220615
1024.445 .0220600
1025.033 .0220586
1025.621 .0220578
1026.209 .0220567
1026.797 .0220555
1027.385 .0220546
1027.972 .0220544
1028.560 .0220543
1029.147 .0220548
1029.734 .0220563
1030.320 .0220581
1030.907 .0220604
1031.493 .0220639
1032.079 .0220678
1032.665 .0220724
1033.250 .0220772
1033.836 .0220815
1034.421 .0220857
1035.006 .0220902
1035.591 .0220939
1036.176 .0220975
1036.761 .0221012
1037.345 .0221053
1037.929 .0221091
1038.514 .0221140
1039.097 .0221196
1039.681 .0221260
1040.265 .0221328
1040.848 .0221398
1041.432 .0221460
1042.015 .0221518
1042.598 .0221563
1043.181 .0221604
1043.764 .0221643
1044.346 .0221678
1044.929 .0221716
1045.511 .0221761
1046.094 .0221815
1046.676 .0221876
1047.258 .0221930
1047.840 .0221987
1048.422 .0222031
1049.003 .0222059
1049.585 .0222074
1050.166 .0222081
1050.748 .0222083
1051.329 .0222079
1051.910 .0222069
1052.491 .0222053
1053.072 .0222028
1053.653 .0221986
1054.234 .0221936
1054.815 .0221872
1055.396 .0221801
1055.976 .0221725
1056.557 .0221650
1057.138 .0221586
1057.718 .0221530
1058.298 .0221490
1058.879 .0221466
1059.459 .0221451
1060.039 .0221450
1060.620 .0221442
1061.200 .0221435
1061.780 .0221432
1062.360 .0221429
1062.940 .0221434
1063.520 .0221454
1064.101 .0221478
1064.681 .0221501
1065.261 .0221519
1065.841 .0221513
1066.421 .0221491
1067.001 .0221437
1067.581 .0221354
1068.161 .0221241
1068.741 .0221128
1069.321 .0221020
1069.901 .0220928
1070.482 .0220862
1071.062 .0220823
1071.642 .0220797
1072.222 .0220778
1072.803 .0220743
1073.383 .0220698
1073.963 .0220640
1074.544 .0220576
1075.124 .0220507
1075.705 .0220449
1076.286 .0220401
1076.866 .0220376
1077.447 .0220362
1078.028 .0220361
1078.609 .0220362
1079.190 .0220350
1079.771 .0220313
1080.352 .0220258
1080.934 .0220183
1081.515 .0220089
1082.097 .0220009
1082.679 .0219936
1083.260 .0219873
1083.842 .0219812
1084.424 .0219759
1085.007 .0219702
1085.589 .0219645
1086.172 .0219587
1086.754 .0219536
1087.337 .0219496
1087.920 .0219471
1088.503 .0219439
1089.087 .0219417
1089.670 .0219392
1090.254 .0219352
1090.838 .0219269
1091.422 .0219162
1092.006 .0219022
1092.590 .0218881
1093.175 .0218731
1093.760 .0218599
1094.345 .0218477
1094.930 .0218376
1095.516 .0218291
1096.102 .0218203
1096.688 .0218109
1097.274 .0218028
1097.860 .0217949
1098.447 .0217866
1099.034 .0217777
1099.622 .0217705
1100.209 .0217652
1100.797 .0217627
1101.385 .0217607
1101.973 .0217591
1102.562 .0217574
1103.151 .0217547
1103.740 .0217507
1104.330 .0217454
1104.920 .0217384
1105.510 .0217287
1106.101 .0217172
1106.691 .0217029
1107.283 .0216859
1107.874 .0216655
1108.466 .0216445
1109.058 .0216244
1109.651 .0216031
1110.244 .0215817
1110.837 .0215616
1111.431 .0215438
1112.025 .0215272
1112.620 .0215110
1113.215 .0214973
1113.810 .0214855
1114.406 .0214778
1115.002 .0214737
1115.599 .0214748
1116.196 .0214805
1116.793 .0214887
1117.391 .0214976
1117.989 .0215061
1118.588 .0215136
1119.187 .0215176
1119.787 .0215182
1120.387 .0215162
1120.988 .0215137
1121.589 .0215130
1122.190 .0215127
1122.793 .0215149
1123.395 .0215183
1123.998 .0215237
1124.602 .0215291
1125.206 .0215329
1125.811 .0215358
1126.416 .0215388
1127.022 .0215448
1127.628 .0215515
1128.235 .0215600
1128.843 .0215741
1129.451 .0215925
1130.059 .0216156
1130.669 .0216401
1131.278 .0216650
1131.889 .0216864
1132.500 .0217035
1133.112 .0217173
1133.724 .0217285
1134.337 .0217389
1134.950 .0217491
1135.564 .0217600
1136.179 .0217725
1136.795 .0217867
1137.411 .0218026
1138.028 .0218199
1138.645 .0218381
1139.263 .0218554
1139.882 .0218723
1140.502 .0219058
1141.122 .0219437
1141.743 .0220020
1142.365 .0220864
1142.987 .0220086
1143.611 .0224933
1144.235 .0222454
1144.859 .0225523
1145.485 .0229149
