Measurement Sequence started on: 10-20-44-796
Integration time: 35
Scans to Average: 2 
>>>>>Begin Spectral Data<<<<<
432.953 .0367350
433.882 .0353059
434.810 .0342664
435.737 .0332516
436.662 .0316104
437.586 .0328577
438.509 .0325621
439.431 .0323929
440.351 .0323040
441.269 .0322527
442.187 .0322407
443.103 .0322019
444.018 .0321762
444.932 .0321567
445.844 .0321659
446.756 .0321909
447.666 .0322372
448.575 .0322943
449.482 .0323544
450.388 .0324106
451.294 .0324693
452.198 .0325163
453.100 .0325577
454.002 .0325936
454.902 .0326283
455.801 .0326686
456.699 .0327136
457.596 .0327591
458.492 .0328071
459.387 .0328515
460.280 .0328891
461.172 .0329161
462.064 .0329355
462.954 .0329456
463.843 .0329510
464.730 .0329545
465.617 .0329522
466.503 .0329504
467.387 .0329431
468.271 .0329297
469.153 .0329109
470.035 .0328845
470.915 .0328450
471.794 .0327956
472.673 .0327420
473.550 .0326854
474.426 .0326344
475.301 .0325885
476.175 .0325463
477.048 .0325069
477.920 .0324684
478.791 .0324257
479.661 .0323786
480.530 .0323315
481.398 .0322807
482.266 .0322299
483.132 .0321849
483.997 .0321445
484.861 .0321125
485.724 .0320937
486.587 .0320828
487.448 .0320760
488.308 .0320726
489.168 .0320678
490.026 .0320607
490.884 .0320524
491.741 .0320417
492.597 .0320280
493.452 .0320126
494.306 .0319960
495.159 .0319758
496.011 .0319548
496.862 .0319313
497.713 .0319030
498.562 .0318683
499.411 .0318281
500.259 .0317783
501.106 .0317244
501.952 .0316640
502.798 .0316004
503.642 .0315324
504.486 .0314601
505.329 .0313814
506.171 .0312981
507.012 .0312092
507.852 .0311163
508.692 .0310169
509.531 .0309140
510.369 .0308055
511.206 .0306963
512.043 .0305831
512.878 .0304686
513.713 .0303492
514.547 .0302274
515.381 .0300967
516.213 .0299570
517.045 .0298029
517.876 .0296354
518.706 .0294558
519.536 .0292710
520.365 .0290791
521.193 .0288837
522.020 .0286902
522.847 .0285020
523.673 .0283154
524.498 .0281316
525.323 .0279512
526.146 .0277722
526.969 .0275928
527.792 .0274147
528.614 .0272343
529.435 .0270639
530.255 .0269049
531.075 .0267596
531.894 .0266314
532.712 .0265189
533.530 .0264169
534.347 .0263224
535.163 .0262352
535.979 .0261506
536.794 .0260625
537.608 .0259732
538.422 .0258863
539.235 .0258077
540.048 .0257367
540.860 .0256804
541.671 .0256410
542.481 .0256186
543.292 .0256067
544.101 .0256072
544.910 .0256182
545.718 .0256358
546.526 .0256581
547.333 .0256832
548.139 .0257105
548.945 .0257431
549.750 .0257804
550.555 .0258237
551.359 .0258760
552.162 .0259402
552.965 .0260095
553.768 .0260853
554.569 .0261659
555.371 .0262457
556.171 .0263184
556.972 .0263898
557.771 .0264566
558.570 .0265209
559.369 .0265883
560.167 .0266578
560.964 .0267347
561.761 .0268207
562.558 .0269122
563.354 .0270076
564.149 .0271013
564.944 .0271895
565.738 .0272648
566.532 .0273318
567.325 .0273890
568.118 .0274400
568.910 .0274920
569.702 .0275475
570.494 .0276124
571.285 .0276861
572.075 .0277686
572.865 .0278570
573.654 .0279486
574.443 .0280388
575.232 .0281266
576.020 .0282126
576.807 .0282945
577.594 .0283762
578.381 .0284576
579.167 .0285382
579.952 .0286172
580.738 .0286945
581.522 .0287692
582.307 .0288383
583.091 .0289055
583.874 .0289682
584.657 .0290275
585.440 .0290820
586.222 .0291294
587.004 .0291719
587.785 .0292088
588.566 .0292399
589.346 .0292643
590.126 .0292843
590.906 .0293017
591.685 .0293167
592.464 .0293303
593.242 .0293427
594.020 .0293545
594.797 .0293642
595.575 .0293719
596.351 .0293766
597.128 .0293783
597.904 .0293780
598.679 .0293764
599.454 .0293740
600.229 .0293715
601.004 .0293706
601.778 .0293711
602.551 .0293724
603.325 .0293741
604.097 .0293749
604.870 .0293742
605.642 .0293714
606.414 .0293661
607.185 .0293580
607.956 .0293481
608.727 .0293363
609.497 .0293230
610.267 .0293087
611.037 .0292932
611.806 .0292767
612.575 .0292585
613.344 .0292387
614.112 .0292170
614.880 .0291935
615.647 .0291693
616.414 .0291449
617.181 .0291208
617.948 .0290983
618.714 .0290775
619.480 .0290590
620.245 .0290427
621.011 .0290280
621.775 .0290147
622.540 .0290020
623.304 .0289894
624.068 .0289760
624.832 .0289620
625.595 .0289480
626.358 .0289332
627.120 .0289173
627.883 .0289005
628.645 .0288833
629.406 .0288657
630.168 .0288481
630.929 .0288302
631.689 .0288128
632.450 .0287953
633.210 .0287774
633.970 .0287589
634.729 .0287396
635.489 .0287195
636.248 .0286991
637.006 .0286786
637.765 .0286581
638.523 .0286387
639.280 .0286214
640.038 .0286060
640.795 .0285930
641.552 .0285807
642.309 .0285689
643.065 .0285574
643.821 .0285454
644.577 .0285317
645.332 .0285172
646.088 .0285018
646.843 .0284855
647.597 .0284683
648.352 .0284505
649.106 .0284323
649.860 .0284140
650.613 .0283954
651.367 .0283765
652.120 .0283578
652.872 .0283396
653.625 .0283216
654.377 .0283049
655.129 .0282886
655.881 .0282731
656.632 .0282583
657.384 .0282443
658.135 .0282313
658.885 .0282198
659.636 .0282095
660.386 .0282006
661.136 .0281931
661.885 .0281863
662.635 .0281795
663.384 .0281731
664.133 .0281659
664.881 .0281575
665.630 .0281484
666.378 .0281388
667.126 .0281284
667.874 .0281180
668.621 .0281071
669.368 .0280957
670.115 .0280843
670.862 .0280724
671.608 .0280600
672.354 .0280486
673.100 .0280382
673.846 .0280293
674.591 .0280226
675.337 .0280179
676.082 .0280145
676.826 .0280123
677.571 .0280105
678.315 .0280081
679.059 .0280047
679.803 .0280003
680.547 .0279942
681.290 .0279868
682.033 .0279782
682.776 .0279682
683.518 .0279574
684.261 .0279457
685.003 .0279325
685.745 .0279176
686.487 .0279019
687.228 .0278850
687.969 .0278674
688.710 .0278494
689.451 .0278314
690.192 .0278133
690.932 .0277954
691.672 .0277779
692.412 .0277605
693.152 .0277438
693.891 .0277278
694.630 .0277121
695.369 .0276972
696.108 .0276825
696.846 .0276680
697.585 .0276537
698.323 .0276399
699.061 .0276256
699.798 .0276110
700.536 .0275966
701.273 .0275821
702.010 .0275677
702.746 .0275535
703.483 .0275396
704.219 .0275259
704.955 .0275126
705.691 .0274991
706.427 .0274851
707.162 .0274716
707.897 .0274577
708.632 .0274436
709.367 .0274293
710.101 .0274144
710.835 .0273988
711.569 .0273823
712.303 .0273651
713.037 .0273465
713.770 .0273270
714.503 .0273068
715.236 .0272857
715.969 .0272639
716.702 .0272419
717.434 .0272197
718.166 .0271975
718.898 .0271752
719.629 .0271527
720.361 .0271299
721.092 .0271076
721.823 .0270858
722.554 .0270643
723.284 .0270439
724.014 .0270242
724.744 .0270043
725.474 .0269846
726.204 .0269647
726.933 .0269441
727.662 .0269227
728.391 .0269008
729.120 .0268782
729.849 .0268557
730.577 .0268333
731.305 .0268112
732.033 .0267894
732.760 .0267680
733.488 .0267461
734.215 .0267235
734.942 .0267008
735.669 .0266776
736.395 .0266545
737.122 .0266322
737.848 .0266108
738.573 .0265912
739.299 .0265734
740.024 .0265578
740.750 .0265441
741.474 .0265323
742.199 .0265216
742.924 .0265120
743.648 .0265030
744.372 .0264944
745.096 .0264862
745.819 .0264781
746.543 .0264698
747.266 .0264610
747.989 .0264520
748.711 .0264428
749.434 .0264338
750.156 .0264251
750.878 .0264171
751.599 .0264104
752.321 .0264048
753.042 .0264007
753.763 .0263979
754.484 .0263962
755.205 .0263951
755.925 .0263950
756.645 .0263951
757.365 .0263954
758.085 .0263963
758.804 .0263973
759.523 .0263985
760.242 .0263994
760.961 .0263994
761.679 .0263983
762.397 .0263957
763.115 .0263911
763.833 .0263837
764.551 .0263742
765.268 .0263621
765.985 .0263472
766.702 .0263302
767.418 .0263115
768.134 .0262912
768.850 .0262698
769.566 .0262481
770.282 .0262260
770.997 .0262045
771.712 .0261838
772.427 .0261641
773.142 .0261459
773.856 .0261287
774.570 .0261124
775.284 .0260966
775.998 .0260817
776.711 .0260670
777.424 .0260529
778.137 .0260397
778.849 .0260270
779.562 .0260150
780.274 .0260044
780.986 .0259952
781.697 .0259874
782.409 .0259810
783.120 .0259760
783.831 .0259722
784.541 .0259696
785.252 .0259678
785.962 .0259666
786.671 .0259656
787.381 .0259648
788.090 .0259637
788.799 .0259618
789.508 .0259596
790.217 .0259564
790.925 .0259524
791.633 .0259473
792.341 .0259408
793.048 .0259329
793.755 .0259233
794.462 .0259123
795.169 .0258995
795.875 .0258855
796.581 .0258702
797.287 .0258540
797.993 .0258372
798.698 .0258205
799.403 .0258039
800.108 .0257879
800.812 .0257728
801.517 .0257585
802.221 .0257452
802.924 .0257326
803.628 .0257206
804.331 .0257094
805.034 .0256986
805.736 .0256881
806.439 .0256779
807.141 .0256683
807.843 .0256588
808.544 .0256498
809.245 .0256409
809.946 .0256318
810.647 .0256224
811.347 .0256123
812.047 .0256015
812.747 .0255898
813.447 .0255769
814.146 .0255629
814.845 .0255486
815.543 .0255343
816.242 .0255196
816.940 .0255050
817.638 .0254907
818.335 .0254765
819.032 .0254622
819.729 .0254475
820.426 .0254321
821.122 .0254159
821.818 .0253990
822.514 .0253810
823.209 .0253626
823.905 .0253437
824.599 .0253245
825.294 .0253053
825.988 .0252862
826.682 .0252672
827.376 .0252481
828.069 .0252295
828.762 .0252110
829.455 .0251920
830.147 .0251732
830.840 .0251545
831.531 .0251362
832.223 .0251181
832.914 .0251007
833.605 .0250835
834.296 .0250670
834.986 .0250510
835.676 .0250352
836.366 .0250197
837.055 .0250049
837.744 .0249899
838.433 .0249749
839.121 .0249600
839.809 .0249447
840.497 .0249288
841.185 .0249132
841.872 .0248970
842.559 .0248804
843.245 .0248635
843.932 .0248467
844.617 .0248304
845.303 .0248149
845.988 .0248004
846.673 .0247867
847.358 .0247741
848.042 .0247624
848.726 .0247512
849.410 .0247409
850.093 .0247313
850.776 .0247221
851.459 .0247132
852.141 .0247046
852.823 .0246962
853.505 .0246884
854.186 .0246809
854.867 .0246737
855.548 .0246666
856.228 .0246596
856.908 .0246528
857.588 .0246465
858.267 .0246406
858.946 .0246350
859.625 .0246295
860.303 .0246240
860.981 .0246181
861.659 .0246119
862.336 .0246048
863.013 .0245973
863.690 .0245898
864.366 .0245819
865.042 .0245739
865.718 .0245661
866.393 .0245587
867.068 .0245516
867.743 .0245449
868.417 .0245378
869.091 .0245302
869.765 .0245224
870.438 .0245142
871.111 .0245061
871.783 .0244979
872.456 .0244901
873.127 .0244824
873.799 .0244752
874.470 .0244678
875.141 .0244606
875.811 .0244538
876.481 .0244472
877.151 .0244407
877.820 .0244347
878.489 .0244285
879.158 .0244228
879.826 .0244173
880.494 .0244115
881.162 .0244054
881.829 .0243987
882.496 .0243907
883.163 .0243819
883.829 .0243725
884.495 .0243624
885.160 .0243527
885.825 .0243443
886.490 .0243373
887.154 .0243312
887.818 .0243265
888.482 .0243229
889.145 .0243197
889.808 .0243173
890.471 .0243144
891.133 .0243113
891.795 .0243089
892.456 .0243071
893.117 .0243062
893.778 .0243066
894.439 .0243083
895.099 .0243103
895.758 .0243123
896.417 .0243138
897.076 .0243141
897.735 .0243135
898.393 .0243124
899.051 .0243108
899.708 .0243087
900.365 .0243066
901.022 .0243043
901.678 .0243018
902.334 .0242991
902.990 .0242955
903.645 .0242912
904.300 .0242863
904.954 .0242814
905.608 .0242763
906.262 .0242720
906.915 .0242690
907.568 .0242669
908.221 .0242658
908.873 .0242655
909.525 .0242648
910.176 .0242638
910.828 .0242623
911.478 .0242599
912.129 .0242566
912.778 .0242529
913.428 .0242486
914.077 .0242440
914.726 .0242391
915.375 .0242338
916.023 .0242282
916.670 .0242227
917.318 .0242169
917.964 .0242109
918.611 .0242049
919.257 .0241991
919.903 .0241930
920.548 .0241872
921.193 .0241814
921.838 .0241762
922.482 .0241715
923.126 .0241678
923.770 .0241649
924.413 .0241633
925.056 .0241626
925.698 .0241623
926.340 .0241619
926.982 .0241613
927.623 .0241598
928.264 .0241572
928.904 .0241535
929.544 .0241488
930.184 .0241427
930.823 .0241361
931.462 .0241289
932.101 .0241212
932.739 .0241125
933.377 .0241031
934.014 .0240924
934.651 .0240803
935.288 .0240666
935.924 .0240513
936.560 .0240351
937.196 .0240186
937.831 .0240016
938.466 .0239845
939.100 .0239680
939.734 .0239521
940.368 .0239364
941.001 .0239210
941.634 .0239050
942.266 .0238882
942.899 .0238706
943.530 .0238516
944.162 .0238315
944.793 .0238108
945.423 .0237899
946.053 .0237692
946.683 .0237491
947.313 .0237299
947.942 .0237115
948.571 .0236941
949.199 .0236772
949.827 .0236601
950.455 .0236424
951.082 .0236239
951.709 .0236046
952.335 .0235848
952.961 .0235649
953.587 .0235455
954.212 .0235269
954.837 .0235092
955.462 .0234922
956.086 .0234756
956.710 .0234593
957.334 .0234429
957.957 .0234257
958.579 .0234080
959.202 .0233900
959.824 .0233718
960.445 .0233537
961.067 .0233361
961.688 .0233196
962.308 .0233040
962.928 .0232890
963.548 .0232739
964.168 .0232587
964.787 .0232431
965.406 .0232271
966.024 .0232110
966.642 .0231953
967.260 .0231802
967.877 .0231660
968.494 .0231528
969.110 .0231404
969.727 .0231278
970.342 .0231156
970.958 .0231035
971.573 .0230919
972.188 .0230798
972.802 .0230688
973.416 .0230588
974.030 .0230503
974.643 .0230427
975.256 .0230364
975.869 .0230306
976.481 .0230252
977.093 .0230197
977.705 .0230137
978.316 .0230075
978.927 .0230019
979.538 .0229960
980.148 .0229903
980.758 .0229842
981.367 .0229773
981.977 .0229691
982.586 .0229602
983.194 .0229498
983.802 .0229384
984.410 .0229261
985.018 .0229134
985.625 .0229009
986.232 .0228889
986.838 .0228778
987.445 .0228670
988.050 .0228566
988.656 .0228458
989.261 .0228338
989.866 .0228206
990.471 .0228058
991.075 .0227904
991.679 .0227747
992.282 .0227597
992.886 .0227461
993.489 .0227342
994.091 .0227245
994.694 .0227170
995.296 .0227104
995.897 .0227040
996.499 .0226970
997.100 .0226891
997.701 .0226807
998.301 .0226718
998.901 .0226627
999.501 .0226546
1000.101 .0226477
1000.700 .0226421
1001.299 .0226372
1001.898 .0226329
1002.496 .0226285
1003.094 .0226238
1003.692 .0226185
1004.289 .0226124
1004.887 .0226065
1005.484 .0226014
1006.080 .0225974
1006.677 .0225944
1007.273 .0225926
1007.868 .0225913
1008.464 .0225912
1009.059 .0225916
1009.654 .0225921
1010.249 .0225930
1010.843 .0225941
1011.437 .0225957
1012.031 .0225975
1012.625 .0225994
1013.218 .0226012
1013.811 .0226018
1014.404 .0226012
1014.997 .0225984
1015.589 .0225939
1016.181 .0225881
1016.773 .0225815
1017.365 .0225746
1017.956 .0225677
1018.547 .0225604
1019.138 .0225534
1019.728 .0225465
1020.319 .0225402
1020.909 .0225343
1021.499 .0225289
1022.088 .0225246
1022.678 .0225204
1023.267 .0225173
1023.856 .0225158
1024.445 .0225158
1025.033 .0225174
1025.621 .0225199
1026.209 .0225235
1026.797 .0225278
1027.385 .0225321
1027.972 .0225364
1028.560 .0225402
1029.147 .0225442
1029.734 .0225481
1030.320 .0225513
1030.907 .0225554
1031.493 .0225605
1032.079 .0225662
1032.665 .0225726
1033.250 .0225787
1033.836 .0225843
1034.421 .0225886
1035.006 .0225917
1035.591 .0225939
1036.176 .0225950
1036.761 .0225961
1037.345 .0225973
1037.929 .0225989
1038.514 .0226020
1039.097 .0226059
1039.681 .0226110
1040.265 .0226170
1040.848 .0226234
1041.432 .0226297
1042.015 .0226364
1042.598 .0226436
1043.181 .0226512
1043.764 .0226589
1044.346 .0226669
1044.929 .0226753
1045.511 .0226835
1046.094 .0226911
1046.676 .0226983
1047.258 .0227047
1047.840 .0227102
1048.422 .0227142
1049.003 .0227170
1049.585 .0227180
1050.166 .0227180
1050.748 .0227173
1051.329 .0227155
1051.910 .0227128
1052.491 .0227105
1053.072 .0227085
1053.653 .0227068
1054.234 .0227064
1054.815 .0227058
1055.396 .0227049
1055.976 .0227042
1056.557 .0227022
1057.138 .0226996
1057.718 .0226964
1058.298 .0226932
1058.879 .0226895
1059.459 .0226861
1060.039 .0226838
1060.620 .0226805
1061.200 .0226786
1061.780 .0226767
1062.360 .0226740
1062.940 .0226712
1063.520 .0226677
1064.101 .0226641
1064.681 .0226611
1065.261 .0226581
1065.841 .0226543
1066.421 .0226515
1067.001 .0226493
1067.581 .0226475
1068.161 .0226466
1068.741 .0226478
1069.321 .0226505
1069.901 .0226548
1070.482 .0226606
1071.062 .0226657
1071.642 .0226708
1072.222 .0226753
1072.803 .0226770
1073.383 .0226776
1073.963 .0226773
1074.544 .0226770
1075.124 .0226783
1075.705 .0226826
1076.286 .0226897
1076.866 .0227000
1077.447 .0227129
1078.028 .0227269
1078.609 .0227413
1079.190 .0227568
1079.771 .0227724
1080.352 .0227866
1080.934 .0228008
1081.515 .0228150
1082.097 .0228304
1082.679 .0228473
1083.260 .0228654
1083.842 .0228848
1084.424 .0229042
1085.007 .0229235
1085.589 .0229407
1086.172 .0229548
1086.754 .0229680
1087.337 .0229781
1087.920 .0229853
1088.503 .0229884
1089.087 .0229891
1089.670 .0229850
1090.254 .0229776
1090.838 .0229675
1091.422 .0229544
1092.006 .0229391
1092.590 .0229251
1093.175 .0229113
1093.760 .0228990
1094.345 .0228879
1094.930 .0228766
1095.516 .0228639
1096.102 .0228508
1096.688 .0228340
1097.274 .0228168
1097.860 .0227998
1098.447 .0227855
1099.034 .0227724
1099.622 .0227648
1100.209 .0227633
1100.797 .0227674
1101.385 .0227758
1101.973 .0227878
1102.562 .0228004
1103.151 .0228143
1103.740 .0228246
1104.330 .0228339
1104.920 .0228424
1105.510 .0228509
1106.101 .0228582
1106.691 .0228645
1107.283 .0228701
1107.874 .0228751
1108.466 .0228748
1109.058 .0228704
1109.651 .0228593
1110.244 .0228432
1110.837 .0228209
1111.431 .0227956
1112.025 .0227699
1112.620 .0227450
1113.215 .0227220
1113.810 .0227017
1114.406 .0226839
1115.002 .0226696
1115.599 .0226567
1116.196 .0226466
1116.793 .0226389
1117.391 .0226352
1117.989 .0226350
1118.588 .0226414
1119.187 .0226526
1119.787 .0226686
1120.387 .0226870
1120.988 .0227048
1121.589 .0227231
1122.190 .0227388
1122.793 .0227531
1123.395 .0227667
1123.998 .0227822
1124.602 .0227977
1125.206 .0228131
1125.811 .0228335
1126.416 .0228545
1127.022 .0228763
1127.628 .0228949
1128.235 .0229099
1128.843 .0229222
1129.451 .0229321
1130.059 .0229405
1130.669 .0229512
1131.278 .0229663
1131.889 .0229829
1132.500 .0230009
1133.112 .0230233
1133.724 .0230480
1134.337 .0230760
1134.950 .0231072
1135.564 .0231436
1136.179 .0231816
1136.795 .0232250
1137.411 .0232733
1138.028 .0233280
1138.645 .0233911
1139.263 .0234605
1139.882 .0235325
1140.502 .0236099
1141.122 .0236895
1141.743 .0237676
1142.365 .0238420
1142.987 .0239354
1143.611 .0240319
1144.235 .0240488
1144.859 .0240979
1145.485 .0241040
