Measurement Sequence started on: 10-20-44-796
Integration time: 35
Scans to Average: 2 
>>>>>Begin Spectral Data<<<<<
432.953 .0410774
433.882 .0379094
434.810 .0377446
435.737 .0340107
436.662 .0341056
437.586 .0352438
438.509 .0348866
439.431 .0347123
440.351 .0345933
441.269 .0345643
442.187 .0345070
443.103 .0344323
444.018 .0343595
444.932 .0343015
445.844 .0342596
446.756 .0342349
447.666 .0342250
448.575 .0341954
449.482 .0341553
450.388 .0340912
451.294 .0340130
452.198 .0339208
453.100 .0338319
454.002 .0337527
454.902 .0336839
455.801 .0336340
456.699 .0336161
457.596 .0336165
458.492 .0336310
459.387 .0336514
460.280 .0336711
461.172 .0336777
462.064 .0336694
462.954 .0336398
463.843 .0335960
464.730 .0335467
465.617 .0334957
466.503 .0334468
467.387 .0334048
468.271 .0333670
469.153 .0333301
470.035 .0332927
470.915 .0332521
471.794 .0332006
472.673 .0331466
473.550 .0330933
474.426 .0330462
475.301 .0330079
476.175 .0329821
477.048 .0329716
477.920 .0329739
478.791 .0329837
479.661 .0329961
480.530 .0330070
481.398 .0330122
482.266 .0330117
483.132 .0330078
483.997 .0330002
484.861 .0329917
485.724 .0329863
486.587 .0329836
487.448 .0329800
488.308 .0329755
489.168 .0329685
490.026 .0329603
490.884 .0329499
491.741 .0329322
492.597 .0329117
493.452 .0328893
494.306 .0328663
495.159 .0328430
496.011 .0328207
496.862 .0327987
497.713 .0327744
498.562 .0327481
499.411 .0327193
500.259 .0326851
501.106 .0326469
501.952 .0326021
502.798 .0325489
503.642 .0324836
504.486 .0324058
505.329 .0323194
506.171 .0322268
507.012 .0321286
507.852 .0320303
508.692 .0319284
509.531 .0318263
510.369 .0317221
511.206 .0316156
512.043 .0315043
512.878 .0313866
513.713 .0312604
514.547 .0311222
515.381 .0309763
516.213 .0308270
517.045 .0306736
517.876 .0305251
518.706 .0303767
519.536 .0302276
520.365 .0300792
521.193 .0299274
522.020 .0297641
522.847 .0295911
523.673 .0294093
524.498 .0292212
525.323 .0290235
526.146 .0288272
526.969 .0286373
527.792 .0284573
528.614 .0282878
529.435 .0281288
530.255 .0279776
531.075 .0278333
531.894 .0276838
532.712 .0275323
533.530 .0273703
534.347 .0272073
535.163 .0270348
535.979 .0268723
536.794 .0267253
537.608 .0266038
538.422 .0265071
539.235 .0264504
540.048 .0264272
540.860 .0264316
541.671 .0264526
542.481 .0264960
543.292 .0265458
544.101 .0266055
544.910 .0266661
545.718 .0267364
546.526 .0268121
547.333 .0269007
548.139 .0269918
548.945 .0270906
549.750 .0271906
550.555 .0272881
551.359 .0273745
552.162 .0274582
552.965 .0275329
553.768 .0275988
554.569 .0276573
555.371 .0277115
556.171 .0277561
556.972 .0277983
557.771 .0278362
558.570 .0278779
559.369 .0279218
560.167 .0279759
560.964 .0280408
561.761 .0281209
562.558 .0282136
563.354 .0283158
564.149 .0284221
564.944 .0285262
565.738 .0286194
566.532 .0286999
567.325 .0287668
568.118 .0288226
568.910 .0288701
569.702 .0289145
570.494 .0289613
571.285 .0290125
572.075 .0290669
572.865 .0291245
573.654 .0291840
574.443 .0292413
575.232 .0292973
576.020 .0293510
576.807 .0294059
577.594 .0294603
578.381 .0295165
579.167 .0295734
579.952 .0296333
580.738 .0296961
581.522 .0297599
582.307 .0298226
583.091 .0298854
583.874 .0299453
584.657 .0300013
585.440 .0300527
586.222 .0301000
587.004 .0301419
587.785 .0301783
588.566 .0302077
589.346 .0302305
590.126 .0302460
590.906 .0302561
591.685 .0302601
592.464 .0302589
593.242 .0302549
594.020 .0302463
594.797 .0302359
595.575 .0302248
596.351 .0302129
597.128 .0302006
597.904 .0301878
598.679 .0301750
599.454 .0301612
600.229 .0301465
601.004 .0301317
601.778 .0301157
602.551 .0300994
603.325 .0300827
604.097 .0300657
604.870 .0300490
605.642 .0300330
606.414 .0300169
607.185 .0300017
607.956 .0299870
608.727 .0299727
609.497 .0299583
610.267 .0299433
611.037 .0299281
611.806 .0299112
612.575 .0298931
613.344 .0298744
614.112 .0298540
614.880 .0298333
615.647 .0298117
616.414 .0297902
617.181 .0297691
617.948 .0297488
618.714 .0297290
619.480 .0297088
620.245 .0296884
621.011 .0296669
621.775 .0296439
622.540 .0296208
623.304 .0295979
624.068 .0295766
624.832 .0295575
625.595 .0295409
626.358 .0295263
627.120 .0295141
627.883 .0295024
628.645 .0294909
629.406 .0294777
630.168 .0294628
630.929 .0294461
631.689 .0294282
632.450 .0294103
633.210 .0293927
633.970 .0293761
634.729 .0293611
635.489 .0293464
636.248 .0293313
637.006 .0293145
637.765 .0292968
638.523 .0292773
639.280 .0292562
640.038 .0292341
640.795 .0292126
641.552 .0291924
642.309 .0291747
643.065 .0291592
643.821 .0291463
644.577 .0291353
645.332 .0291253
646.088 .0291157
646.843 .0291056
647.597 .0290950
648.352 .0290838
649.106 .0290725
649.860 .0290608
650.613 .0290487
651.367 .0290367
652.120 .0290251
652.872 .0290138
653.625 .0290023
654.377 .0289902
655.129 .0289778
655.881 .0289645
656.632 .0289499
657.384 .0289342
658.135 .0289183
658.885 .0289021
659.636 .0288858
660.386 .0288694
661.136 .0288534
661.885 .0288382
662.635 .0288239
663.384 .0288101
664.133 .0287964
664.881 .0287832
665.630 .0287698
666.378 .0287566
667.126 .0287434
667.874 .0287304
668.621 .0287177
669.368 .0287055
670.115 .0286935
670.862 .0286813
671.608 .0286696
672.354 .0286582
673.100 .0286463
673.846 .0286340
674.591 .0286210
675.337 .0286075
676.082 .0285942
676.826 .0285811
677.571 .0285683
678.315 .0285565
679.059 .0285459
679.803 .0285359
680.547 .0285263
681.290 .0285170
682.033 .0285075
682.776 .0284972
683.518 .0284858
684.261 .0284731
685.003 .0284590
685.745 .0284442
686.487 .0284287
687.228 .0284127
687.969 .0283966
688.710 .0283799
689.451 .0283628
690.192 .0283446
690.932 .0283253
691.672 .0283045
692.412 .0282823
693.152 .0282590
693.891 .0282347
694.630 .0282102
695.369 .0281860
696.108 .0281625
696.846 .0281394
697.585 .0281167
698.323 .0280943
699.061 .0280723
699.798 .0280507
700.536 .0280287
701.273 .0280069
702.010 .0279856
702.746 .0279647
703.483 .0279436
704.219 .0279223
704.955 .0279014
705.691 .0278803
706.427 .0278592
707.162 .0278379
707.897 .0278172
708.632 .0277977
709.367 .0277796
710.101 .0277628
710.835 .0277472
711.569 .0277326
712.303 .0277186
713.037 .0277052
713.770 .0276915
714.503 .0276774
715.236 .0276630
715.969 .0276485
716.702 .0276339
717.434 .0276191
718.166 .0276042
718.898 .0275896
719.629 .0275744
720.361 .0275584
721.092 .0275408
721.823 .0275219
722.554 .0275016
723.284 .0274801
724.014 .0274572
724.744 .0274330
725.474 .0274078
726.204 .0273817
726.933 .0273551
727.662 .0273279
728.391 .0273001
729.120 .0272723
729.849 .0272452
730.577 .0272189
731.305 .0271933
732.033 .0271694
732.760 .0271471
733.488 .0271261
734.215 .0271063
734.942 .0270873
735.669 .0270695
736.395 .0270528
737.122 .0270369
737.848 .0270219
738.573 .0270082
739.299 .0269956
740.024 .0269841
740.750 .0269738
741.474 .0269646
742.199 .0269555
742.924 .0269467
743.648 .0269379
744.372 .0269286
745.096 .0269194
745.819 .0269100
746.543 .0269004
747.266 .0268916
747.989 .0268830
748.711 .0268749
749.434 .0268679
750.156 .0268618
750.878 .0268562
751.599 .0268518
752.321 .0268481
753.042 .0268449
753.763 .0268422
754.484 .0268396
755.205 .0268363
755.925 .0268321
756.645 .0268268
757.365 .0268196
758.085 .0268116
758.804 .0268023
759.523 .0267913
760.242 .0267795
760.961 .0267664
761.679 .0267519
762.397 .0267357
763.115 .0267181
763.833 .0266986
764.551 .0266777
765.268 .0266558
765.985 .0266335
766.702 .0266116
767.418 .0265908
768.134 .0265716
768.850 .0265540
769.566 .0265381
770.282 .0265236
770.997 .0265099
771.712 .0264970
772.427 .0264841
773.142 .0264716
773.856 .0264590
774.570 .0264467
775.284 .0264350
775.998 .0264234
776.711 .0264124
777.424 .0264016
778.137 .0263907
778.849 .0263796
779.562 .0263684
780.274 .0263565
780.986 .0263446
781.697 .0263328
782.409 .0263215
783.120 .0263109
783.831 .0263015
784.541 .0262931
785.252 .0262859
785.962 .0262797
786.671 .0262744
787.381 .0262691
788.090 .0262640
788.799 .0262581
789.508 .0262516
790.217 .0262441
790.925 .0262353
791.633 .0262250
792.341 .0262136
793.048 .0262007
793.755 .0261867
794.462 .0261716
795.169 .0261561
795.875 .0261403
796.581 .0261251
797.287 .0261105
797.993 .0260972
798.698 .0260853
799.403 .0260750
800.108 .0260659
800.812 .0260583
801.517 .0260512
802.221 .0260448
802.924 .0260389
803.628 .0260338
804.331 .0260290
805.034 .0260249
805.736 .0260210
806.439 .0260172
807.141 .0260132
807.843 .0260083
808.544 .0260019
809.245 .0259936
809.946 .0259833
810.647 .0259708
811.347 .0259571
812.047 .0259431
812.747 .0259290
813.447 .0259158
814.146 .0259039
814.845 .0258932
815.543 .0258837
816.242 .0258756
816.940 .0258683
817.638 .0258615
818.335 .0258552
819.032 .0258493
819.729 .0258439
820.426 .0258391
821.122 .0258346
821.818 .0258297
822.514 .0258240
823.209 .0258171
823.905 .0258080
824.599 .0257969
825.294 .0257839
825.988 .0257693
826.682 .0257531
827.376 .0257359
828.069 .0257177
828.762 .0256985
829.455 .0256788
830.147 .0256585
830.840 .0256378
831.531 .0256172
832.223 .0255974
832.914 .0255789
833.605 .0255622
834.296 .0255480
834.986 .0255360
835.676 .0255264
836.366 .0255186
837.055 .0255116
837.744 .0255050
838.433 .0254990
839.121 .0254929
839.809 .0254872
840.497 .0254819
841.185 .0254770
841.872 .0254722
842.559 .0254674
843.245 .0254625
843.932 .0254570
844.617 .0254508
845.303 .0254439
845.988 .0254355
846.673 .0254262
847.358 .0254161
848.042 .0254058
848.726 .0253958
849.410 .0253859
850.093 .0253763
850.776 .0253669
851.459 .0253572
852.141 .0253470
852.823 .0253357
853.505 .0253240
854.186 .0253110
854.867 .0252967
855.548 .0252817
856.228 .0252661
856.908 .0252504
857.588 .0252352
858.267 .0252207
858.946 .0252073
859.625 .0251945
860.303 .0251823
860.981 .0251704
861.659 .0251592
862.336 .0251480
863.013 .0251373
863.690 .0251272
864.366 .0251182
865.042 .0251094
865.718 .0251019
866.393 .0250959
867.068 .0250906
867.743 .0250862
868.417 .0250821
869.091 .0250781
869.765 .0250736
870.438 .0250682
871.111 .0250617
871.783 .0250545
872.456 .0250463
873.127 .0250367
873.799 .0250261
874.470 .0250151
875.141 .0250036
875.811 .0249924
876.481 .0249816
877.151 .0249713
877.820 .0249615
878.489 .0249526
879.158 .0249437
879.826 .0249351
880.494 .0249263
881.162 .0249174
881.829 .0249081
882.496 .0248985
883.163 .0248888
883.829 .0248796
884.495 .0248714
885.160 .0248645
885.825 .0248589
886.490 .0248544
887.154 .0248504
887.818 .0248467
888.482 .0248425
889.145 .0248376
889.808 .0248318
890.471 .0248252
891.133 .0248180
891.795 .0248104
892.456 .0248026
893.117 .0247953
893.778 .0247887
894.439 .0247827
895.099 .0247769
895.758 .0247712
896.417 .0247656
897.076 .0247597
897.735 .0247533
898.393 .0247467
899.051 .0247396
899.708 .0247325
900.365 .0247252
901.022 .0247181
901.678 .0247113
902.334 .0247047
902.990 .0246986
903.645 .0246920
904.300 .0246854
904.954 .0246785
905.608 .0246711
906.262 .0246636
906.915 .0246558
907.568 .0246477
908.221 .0246395
908.873 .0246313
909.525 .0246232
910.176 .0246152
910.828 .0246079
911.478 .0246011
912.129 .0245947
912.778 .0245885
913.428 .0245824
914.077 .0245759
914.726 .0245693
915.375 .0245621
916.023 .0245541
916.670 .0245455
917.318 .0245361
917.964 .0245258
918.611 .0245145
919.257 .0245025
919.903 .0244897
920.548 .0244764
921.193 .0244632
921.838 .0244503
922.482 .0244377
923.126 .0244255
923.770 .0244139
924.413 .0244028
925.056 .0243919
925.698 .0243813
926.340 .0243712
926.982 .0243617
927.623 .0243530
928.264 .0243451
928.904 .0243377
929.544 .0243306
930.184 .0243237
930.823 .0243160
931.462 .0243071
932.101 .0242971
932.739 .0242856
933.377 .0242729
934.014 .0242590
934.651 .0242446
935.288 .0242298
935.924 .0242153
936.560 .0242015
937.196 .0241880
937.831 .0241746
938.466 .0241615
939.100 .0241477
939.734 .0241336
940.368 .0241191
941.001 .0241043
941.634 .0240895
942.266 .0240755
942.899 .0240616
943.530 .0240475
944.162 .0240333
944.793 .0240184
945.423 .0240021
946.053 .0239842
946.683 .0239647
947.313 .0239436
947.942 .0239217
948.571 .0238990
949.199 .0238758
949.827 .0238531
950.455 .0238315
951.082 .0238108
951.709 .0237917
952.335 .0237740
952.961 .0237581
953.587 .0237436
954.212 .0237304
954.837 .0237183
955.462 .0237069
956.086 .0236963
956.710 .0236863
957.334 .0236767
957.957 .0236681
958.579 .0236600
959.202 .0236524
959.824 .0236455
960.445 .0236389
961.067 .0236320
961.688 .0236251
962.308 .0236179
962.928 .0236103
963.548 .0236014
964.168 .0235913
964.787 .0235794
965.406 .0235662
966.024 .0235523
966.642 .0235374
967.260 .0235223
967.877 .0235075
968.494 .0234925
969.110 .0234780
969.727 .0234636
970.342 .0234497
970.958 .0234358
971.573 .0234219
972.188 .0234083
972.802 .0233947
973.416 .0233816
974.030 .0233688
974.643 .0233569
975.256 .0233462
975.869 .0233365
976.481 .0233269
977.093 .0233184
977.705 .0233108
978.316 .0233039
978.927 .0232971
979.538 .0232903
980.148 .0232832
980.758 .0232759
981.367 .0232681
981.977 .0232603
982.586 .0232526
983.194 .0232459
983.802 .0232394
984.410 .0232341
985.018 .0232298
985.625 .0232259
986.232 .0232226
986.838 .0232207
987.445 .0232191
988.050 .0232174
988.656 .0232158
989.261 .0232143
989.866 .0232122
990.471 .0232096
991.075 .0232062
991.679 .0232018
992.282 .0231972
992.886 .0231920
993.489 .0231866
994.091 .0231817
994.694 .0231778
995.296 .0231744
995.897 .0231717
996.499 .0231692
997.100 .0231667
997.701 .0231639
998.301 .0231616
998.901 .0231596
999.501 .0231582
1000.101 .0231580
1000.700 .0231595
1001.299 .0231624
1001.898 .0231667
1002.496 .0231711
1003.094 .0231754
1003.692 .0231787
1004.289 .0231805
1004.887 .0231805
1005.484 .0231790
1006.080 .0231768
1006.677 .0231742
1007.273 .0231713
1007.868 .0231686
1008.464 .0231665
1009.059 .0231647
1009.654 .0231630
1010.249 .0231613
1010.843 .0231597
1011.437 .0231575
1012.031 .0231546
1012.625 .0231513
1013.218 .0231471
1013.811 .0231418
1014.404 .0231363
1014.997 .0231298
1015.589 .0231231
1016.181 .0231163
1016.773 .0231100
1017.365 .0231050
1017.956 .0231011
1018.547 .0230977
1019.138 .0230946
1019.728 .0230924
1020.319 .0230905
1020.909 .0230880
1021.499 .0230857
1022.088 .0230842
1022.678 .0230831
1023.267 .0230840
1023.856 .0230866
1024.445 .0230911
1025.033 .0230979
1025.621 .0231060
1026.209 .0231147
1026.797 .0231232
1027.385 .0231303
1027.972 .0231359
1028.560 .0231389
1029.147 .0231403
1029.734 .0231396
1030.320 .0231379
1030.907 .0231361
1031.493 .0231341
1032.079 .0231327
1032.665 .0231326
1033.250 .0231325
1033.836 .0231332
1034.421 .0231328
1035.006 .0231318
1035.591 .0231290
1036.176 .0231240
1036.761 .0231182
1037.345 .0231118
1037.929 .0231048
1038.514 .0230992
1039.097 .0230950
1039.681 .0230935
1040.265 .0230934
1040.848 .0230951
1041.432 .0230972
1042.015 .0230989
1042.598 .0230989
1043.181 .0230965
1043.764 .0230915
1044.346 .0230852
1044.929 .0230777
1045.511 .0230700
1046.094 .0230637
1046.676 .0230588
1047.258 .0230552
1047.840 .0230525
1048.422 .0230506
1049.003 .0230477
1049.585 .0230430
1050.166 .0230374
1050.748 .0230306
1051.329 .0230241
1051.910 .0230190
1052.491 .0230163
1053.072 .0230165
1053.653 .0230199
1054.234 .0230258
1054.815 .0230324
1055.396 .0230398
1055.976 .0230460
1056.557 .0230494
1057.138 .0230516
1057.718 .0230518
1058.298 .0230505
1058.879 .0230491
1059.459 .0230477
1060.039 .0230457
1060.620 .0230426
1061.200 .0230378
1061.780 .0230310
1062.360 .0230208
1062.940 .0230081
1063.520 .0229923
1064.101 .0229763
1064.681 .0229607
1065.261 .0229452
1065.841 .0229318
1066.421 .0229207
1067.001 .0229099
1067.581 .0229001
1068.161 .0228900
1068.741 .0228804
1069.321 .0228718
1069.901 .0228651
1070.482 .0228610
1071.062 .0228607
1071.642 .0228637
1072.222 .0228698
1072.803 .0228779
1073.383 .0228875
1073.963 .0228950
1074.544 .0229010
1075.124 .0229061
1075.705 .0229093
1076.286 .0229127
1076.866 .0229174
1077.447 .0229244
1078.028 .0229334
1078.609 .0229444
1079.190 .0229554
1079.771 .0229653
1080.352 .0229731
1080.934 .0229765
1081.515 .0229761
1082.097 .0229727
1082.679 .0229670
1083.260 .0229596
1083.842 .0229530
1084.424 .0229468
1085.007 .0229403
1085.589 .0229338
1086.172 .0229253
1086.754 .0229149
1087.337 .0229025
1087.920 .0228895
1088.503 .0228764
1089.087 .0228654
1089.670 .0228572
1090.254 .0228523
1090.838 .0228523
1091.422 .0228545
1092.006 .0228569
1092.590 .0228589
1093.175 .0228596
1093.760 .0228578
1094.345 .0228547
1094.930 .0228521
1095.516 .0228519
1096.102 .0228573
1096.688 .0228686
1097.274 .0228850
1097.860 .0229051
1098.447 .0229251
1099.034 .0229412
1099.622 .0229517
1100.209 .0229550
1100.797 .0229505
1101.385 .0229403
1101.973 .0229278
1102.562 .0229150
1103.151 .0229047
1103.740 .0228969
1104.330 .0228916
1104.920 .0228883
1105.510 .0228814
1106.101 .0228683
1106.691 .0228479
1107.283 .0228205
1107.874 .0227870
1108.466 .0227506
1109.058 .0227155
1109.651 .0226849
1110.244 .0226646
1110.837 .0226530
1111.431 .0226513
1112.025 .0226601
1112.620 .0226777
1113.215 .0226993
1113.810 .0227233
1114.406 .0227508
1115.002 .0227762
1115.599 .0228012
1116.196 .0228251
1116.793 .0228444
1117.391 .0228603
1117.989 .0228701
1118.588 .0228755
1119.187 .0228756
1119.787 .0228711
1120.387 .0228596
1120.988 .0228414
1121.589 .0228190
1122.190 .0227911
1122.793 .0227576
1123.395 .0227230
1123.998 .0226892
1124.602 .0226574
1125.206 .0226313
1125.811 .0226146
1126.416 .0226090
1127.022 .0226164
1127.628 .0226358
1128.235 .0226682
1128.843 .0227108
1129.451 .0227606
1130.059 .0228187
1130.669 .0228797
1131.278 .0229440
1131.889 .0230065
1132.500 .0230650
1133.112 .0231220
1133.724 .0231762
1134.337 .0232281
1134.950 .0232767
1135.564 .0233277
1136.179 .0233798
1136.795 .0234329
1137.411 .0234895
1138.028 .0235464
1138.645 .0236029
1139.263 .0236553
1139.882 .0237038
1140.502 .0237586
1141.122 .0238146
1141.743 .0238823
1142.365 .0239593
1142.987 .0238991
1143.611 .0242942
1144.235 .0242269
1144.859 .0244279
1145.485 .0245023
