Measurement Sequence started on: 10-20-44-796
Integration time: 35
Scans to Average: 2 
>>>>>Begin Spectral Data<<<<<
432.953 .0415184
433.882 .0427324
434.810 .0387766
435.737 .0381546
436.662 .0374210
437.586 .0385531
438.509 .0383744
439.431 .0382759
440.351 .0383412
441.269 .0384271
442.187 .0385259
443.103 .0385933
444.018 .0386456
444.932 .0386857
445.844 .0387151
446.756 .0387164
447.666 .0387034
448.575 .0386452
449.482 .0385744
450.388 .0384898
451.294 .0383948
452.198 .0382942
453.100 .0382070
454.002 .0381220
454.902 .0380494
455.801 .0379866
456.699 .0379384
457.596 .0378986
458.492 .0378612
459.387 .0378149
460.280 .0377676
461.172 .0377164
462.064 .0376610
462.954 .0375998
463.843 .0375365
464.730 .0374673
465.617 .0374000
466.503 .0373372
467.387 .0372763
468.271 .0372204
469.153 .0371676
470.035 .0371143
470.915 .0370640
471.794 .0370114
472.673 .0369570
473.550 .0369080
474.426 .0368677
475.301 .0368308
476.175 .0367998
477.048 .0367789
477.920 .0367622
478.791 .0367527
479.661 .0367445
480.530 .0367355
481.398 .0367228
482.266 .0367067
483.132 .0366835
483.997 .0366545
484.861 .0366258
485.724 .0365961
486.587 .0365682
487.448 .0365449
488.308 .0365222
489.168 .0365001
490.026 .0364759
490.884 .0364483
491.741 .0364120
492.597 .0363722
493.452 .0363286
494.306 .0362840
495.159 .0362436
496.011 .0362085
496.862 .0361805
497.713 .0361538
498.562 .0361285
499.411 .0360969
500.259 .0360585
501.106 .0360070
501.952 .0359422
502.798 .0358679
503.642 .0357873
504.486 .0357036
505.329 .0356189
506.171 .0355326
507.012 .0354451
507.852 .0353505
508.692 .0352514
509.531 .0351417
510.369 .0350283
511.206 .0349084
512.043 .0347863
512.878 .0346635
513.713 .0345364
514.547 .0344062
515.381 .0342799
516.213 .0341492
517.045 .0340115
517.876 .0338664
518.706 .0337188
519.536 .0335719
520.365 .0334336
521.193 .0333005
522.020 .0331728
522.847 .0330500
523.673 .0329272
524.498 .0327839
525.323 .0326272
526.146 .0324567
526.969 .0322724
527.792 .0320880
528.614 .0319112
529.435 .0317502
530.255 .0316184
531.075 .0315161
531.894 .0314373
532.712 .0313701
533.530 .0313059
534.347 .0312328
535.163 .0311451
535.979 .0310481
536.794 .0309420
537.608 .0308313
538.422 .0307282
539.235 .0306353
540.048 .0305560
540.860 .0304900
541.671 .0304369
542.481 .0303917
543.292 .0303453
544.101 .0303000
544.910 .0302561
545.718 .0302167
546.526 .0301913
547.333 .0301817
548.139 .0301872
548.945 .0302109
549.750 .0302484
550.555 .0302969
551.359 .0303538
552.162 .0304157
552.965 .0304762
553.768 .0305396
554.569 .0306160
555.371 .0306990
556.171 .0307924
556.972 .0308959
557.771 .0310001
558.570 .0311005
559.369 .0311898
560.167 .0312654
560.964 .0313239
561.761 .0313739
562.558 .0314158
563.354 .0314528
564.149 .0314925
564.944 .0315345
565.738 .0315807
566.532 .0316290
567.325 .0316770
568.118 .0317155
568.910 .0317468
569.702 .0317695
570.494 .0317845
571.285 .0317976
572.075 .0318145
572.865 .0318408
573.654 .0318784
574.443 .0319309
575.232 .0319959
576.020 .0320725
576.807 .0321599
577.594 .0322482
578.381 .0323365
579.167 .0324199
579.952 .0324966
580.738 .0325641
581.522 .0326249
582.307 .0326761
583.091 .0327204
583.874 .0327605
584.657 .0327955
585.440 .0328267
586.222 .0328550
587.004 .0328793
587.785 .0328995
588.566 .0329143
589.346 .0329234
590.126 .0329249
590.906 .0329224
591.685 .0329158
592.464 .0329064
593.242 .0328981
594.020 .0328916
594.797 .0328869
595.575 .0328855
596.351 .0328854
597.128 .0328850
597.904 .0328832
598.679 .0328794
599.454 .0328708
600.229 .0328584
601.004 .0328433
601.778 .0328255
602.551 .0328054
603.325 .0327847
604.097 .0327638
604.870 .0327429
605.642 .0327221
606.414 .0327001
607.185 .0326771
607.956 .0326542
608.727 .0326307
609.497 .0326072
610.267 .0325842
611.037 .0325620
611.806 .0325404
612.575 .0325190
613.344 .0324988
614.112 .0324781
614.880 .0324575
615.647 .0324365
616.414 .0324150
617.181 .0323934
617.948 .0323724
618.714 .0323523
619.480 .0323341
620.245 .0323179
621.011 .0323028
621.775 .0322873
622.540 .0322722
623.304 .0322556
624.068 .0322375
624.832 .0322170
625.595 .0321947
626.358 .0321701
627.120 .0321448
627.883 .0321189
628.645 .0320933
629.406 .0320683
630.168 .0320431
630.929 .0320171
631.689 .0319904
632.450 .0319629
633.210 .0319344
633.970 .0319048
634.729 .0318759
635.489 .0318470
636.248 .0318188
637.006 .0317914
637.765 .0317652
638.523 .0317405
639.280 .0317170
640.038 .0316939
640.795 .0316716
641.552 .0316502
642.309 .0316300
643.065 .0316106
643.821 .0315922
644.577 .0315740
645.332 .0315554
646.088 .0315357
646.843 .0315151
647.597 .0314929
648.352 .0314692
649.106 .0314451
649.860 .0314205
650.613 .0313959
651.367 .0313726
652.120 .0313507
652.872 .0313304
653.625 .0313118
654.377 .0312943
655.129 .0312770
655.881 .0312598
656.632 .0312428
657.384 .0312253
658.135 .0312085
658.885 .0311919
659.636 .0311751
660.386 .0311591
661.136 .0311438
661.885 .0311285
662.635 .0311137
663.384 .0310991
664.133 .0310841
664.881 .0310690
665.630 .0310536
666.378 .0310370
667.126 .0310201
667.874 .0310021
668.621 .0309831
669.368 .0309627
670.115 .0309416
670.862 .0309196
671.608 .0308979
672.354 .0308771
673.100 .0308571
673.846 .0308388
674.591 .0308226
675.337 .0308079
676.082 .0307948
676.826 .0307825
677.571 .0307703
678.315 .0307570
679.059 .0307429
679.803 .0307273
680.547 .0307111
681.290 .0306940
682.033 .0306766
682.776 .0306595
683.518 .0306423
684.261 .0306244
685.003 .0306063
685.745 .0305877
686.487 .0305684
687.228 .0305480
687.969 .0305265
688.710 .0305042
689.451 .0304819
690.192 .0304588
690.932 .0304357
691.672 .0304128
692.412 .0303900
693.152 .0303673
693.891 .0303452
694.630 .0303237
695.369 .0303023
696.108 .0302816
696.846 .0302610
697.585 .0302401
698.323 .0302195
699.061 .0301982
699.798 .0301765
700.536 .0301549
701.273 .0301329
702.010 .0301102
702.746 .0300882
703.483 .0300661
704.219 .0300443
704.955 .0300229
705.691 .0300017
706.427 .0299802
707.162 .0299588
707.897 .0299368
708.632 .0299137
709.367 .0298902
710.101 .0298660
710.835 .0298406
711.569 .0298151
712.303 .0297888
713.037 .0297622
713.770 .0297351
714.503 .0297080
715.236 .0296802
715.969 .0296527
716.702 .0296256
717.434 .0295983
718.166 .0295712
718.898 .0295446
719.629 .0295180
720.361 .0294921
721.092 .0294665
721.823 .0294415
722.554 .0294169
723.284 .0293933
724.014 .0293698
724.744 .0293465
725.474 .0293233
726.204 .0293005
726.933 .0292774
727.662 .0292546
728.391 .0292316
729.120 .0292087
729.849 .0291865
730.577 .0291650
731.305 .0291440
732.033 .0291240
732.760 .0291044
733.488 .0290853
734.215 .0290662
734.942 .0290471
735.669 .0290275
736.395 .0290074
737.122 .0289876
737.848 .0289675
738.573 .0289476
739.299 .0289285
740.024 .0289101
740.750 .0288930
741.474 .0288762
742.199 .0288600
742.924 .0288441
743.648 .0288287
744.372 .0288137
745.096 .0287990
745.819 .0287849
746.543 .0287714
747.266 .0287586
747.989 .0287468
748.711 .0287359
749.434 .0287257
750.156 .0287167
750.878 .0287087
751.599 .0287011
752.321 .0286937
753.042 .0286864
753.763 .0286792
754.484 .0286714
755.205 .0286631
755.925 .0286536
756.645 .0286432
757.365 .0286319
758.085 .0286201
758.804 .0286075
759.523 .0285945
760.242 .0285811
760.961 .0285676
761.679 .0285543
762.397 .0285408
763.115 .0285270
763.833 .0285127
764.551 .0284978
765.268 .0284818
765.985 .0284642
766.702 .0284459
767.418 .0284267
768.134 .0284073
768.850 .0283874
769.566 .0283679
770.282 .0283495
770.997 .0283320
771.712 .0283158
772.427 .0283004
773.142 .0282857
773.856 .0282712
774.570 .0282567
775.284 .0282418
775.998 .0282270
776.711 .0282129
777.424 .0281996
778.137 .0281877
778.849 .0281774
779.562 .0281684
780.274 .0281606
780.986 .0281531
781.697 .0281450
782.409 .0281360
783.120 .0281263
783.831 .0281154
784.541 .0281043
785.252 .0280939
785.962 .0280843
786.671 .0280757
787.381 .0280680
788.090 .0280608
788.799 .0280539
789.508 .0280462
790.217 .0280376
790.925 .0280276
791.633 .0280167
792.341 .0280047
793.048 .0279923
793.755 .0279798
794.462 .0279673
795.169 .0279547
795.875 .0279420
796.581 .0279290
797.287 .0279156
797.993 .0279016
798.698 .0278874
799.403 .0278729
800.108 .0278584
800.812 .0278439
801.517 .0278300
802.221 .0278166
802.924 .0278037
803.628 .0277915
804.331 .0277798
805.034 .0277691
805.736 .0277591
806.439 .0277501
807.141 .0277418
807.843 .0277344
808.544 .0277274
809.245 .0277201
809.946 .0277122
810.647 .0277031
811.347 .0276929
812.047 .0276814
812.747 .0276688
813.447 .0276550
814.146 .0276407
814.845 .0276265
815.543 .0276122
816.242 .0275982
816.940 .0275843
817.638 .0275706
818.335 .0275566
819.032 .0275421
819.729 .0275267
820.426 .0275105
821.122 .0274937
821.818 .0274760
822.514 .0274580
823.209 .0274403
823.905 .0274229
824.599 .0274058
825.294 .0273889
825.988 .0273723
826.682 .0273556
827.376 .0273391
828.069 .0273224
828.762 .0273060
829.455 .0272895
830.147 .0272732
830.840 .0272572
831.531 .0272415
832.223 .0272261
832.914 .0272105
833.605 .0271952
834.296 .0271803
834.986 .0271659
835.676 .0271517
836.366 .0271382
837.055 .0271255
837.744 .0271132
838.433 .0271006
839.121 .0270882
839.809 .0270759
840.497 .0270638
841.185 .0270516
841.872 .0270399
842.559 .0270286
843.245 .0270184
843.932 .0270088
844.617 .0269996
845.303 .0269906
845.988 .0269812
846.673 .0269707
847.358 .0269596
848.042 .0269479
848.726 .0269357
849.410 .0269235
850.093 .0269117
850.776 .0268999
851.459 .0268878
852.141 .0268752
852.823 .0268617
853.505 .0268469
854.186 .0268304
854.867 .0268119
855.548 .0267923
856.228 .0267723
856.908 .0267524
857.588 .0267334
858.267 .0267157
858.946 .0266993
859.625 .0266840
860.303 .0266691
860.981 .0266544
861.659 .0266398
862.336 .0266246
863.013 .0266090
863.690 .0265929
864.366 .0265769
865.042 .0265615
865.718 .0265473
866.393 .0265342
867.068 .0265223
867.743 .0265110
868.417 .0265001
869.091 .0264886
869.765 .0264768
870.438 .0264639
871.111 .0264504
871.783 .0264365
872.456 .0264225
873.127 .0264086
873.799 .0263951
874.470 .0263818
875.141 .0263690
875.811 .0263559
876.481 .0263427
877.151 .0263290
877.820 .0263151
878.489 .0263009
879.158 .0262867
879.826 .0262724
880.494 .0262584
881.162 .0262443
881.829 .0262302
882.496 .0262156
883.163 .0262009
883.829 .0261859
884.495 .0261712
885.160 .0261576
885.825 .0261455
886.490 .0261352
887.154 .0261276
887.818 .0261216
888.482 .0261176
889.145 .0261145
889.808 .0261117
890.471 .0261086
891.133 .0261055
891.795 .0261017
892.456 .0260978
893.117 .0260945
893.778 .0260919
894.439 .0260902
895.099 .0260890
895.758 .0260874
896.417 .0260853
897.076 .0260824
897.735 .0260777
898.393 .0260711
899.051 .0260637
899.708 .0260546
900.365 .0260451
901.022 .0260356
901.678 .0260268
902.334 .0260184
902.990 .0260108
903.645 .0260032
904.300 .0259956
904.954 .0259875
905.608 .0259780
906.262 .0259676
906.915 .0259571
907.568 .0259455
908.221 .0259334
908.873 .0259214
909.525 .0259099
910.176 .0258982
910.828 .0258870
911.478 .0258756
912.129 .0258638
912.778 .0258513
913.428 .0258378
914.077 .0258237
914.726 .0258093
915.375 .0257947
916.023 .0257808
916.670 .0257685
917.318 .0257572
917.964 .0257465
918.611 .0257369
919.257 .0257274
919.903 .0257177
920.548 .0257072
921.193 .0256960
921.838 .0256844
922.482 .0256730
923.126 .0256618
923.770 .0256520
924.413 .0256437
925.056 .0256368
925.698 .0256309
926.340 .0256257
926.982 .0256201
927.623 .0256140
928.264 .0256074
928.904 .0256005
929.544 .0255931
930.184 .0255852
930.823 .0255772
931.462 .0255695
932.101 .0255618
932.739 .0255538
933.377 .0255451
934.014 .0255355
934.651 .0255244
935.288 .0255115
935.924 .0254966
936.560 .0254805
937.196 .0254637
937.831 .0254468
938.466 .0254298
939.100 .0254136
939.734 .0253980
940.368 .0253837
941.001 .0253711
941.634 .0253597
942.266 .0253492
942.899 .0253393
943.530 .0253292
944.162 .0253184
944.793 .0253069
945.423 .0252942
946.053 .0252801
946.683 .0252651
947.313 .0252491
947.942 .0252318
948.571 .0252142
949.199 .0251964
949.827 .0251780
950.455 .0251594
951.082 .0251403
951.709 .0251201
952.335 .0251002
952.961 .0250800
953.587 .0250600
954.212 .0250408
954.837 .0250232
955.462 .0250066
956.086 .0249920
956.710 .0249801
957.334 .0249703
957.957 .0249627
958.579 .0249573
959.202 .0249527
959.824 .0249484
960.445 .0249437
961.067 .0249381
961.688 .0249313
962.308 .0249239
962.928 .0249155
963.548 .0249062
964.168 .0248965
964.787 .0248863
965.406 .0248753
966.024 .0248640
966.642 .0248517
967.260 .0248383
967.877 .0248242
968.494 .0248096
969.110 .0247944
969.727 .0247792
970.342 .0247649
970.958 .0247519
971.573 .0247400
972.188 .0247292
972.802 .0247192
973.416 .0247101
974.030 .0247013
974.643 .0246928
975.256 .0246847
975.869 .0246770
976.481 .0246695
977.093 .0246628
977.705 .0246574
978.316 .0246532
978.927 .0246500
979.538 .0246476
980.148 .0246456
980.758 .0246431
981.367 .0246397
981.977 .0246356
982.586 .0246311
983.194 .0246260
983.802 .0246207
984.410 .0246154
985.018 .0246111
985.625 .0246076
986.232 .0246049
986.838 .0246032
987.445 .0246022
988.050 .0246011
988.656 .0245996
989.261 .0245970
989.866 .0245932
990.471 .0245881
991.075 .0245820
991.679 .0245753
992.282 .0245685
992.886 .0245620
993.489 .0245561
994.091 .0245511
994.694 .0245468
995.296 .0245425
995.897 .0245380
996.499 .0245333
997.100 .0245277
997.701 .0245212
998.301 .0245148
998.901 .0245091
999.501 .0245041
1000.101 .0245006
1000.700 .0244987
1001.299 .0244984
1001.898 .0244996
1002.496 .0245017
1003.094 .0245039
1003.692 .0245062
1004.289 .0245080
1004.887 .0245095
1005.484 .0245105
1006.080 .0245114
1006.677 .0245123
1007.273 .0245130
1007.868 .0245136
1008.464 .0245135
1009.059 .0245130
1009.654 .0245120
1010.249 .0245106
1010.843 .0245092
1011.437 .0245073
1012.031 .0245057
1012.625 .0245049
1013.218 .0245049
1013.811 .0245059
1014.404 .0245079
1014.997 .0245105
1015.589 .0245135
1016.181 .0245172
1016.773 .0245207
1017.365 .0245244
1017.956 .0245282
1018.547 .0245323
1019.138 .0245359
1019.728 .0245396
1020.319 .0245426
1020.909 .0245449
1021.499 .0245464
1022.088 .0245463
1022.678 .0245445
1023.267 .0245411
1023.856 .0245358
1024.445 .0245289
1025.033 .0245210
1025.621 .0245124
1026.209 .0245032
1026.797 .0244942
1027.385 .0244855
1027.972 .0244778
1028.560 .0244712
1029.147 .0244656
1029.734 .0244617
1030.320 .0244590
1030.907 .0244565
1031.493 .0244540
1032.079 .0244515
1032.665 .0244489
1033.250 .0244464
1033.836 .0244444
1034.421 .0244425
1035.006 .0244415
1035.591 .0244411
1036.176 .0244403
1036.761 .0244387
1037.345 .0244362
1037.929 .0244316
1038.514 .0244249
1039.097 .0244166
1039.681 .0244073
1040.265 .0243984
1040.848 .0243913
1041.432 .0243864
1042.015 .0243844
1042.598 .0243846
1043.181 .0243871
1043.764 .0243900
1044.346 .0243934
1044.929 .0243959
1045.511 .0243973
1046.094 .0243980
1046.676 .0243984
1047.258 .0243991
1047.840 .0244010
1048.422 .0244036
1049.003 .0244076
1049.585 .0244113
1050.166 .0244138
1050.748 .0244146
1051.329 .0244134
1051.910 .0244100
1052.491 .0244041
1053.072 .0243957
1053.653 .0243861
1054.234 .0243755
1054.815 .0243643
1055.396 .0243534
1055.976 .0243430
1056.557 .0243329
1057.138 .0243238
1057.718 .0243159
1058.298 .0243101
1058.879 .0243061
1059.459 .0243030
1060.039 .0243009
1060.620 .0242986
1061.200 .0242946
1061.780 .0242879
1062.360 .0242794
1062.940 .0242691
1063.520 .0242563
1064.101 .0242422
1064.681 .0242275
1065.261 .0242123
1065.841 .0241973
1066.421 .0241828
1067.001 .0241676
1067.581 .0241523
1068.161 .0241358
1068.741 .0241194
1069.321 .0241036
1069.901 .0240893
1070.482 .0240776
1071.062 .0240686
1071.642 .0240620
1072.222 .0240585
1072.803 .0240567
1073.383 .0240571
1073.963 .0240576
1074.544 .0240589
1075.124 .0240601
1075.705 .0240615
1076.286 .0240628
1076.866 .0240638
1077.447 .0240658
1078.028 .0240680
1078.609 .0240678
1079.190 .0240668
1079.771 .0240645
1080.352 .0240602
1080.934 .0240524
1081.515 .0240435
1082.097 .0240330
1082.679 .0240221
1083.260 .0240114
1083.842 .0240021
1084.424 .0239938
1085.007 .0239875
1085.589 .0239809
1086.172 .0239747
1086.754 .0239697
1087.337 .0239637
1087.920 .0239565
1088.503 .0239495
1089.087 .0239420
1089.670 .0239345
1090.254 .0239272
1090.838 .0239228
1091.422 .0239193
1092.006 .0239176
1092.590 .0239165
1093.175 .0239163
1093.760 .0239167
1094.345 .0239163
1094.930 .0239140
1095.516 .0239105
1096.102 .0239064
1096.688 .0239015
1097.274 .0238956
1097.860 .0238899
1098.447 .0238848
1099.034 .0238808
1099.622 .0238758
1100.209 .0238722
1100.797 .0238685
1101.385 .0238649
1101.973 .0238612
1102.562 .0238571
1103.151 .0238528
1103.740 .0238479
1104.330 .0238424
1104.920 .0238380
1105.510 .0238347
1106.101 .0238331
1106.691 .0238333
1107.283 .0238355
1107.874 .0238396
1108.466 .0238430
1109.058 .0238446
1109.651 .0238455
1110.244 .0238428
1110.837 .0238382
1111.431 .0238305
1112.025 .0238221
1112.620 .0238151
1113.215 .0238080
1113.810 .0238023
1114.406 .0237989
1115.002 .0237957
1115.599 .0237917
1116.196 .0237853
1116.793 .0237779
1117.391 .0237690
1117.989 .0237589
1118.588 .0237495
1119.187 .0237413
1119.787 .0237389
1120.387 .0237433
1120.988 .0237522
1121.589 .0237690
1122.190 .0237914
1122.793 .0238176
1123.395 .0238478
1123.998 .0238819
1124.602 .0239206
1125.206 .0239647
1125.811 .0240165
1126.416 .0240749
1127.022 .0241379
1127.628 .0242063
1128.235 .0242759
1128.843 .0243458
1129.451 .0244138
1130.059 .0244745
1130.669 .0245289
1131.278 .0245839
1131.889 .0246369
1132.500 .0246887
1133.112 .0247417
1133.724 .0247986
1134.337 .0248572
1134.950 .0249146
1135.564 .0249689
1136.179 .0250184
1136.795 .0250640
1137.411 .0251052
1138.028 .0251396
1138.645 .0251767
1139.263 .0252201
1139.882 .0252646
1140.502 .0253168
1141.122 .0253739
1141.743 .0254433
1142.365 .0255281
1142.987 .0255004
1143.611 .0256583
1144.235 .0256819
1144.859 .0259465
1145.485 .0262643
