Measurement Sequence started on: 10-20-44-796
Integration time: 35
Scans to Average: 2 
>>>>>Begin Spectral Data<<<<<
432.953 .0546015
433.882 .0408699
434.810 .0330428
435.737 .0326657
436.662 .0308429
437.586 .0337224
438.509 .0327821
439.431 .0325246
440.351 .0325507
441.269 .0325630
442.187 .0325863
443.103 .0325573
444.018 .0325176
444.932 .0324928
445.844 .0324761
446.756 .0324844
447.666 .0324852
448.575 .0324696
449.482 .0324374
450.388 .0323768
451.294 .0323010
452.198 .0322091
453.100 .0321098
454.002 .0320221
454.902 .0319512
455.801 .0318912
456.699 .0318480
457.596 .0318187
458.492 .0317972
459.387 .0317755
460.280 .0317522
461.172 .0317234
462.064 .0316919
462.954 .0316553
463.843 .0316166
464.730 .0315754
465.617 .0315327
466.503 .0314845
467.387 .0314347
468.271 .0313831
469.153 .0313295
470.035 .0312753
470.915 .0312307
471.794 .0311905
472.673 .0311571
473.550 .0311326
474.426 .0311176
475.301 .0311118
476.175 .0311112
477.048 .0311117
477.920 .0311099
478.791 .0311055
479.661 .0311011
480.530 .0310926
481.398 .0310844
482.266 .0310778
483.132 .0310718
483.997 .0310646
484.861 .0310571
485.724 .0310471
486.587 .0310362
487.448 .0310225
488.308 .0310071
489.168 .0309883
490.026 .0309676
490.884 .0309466
491.741 .0309217
492.597 .0308970
493.452 .0308708
494.306 .0308404
495.159 .0308109
496.011 .0307815
496.862 .0307531
497.713 .0307223
498.562 .0306888
499.411 .0306499
500.259 .0306015
501.106 .0305461
501.952 .0304815
502.798 .0304085
503.642 .0303283
504.486 .0302407
505.329 .0301460
506.171 .0300458
507.012 .0299387
507.852 .0298296
508.692 .0297182
509.531 .0296027
510.369 .0294840
511.206 .0293651
512.043 .0292493
512.878 .0291363
513.713 .0290259
514.547 .0289208
515.381 .0288178
516.213 .0287168
517.045 .0286085
517.876 .0284980
518.706 .0283814
519.536 .0282561
520.365 .0281259
521.193 .0279932
522.020 .0278591
522.847 .0277226
523.673 .0275860
524.498 .0274435
525.323 .0272921
526.146 .0271314
526.969 .0269571
527.792 .0267741
528.614 .0265807
529.435 .0263812
530.255 .0261805
531.075 .0259836
531.894 .0257919
532.712 .0256082
533.530 .0254404
534.347 .0252851
535.163 .0251486
535.979 .0250305
536.794 .0249381
537.608 .0248718
538.422 .0248320
539.235 .0248146
540.048 .0248167
540.860 .0248371
541.671 .0248685
542.481 .0249097
543.292 .0249566
544.101 .0250063
544.910 .0250614
545.718 .0251177
546.526 .0251780
547.333 .0252428
548.139 .0253148
548.945 .0253931
549.750 .0254698
550.555 .0255424
551.359 .0256057
552.162 .0256597
552.965 .0257038
553.768 .0257363
554.569 .0257611
555.371 .0257830
556.171 .0258041
556.972 .0258304
557.771 .0258608
558.570 .0259002
559.369 .0259487
560.167 .0260075
560.964 .0260705
561.761 .0261328
562.558 .0261964
563.354 .0262619
564.149 .0263239
564.944 .0263841
565.738 .0264422
566.532 .0265020
567.325 .0265668
568.118 .0266355
568.910 .0267089
569.702 .0267919
570.494 .0268791
571.285 .0269677
572.075 .0270545
572.865 .0271393
573.654 .0272164
574.443 .0272889
575.232 .0273573
576.020 .0274198
576.807 .0274796
577.594 .0275390
578.381 .0275988
579.167 .0276620
579.952 .0277260
580.738 .0277898
581.522 .0278547
582.307 .0279205
583.091 .0279827
583.874 .0280424
584.657 .0281005
585.440 .0281561
586.222 .0282073
587.004 .0282545
587.785 .0282974
588.566 .0283371
589.346 .0283731
590.126 .0284056
590.906 .0284346
591.685 .0284614
592.464 .0284845
593.242 .0285049
594.020 .0285219
594.797 .0285360
595.575 .0285456
596.351 .0285518
597.128 .0285543
597.904 .0285527
598.679 .0285474
599.454 .0285388
600.229 .0285272
601.004 .0285145
601.778 .0284991
602.551 .0284829
603.325 .0284659
604.097 .0284498
604.870 .0284335
605.642 .0284184
606.414 .0284041
607.185 .0283899
607.956 .0283767
608.727 .0283642
609.497 .0283512
610.267 .0283387
611.037 .0283262
611.806 .0283132
612.575 .0283004
613.344 .0282887
614.112 .0282767
614.880 .0282655
615.647 .0282544
616.414 .0282423
617.181 .0282289
617.948 .0282139
618.714 .0281968
619.480 .0281780
620.245 .0281590
621.011 .0281386
621.775 .0281183
622.540 .0280998
623.304 .0280824
624.068 .0280671
624.832 .0280535
625.595 .0280413
626.358 .0280299
627.120 .0280190
627.883 .0280085
628.645 .0279984
629.406 .0279889
630.168 .0279794
630.929 .0279699
631.689 .0279609
632.450 .0279517
633.210 .0279420
633.970 .0279317
634.729 .0279208
635.489 .0279081
636.248 .0278936
637.006 .0278775
637.765 .0278607
638.523 .0278424
639.280 .0278239
640.038 .0278057
640.795 .0277889
641.552 .0277731
642.309 .0277592
643.065 .0277469
643.821 .0277367
644.577 .0277273
645.332 .0277184
646.088 .0277093
646.843 .0277003
647.597 .0276904
648.352 .0276804
649.106 .0276708
649.860 .0276614
650.613 .0276520
651.367 .0276433
652.120 .0276343
652.872 .0276242
653.625 .0276124
654.377 .0275994
655.129 .0275842
655.881 .0275679
656.632 .0275505
657.384 .0275330
658.135 .0275163
658.885 .0275006
659.636 .0274855
660.386 .0274708
661.136 .0274567
661.885 .0274418
662.635 .0274262
663.384 .0274107
664.133 .0273947
664.881 .0273790
665.630 .0273642
666.378 .0273503
667.126 .0273370
667.874 .0273245
668.621 .0273121
669.368 .0272996
670.115 .0272871
670.862 .0272738
671.608 .0272601
672.354 .0272462
673.100 .0272324
673.846 .0272187
674.591 .0272054
675.337 .0271927
676.082 .0271800
676.826 .0271679
677.571 .0271553
678.315 .0271425
679.059 .0271292
679.803 .0271152
680.547 .0271002
681.290 .0270838
682.033 .0270661
682.776 .0270469
683.518 .0270265
684.261 .0270057
685.003 .0269848
685.745 .0269644
686.487 .0269447
687.228 .0269261
687.969 .0269082
688.710 .0268905
689.451 .0268728
690.192 .0268542
690.932 .0268346
691.672 .0268138
692.412 .0267921
693.152 .0267708
693.891 .0267502
694.630 .0267311
695.369 .0267140
696.108 .0266984
696.846 .0266840
697.585 .0266701
698.323 .0266563
699.061 .0266421
699.798 .0266275
700.536 .0266123
701.273 .0265968
702.010 .0265819
702.746 .0265679
703.483 .0265548
704.219 .0265432
704.955 .0265319
705.691 .0265206
706.427 .0265093
707.162 .0264975
707.897 .0264852
708.632 .0264730
709.367 .0264610
710.101 .0264493
710.835 .0264373
711.569 .0264250
712.303 .0264112
713.037 .0263963
713.770 .0263799
714.503 .0263621
715.236 .0263436
715.969 .0263254
716.702 .0263080
717.434 .0262924
718.166 .0262781
718.898 .0262658
719.629 .0262536
720.361 .0262416
721.092 .0262289
721.823 .0262149
722.554 .0261998
723.284 .0261846
724.014 .0261688
724.744 .0261537
725.474 .0261388
726.204 .0261245
726.933 .0261101
727.662 .0260962
728.391 .0260816
729.120 .0260665
729.849 .0260509
730.577 .0260355
731.305 .0260194
732.033 .0260043
732.760 .0259892
733.488 .0259748
734.215 .0259610
734.942 .0259471
735.669 .0259332
736.395 .0259195
737.122 .0259059
737.848 .0258927
738.573 .0258798
739.299 .0258681
740.024 .0258563
740.750 .0258453
741.474 .0258344
742.199 .0258235
742.924 .0258124
743.648 .0258013
744.372 .0257904
745.096 .0257799
745.819 .0257696
746.543 .0257596
747.266 .0257504
747.989 .0257422
748.711 .0257351
749.434 .0257290
750.156 .0257249
750.878 .0257230
751.599 .0257231
752.321 .0257252
753.042 .0257290
753.763 .0257340
754.484 .0257398
755.205 .0257451
755.925 .0257498
756.645 .0257535
757.365 .0257564
758.085 .0257581
758.804 .0257587
759.523 .0257580
760.242 .0257554
760.961 .0257506
761.679 .0257433
762.397 .0257327
763.115 .0257191
763.833 .0257024
764.551 .0256830
765.268 .0256616
765.985 .0256389
766.702 .0256151
767.418 .0255914
768.134 .0255676
768.850 .0255437
769.566 .0255198
770.282 .0254958
770.997 .0254724
771.712 .0254495
772.427 .0254280
773.142 .0254081
773.856 .0253900
774.570 .0253741
775.284 .0253597
775.998 .0253464
776.711 .0253340
777.424 .0253220
778.137 .0253098
778.849 .0252977
779.562 .0252854
780.274 .0252733
780.986 .0252616
781.697 .0252504
782.409 .0252397
783.120 .0252294
783.831 .0252194
784.541 .0252093
785.252 .0251990
785.962 .0251888
786.671 .0251777
787.381 .0251661
788.090 .0251540
788.799 .0251415
789.508 .0251280
790.217 .0251140
790.925 .0250996
791.633 .0250849
792.341 .0250700
793.048 .0250547
793.755 .0250390
794.462 .0250233
795.169 .0250070
795.875 .0249904
796.581 .0249737
797.287 .0249574
797.993 .0249412
798.698 .0249259
799.403 .0249114
800.108 .0248976
800.812 .0248846
801.517 .0248720
802.221 .0248598
802.924 .0248476
803.628 .0248353
804.331 .0248231
805.034 .0248109
805.736 .0247987
806.439 .0247862
807.141 .0247738
807.843 .0247615
808.544 .0247490
809.245 .0247357
809.946 .0247221
810.647 .0247081
811.347 .0246938
812.047 .0246795
812.747 .0246655
813.447 .0246520
814.146 .0246390
814.845 .0246267
815.543 .0246151
816.242 .0246037
816.940 .0245925
817.638 .0245809
818.335 .0245693
819.032 .0245571
819.729 .0245441
820.426 .0245308
821.122 .0245174
821.818 .0245034
822.514 .0244890
823.209 .0244746
823.905 .0244601
824.599 .0244452
825.294 .0244298
825.988 .0244137
826.682 .0243972
827.376 .0243801
828.069 .0243627
828.762 .0243454
829.455 .0243287
830.147 .0243125
830.840 .0242968
831.531 .0242822
832.223 .0242683
832.914 .0242546
833.605 .0242409
834.296 .0242269
834.986 .0242124
835.676 .0241975
836.366 .0241826
837.055 .0241679
837.744 .0241537
838.433 .0241399
839.121 .0241265
839.809 .0241136
840.497 .0241016
841.185 .0240902
841.872 .0240795
842.559 .0240703
843.245 .0240616
843.932 .0240537
844.617 .0240468
845.303 .0240407
845.988 .0240350
846.673 .0240297
847.358 .0240248
848.042 .0240199
848.726 .0240155
849.410 .0240117
850.093 .0240077
850.776 .0240041
851.459 .0239996
852.141 .0239942
852.823 .0239876
853.505 .0239802
854.186 .0239713
854.867 .0239620
855.548 .0239523
856.228 .0239427
856.908 .0239333
857.588 .0239248
858.267 .0239170
858.946 .0239095
859.625 .0239023
860.303 .0238955
860.981 .0238890
861.659 .0238836
862.336 .0238786
863.013 .0238747
863.690 .0238714
864.366 .0238686
865.042 .0238657
865.718 .0238626
866.393 .0238594
867.068 .0238556
867.743 .0238515
868.417 .0238475
869.091 .0238435
869.765 .0238398
870.438 .0238365
871.111 .0238332
871.783 .0238300
872.456 .0238263
873.127 .0238219
873.799 .0238169
874.470 .0238111
875.141 .0238048
875.811 .0237980
876.481 .0237910
877.151 .0237840
877.820 .0237767
878.489 .0237699
879.158 .0237633
879.826 .0237575
880.494 .0237518
881.162 .0237467
881.829 .0237419
882.496 .0237371
883.163 .0237320
883.829 .0237268
884.495 .0237209
885.160 .0237155
885.825 .0237105
886.490 .0237065
887.154 .0237039
887.818 .0237031
888.482 .0237038
889.145 .0237058
889.808 .0237083
890.471 .0237108
891.133 .0237125
891.795 .0237134
892.456 .0237128
893.117 .0237111
893.778 .0237094
894.439 .0237077
895.099 .0237061
895.758 .0237053
896.417 .0237048
897.076 .0237045
897.735 .0237043
898.393 .0237038
899.051 .0237026
899.708 .0237008
900.365 .0236981
901.022 .0236949
901.678 .0236921
902.334 .0236892
902.990 .0236866
903.645 .0236843
904.300 .0236825
904.954 .0236805
905.608 .0236783
906.262 .0236759
906.915 .0236733
907.568 .0236702
908.221 .0236669
908.873 .0236631
909.525 .0236595
910.176 .0236558
910.828 .0236522
911.478 .0236485
912.129 .0236446
912.778 .0236399
913.428 .0236348
914.077 .0236288
914.726 .0236224
915.375 .0236156
916.023 .0236087
916.670 .0236024
917.318 .0235965
917.964 .0235907
918.611 .0235854
919.257 .0235801
919.903 .0235748
920.548 .0235690
921.193 .0235631
921.838 .0235572
922.482 .0235516
923.126 .0235467
923.770 .0235423
924.413 .0235389
925.056 .0235361
925.698 .0235335
926.340 .0235307
926.982 .0235274
927.623 .0235226
928.264 .0235164
928.904 .0235092
929.544 .0235006
930.184 .0234911
930.823 .0234808
931.462 .0234693
932.101 .0234573
932.739 .0234446
933.377 .0234309
934.014 .0234159
934.651 .0234004
935.288 .0233838
935.924 .0233669
936.560 .0233505
937.196 .0233347
937.831 .0233198
938.466 .0233059
939.100 .0232927
939.734 .0232796
940.368 .0232668
941.001 .0232540
941.634 .0232411
942.266 .0232284
942.899 .0232157
943.530 .0232029
944.162 .0231905
944.793 .0231785
945.423 .0231660
946.053 .0231528
946.683 .0231389
947.313 .0231235
947.942 .0231068
948.571 .0230887
949.199 .0230695
949.827 .0230492
950.455 .0230282
951.082 .0230064
951.709 .0229841
952.335 .0229617
952.961 .0229394
953.587 .0229175
954.212 .0228959
954.837 .0228744
955.462 .0228533
956.086 .0228328
956.710 .0228131
957.334 .0227939
957.957 .0227750
958.579 .0227560
959.202 .0227371
959.824 .0227180
960.445 .0226992
961.067 .0226810
961.688 .0226638
962.308 .0226476
962.928 .0226324
963.548 .0226181
964.168 .0226044
964.787 .0225910
965.406 .0225772
966.024 .0225627
966.642 .0225476
967.260 .0225317
967.877 .0225157
968.494 .0224997
969.110 .0224843
969.727 .0224690
970.342 .0224548
970.958 .0224410
971.573 .0224271
972.188 .0224135
972.802 .0223993
973.416 .0223849
974.030 .0223701
974.643 .0223549
975.256 .0223403
975.869 .0223261
976.481 .0223128
977.093 .0223002
977.705 .0222891
978.316 .0222789
978.927 .0222697
979.538 .0222610
980.148 .0222525
980.758 .0222436
981.367 .0222347
981.977 .0222253
982.586 .0222156
983.194 .0222060
983.802 .0221959
984.410 .0221854
985.018 .0221749
985.625 .0221638
986.232 .0221532
986.838 .0221426
987.445 .0221326
988.050 .0221226
988.656 .0221128
989.261 .0221031
989.866 .0220936
990.471 .0220847
991.075 .0220761
991.679 .0220675
992.282 .0220597
992.886 .0220526
993.489 .0220462
994.091 .0220404
994.694 .0220353
995.296 .0220297
995.897 .0220240
996.499 .0220169
997.100 .0220085
997.701 .0219995
998.301 .0219904
998.901 .0219812
999.501 .0219725
1000.101 .0219648
1000.700 .0219581
1001.299 .0219520
1001.898 .0219462
1002.496 .0219397
1003.094 .0219321
1003.692 .0219234
1004.289 .0219135
1004.887 .0219031
1005.484 .0218933
1006.080 .0218842
1006.677 .0218771
1007.273 .0218717
1007.868 .0218677
1008.464 .0218648
1009.059 .0218624
1009.654 .0218601
1010.249 .0218575
1010.843 .0218543
1011.437 .0218506
1012.031 .0218469
1012.625 .0218437
1013.218 .0218407
1013.811 .0218389
1014.404 .0218384
1014.997 .0218393
1015.589 .0218408
1016.181 .0218424
1016.773 .0218431
1017.365 .0218435
1017.956 .0218423
1018.547 .0218394
1019.138 .0218352
1019.728 .0218300
1020.319 .0218234
1020.909 .0218166
1021.499 .0218098
1022.088 .0218042
1022.678 .0217999
1023.267 .0217968
1023.856 .0217938
1024.445 .0217916
1025.033 .0217889
1025.621 .0217856
1026.209 .0217816
1026.797 .0217770
1027.385 .0217717
1027.972 .0217663
1028.560 .0217621
1029.147 .0217590
1029.734 .0217573
1030.320 .0217572
1030.907 .0217576
1031.493 .0217585
1032.079 .0217586
1032.665 .0217578
1033.250 .0217564
1033.836 .0217551
1034.421 .0217537
1035.006 .0217530
1035.591 .0217534
1036.176 .0217550
1036.761 .0217574
1037.345 .0217598
1037.929 .0217612
1038.514 .0217612
1039.097 .0217601
1039.681 .0217577
1040.265 .0217540
1040.848 .0217504
1041.432 .0217476
1042.015 .0217460
1042.598 .0217461
1043.181 .0217483
1043.764 .0217521
1044.346 .0217575
1044.929 .0217633
1045.511 .0217693
1046.094 .0217750
1046.676 .0217808
1047.258 .0217869
1047.840 .0217936
1048.422 .0218008
1049.003 .0218082
1049.585 .0218158
1050.166 .0218247
1050.748 .0218337
1051.329 .0218424
1051.910 .0218504
1052.491 .0218575
1053.072 .0218631
1053.653 .0218671
1054.234 .0218691
1054.815 .0218702
1055.396 .0218702
1055.976 .0218696
1056.557 .0218680
1057.138 .0218669
1057.718 .0218662
1058.298 .0218668
1058.879 .0218680
1059.459 .0218701
1060.039 .0218721
1060.620 .0218738
1061.200 .0218744
1061.780 .0218739
1062.360 .0218719
1062.940 .0218694
1063.520 .0218662
1064.101 .0218629
1064.681 .0218591
1065.261 .0218560
1065.841 .0218531
1066.421 .0218511
1067.001 .0218486
1067.581 .0218446
1068.161 .0218388
1068.741 .0218311
1069.321 .0218209
1069.901 .0218095
1070.482 .0217969
1071.062 .0217833
1071.642 .0217694
1072.222 .0217557
1072.803 .0217406
1073.383 .0217252
1073.963 .0217101
1074.544 .0216957
1075.124 .0216821
1075.705 .0216698
1076.286 .0216606
1076.866 .0216550
1077.447 .0216531
1078.028 .0216547
1078.609 .0216596
1079.190 .0216674
1079.771 .0216767
1080.352 .0216877
1080.934 .0217003
1081.515 .0217141
1082.097 .0217302
1082.679 .0217474
1083.260 .0217659
1083.842 .0217849
1084.424 .0218028
1085.007 .0218195
1085.589 .0218341
1086.172 .0218445
1086.754 .0218509
1087.337 .0218545
1087.920 .0218572
1088.503 .0218591
1089.087 .0218614
1089.670 .0218658
1090.254 .0218715
1090.838 .0218776
1091.422 .0218853
1092.006 .0218919
1092.590 .0218987
1093.175 .0219047
1093.760 .0219112
1094.345 .0219184
1094.930 .0219267
1095.516 .0219375
1096.102 .0219501
1096.688 .0219636
1097.274 .0219781
1097.860 .0219892
1098.447 .0219981
1099.034 .0220028
1099.622 .0220027
1100.209 .0219975
1100.797 .0219889
1101.385 .0219767
1101.973 .0219617
1102.562 .0219455
1103.151 .0219298
1103.740 .0219130
1104.330 .0218981
1104.920 .0218844
1105.510 .0218716
1106.101 .0218613
1106.691 .0218542
1107.283 .0218513
1107.874 .0218540
1108.466 .0218606
1109.058 .0218732
1109.651 .0218905
1110.244 .0219143
1110.837 .0219413
1111.431 .0219718
1112.025 .0220059
1112.620 .0220421
1113.215 .0220785
1113.810 .0221161
1114.406 .0221543
1115.002 .0221941
1115.599 .0222317
1116.196 .0222684
1116.793 .0223017
1117.391 .0223314
1117.989 .0223569
1118.588 .0223774
1119.187 .0223952
1119.787 .0224120
1120.387 .0224262
1120.988 .0224410
1121.589 .0224571
1122.190 .0224718
1122.793 .0224849
1123.395 .0224958
1123.998 .0225025
1124.602 .0225034
1125.206 .0224980
1125.811 .0224892
1126.416 .0224775
1127.022 .0224650
1127.628 .0224520
1128.235 .0224393
1128.843 .0224310
1129.451 .0224217
1130.059 .0224094
1130.669 .0223968
1131.278 .0223853
1131.889 .0223743
1132.500 .0223675
1133.112 .0223672
1133.724 .0223752
1134.337 .0223909
1134.950 .0224110
1135.564 .0224367
1136.179 .0224613
1136.795 .0224854
1137.411 .0225087
1138.028 .0225302
1138.645 .0225563
1139.263 .0225905
1139.882 .0226311
1140.502 .0226748
1141.122 .0227213
1141.743 .0227742
1142.365 .0228433
1142.987 .0228897
1143.611 .0228212
1144.235 .0228676
1144.859 .0230996
1145.485 .0236523
