Measurement Sequence started on: 10-20-44-796
Integration time: 35
Scans to Average: 2 
>>>>>Begin Spectral Data<<<<<
432.953 .0449678
433.882 .0382046
434.810 .0349312
435.737 .0348993
436.662 .0343550
437.586 .0356040
438.509 .0351699
439.431 .0350414
440.351 .0350199
441.269 .0350122
442.187 .0350171
443.103 .0350080
444.018 .0350420
444.932 .0350795
445.844 .0351056
446.756 .0351106
447.666 .0350918
448.575 .0350424
449.482 .0349727
450.388 .0348922
451.294 .0348050
452.198 .0347327
453.100 .0346620
454.002 .0346080
454.902 .0345562
455.801 .0345112
456.699 .0344642
457.596 .0344197
458.492 .0343702
459.387 .0343192
460.280 .0342695
461.172 .0342141
462.064 .0341623
462.954 .0341077
463.843 .0340490
464.730 .0339931
465.617 .0339400
466.503 .0338885
467.387 .0338369
468.271 .0337918
469.153 .0337490
470.035 .0337111
470.915 .0336775
471.794 .0336433
472.673 .0336119
473.550 .0335824
474.426 .0335531
475.301 .0335196
476.175 .0334875
477.048 .0334529
477.920 .0334166
478.791 .0333827
479.661 .0333508
480.530 .0333206
481.398 .0332958
482.266 .0332773
483.132 .0332634
483.997 .0332517
484.861 .0332436
485.724 .0332390
486.587 .0332358
487.448 .0332292
488.308 .0332202
489.168 .0332090
490.026 .0331956
490.884 .0331771
491.741 .0331526
492.597 .0331257
493.452 .0330951
494.306 .0330590
495.159 .0330184
496.011 .0329743
496.862 .0329280
497.713 .0328744
498.562 .0328166
499.411 .0327490
500.259 .0326679
501.106 .0325760
501.952 .0324745
502.798 .0323626
503.642 .0322444
504.486 .0321266
505.329 .0320133
506.171 .0319092
507.012 .0318154
507.852 .0317270
508.692 .0316448
509.531 .0315636
510.369 .0314776
511.206 .0313821
512.043 .0312812
512.878 .0311738
513.713 .0310643
514.547 .0309579
515.381 .0308525
516.213 .0307472
517.045 .0306446
517.876 .0305351
518.706 .0304146
519.536 .0302762
520.365 .0301234
521.193 .0299546
522.020 .0297766
522.847 .0295927
523.673 .0294056
524.498 .0292189
525.323 .0290337
526.146 .0288508
526.969 .0286694
527.792 .0284861
528.614 .0283049
529.435 .0281275
530.255 .0279621
531.075 .0278057
531.894 .0276698
532.712 .0275522
533.530 .0274569
534.347 .0273760
535.163 .0273048
535.979 .0272433
536.794 .0271914
537.608 .0271458
538.422 .0271021
539.235 .0270665
540.048 .0270432
540.860 .0270249
541.671 .0270206
542.481 .0270244
543.292 .0270425
544.101 .0270696
544.910 .0271056
545.718 .0271430
546.526 .0271882
547.333 .0272401
548.139 .0272921
548.945 .0273465
549.750 .0274036
550.555 .0274617
551.359 .0275230
552.162 .0275860
552.965 .0276517
553.768 .0277170
554.569 .0277830
555.371 .0278425
556.171 .0279008
556.972 .0279542
557.771 .0280021
558.570 .0280494
559.369 .0281024
560.167 .0281569
560.964 .0282189
561.761 .0282903
562.558 .0283709
563.354 .0284556
564.149 .0285403
564.944 .0286207
565.738 .0286984
566.532 .0287722
567.325 .0288413
568.118 .0289066
568.910 .0289773
569.702 .0290494
570.494 .0291296
571.285 .0292167
572.075 .0293069
572.865 .0293980
573.654 .0294882
574.443 .0295729
575.232 .0296524
576.020 .0297245
576.807 .0297934
577.594 .0298605
578.381 .0299274
579.167 .0299931
579.952 .0300604
580.738 .0301307
581.522 .0302005
582.307 .0302673
583.091 .0303328
583.874 .0303932
584.657 .0304506
585.440 .0305070
586.222 .0305611
587.004 .0306134
587.785 .0306640
588.566 .0307123
589.346 .0307583
590.126 .0308001
590.906 .0308359
591.685 .0308655
592.464 .0308893
593.242 .0309076
594.020 .0309193
594.797 .0309287
595.575 .0309366
596.351 .0309412
597.128 .0309440
597.904 .0309453
598.679 .0309441
599.454 .0309408
600.229 .0309350
601.004 .0309270
601.778 .0309169
602.551 .0309047
603.325 .0308915
604.097 .0308787
604.870 .0308674
605.642 .0308576
606.414 .0308487
607.185 .0308407
607.956 .0308328
608.727 .0308249
609.497 .0308167
610.267 .0308084
611.037 .0307989
611.806 .0307887
612.575 .0307767
613.344 .0307640
614.112 .0307506
614.880 .0307370
615.647 .0307239
616.414 .0307108
617.181 .0306980
617.948 .0306857
618.714 .0306734
619.480 .0306611
620.245 .0306482
621.011 .0306347
621.775 .0306194
622.540 .0306045
623.304 .0305898
624.068 .0305766
624.832 .0305651
625.595 .0305565
626.358 .0305505
627.120 .0305462
627.883 .0305422
628.645 .0305369
629.406 .0305300
630.168 .0305201
630.929 .0305064
631.689 .0304907
632.450 .0304735
633.210 .0304560
633.970 .0304388
634.729 .0304227
635.489 .0304070
636.248 .0303911
637.006 .0303739
637.765 .0303540
638.523 .0303311
639.280 .0303047
640.038 .0302755
640.795 .0302456
641.552 .0302161
642.309 .0301882
643.065 .0301638
643.821 .0301426
644.577 .0301243
645.332 .0301077
646.088 .0300920
646.843 .0300756
647.597 .0300578
648.352 .0300376
649.106 .0300159
649.860 .0299932
650.613 .0299707
651.367 .0299491
652.120 .0299290
652.872 .0299108
653.625 .0298941
654.377 .0298783
655.129 .0298629
655.881 .0298471
656.632 .0298311
657.384 .0298144
658.135 .0297980
658.885 .0297808
659.636 .0297637
660.386 .0297474
661.136 .0297314
661.885 .0297155
662.635 .0297003
663.384 .0296858
664.133 .0296723
664.881 .0296594
665.630 .0296466
666.378 .0296338
667.126 .0296211
667.874 .0296073
668.621 .0295918
669.368 .0295751
670.115 .0295569
670.862 .0295374
671.608 .0295183
672.354 .0294998
673.100 .0294820
673.846 .0294658
674.591 .0294512
675.337 .0294377
676.082 .0294254
676.826 .0294138
677.571 .0294032
678.315 .0293938
679.059 .0293855
679.803 .0293777
680.547 .0293716
681.290 .0293668
682.033 .0293618
682.776 .0293561
683.518 .0293492
684.261 .0293404
685.003 .0293299
685.745 .0293180
686.487 .0293056
687.228 .0292927
687.969 .0292797
688.710 .0292662
689.451 .0292524
690.192 .0292374
690.932 .0292207
691.672 .0292020
692.412 .0291819
693.152 .0291606
693.891 .0291387
694.630 .0291180
695.369 .0290994
696.108 .0290827
696.846 .0290676
697.585 .0290539
698.323 .0290414
699.061 .0290293
699.798 .0290173
700.536 .0290052
701.273 .0289934
702.010 .0289817
702.746 .0289706
703.483 .0289604
704.219 .0289512
704.955 .0289431
705.691 .0289351
706.427 .0289273
707.162 .0289192
707.897 .0289102
708.632 .0289004
709.367 .0288902
710.101 .0288792
710.835 .0288669
711.569 .0288534
712.303 .0288389
713.037 .0288234
713.770 .0288069
714.503 .0287892
715.236 .0287711
715.969 .0287527
716.702 .0287339
717.434 .0287148
718.166 .0286957
718.898 .0286763
719.629 .0286564
720.361 .0286366
721.092 .0286163
721.823 .0285954
722.554 .0285740
723.284 .0285526
724.014 .0285306
724.744 .0285082
725.474 .0284858
726.204 .0284629
726.933 .0284401
727.662 .0284162
728.391 .0283916
729.120 .0283664
729.849 .0283409
730.577 .0283148
731.305 .0282879
732.033 .0282608
732.760 .0282335
733.488 .0282068
734.215 .0281810
734.942 .0281565
735.669 .0281332
736.395 .0281111
737.122 .0280899
737.848 .0280689
738.573 .0280482
739.299 .0280275
740.024 .0280066
740.750 .0279850
741.474 .0279626
742.199 .0279397
742.924 .0279164
743.648 .0278936
744.372 .0278706
745.096 .0278483
745.819 .0278262
746.543 .0278043
747.266 .0277826
747.989 .0277613
748.711 .0277404
749.434 .0277199
750.156 .0277002
750.878 .0276813
751.599 .0276635
752.321 .0276474
753.042 .0276332
753.763 .0276213
754.484 .0276111
755.205 .0276025
755.925 .0275949
756.645 .0275876
757.365 .0275797
758.085 .0275705
758.804 .0275599
759.523 .0275472
760.242 .0275325
760.961 .0275159
761.679 .0274979
762.397 .0274786
763.115 .0274578
763.833 .0274359
764.551 .0274126
765.268 .0273880
765.985 .0273619
766.702 .0273347
767.418 .0273071
768.134 .0272790
768.850 .0272514
769.566 .0272246
770.282 .0271992
770.997 .0271754
771.712 .0271537
772.427 .0271336
773.142 .0271147
773.856 .0270967
774.570 .0270791
775.284 .0270618
775.998 .0270443
776.711 .0270269
777.424 .0270099
778.137 .0269937
778.849 .0269781
779.562 .0269631
780.274 .0269494
780.986 .0269368
781.697 .0269252
782.409 .0269142
783.120 .0269038
783.831 .0268940
784.541 .0268846
785.252 .0268756
785.962 .0268670
786.671 .0268587
787.381 .0268507
788.090 .0268429
788.799 .0268356
789.508 .0268281
790.217 .0268207
790.925 .0268130
791.633 .0268048
792.341 .0267957
793.048 .0267854
793.755 .0267740
794.462 .0267619
795.169 .0267495
795.875 .0267369
796.581 .0267249
797.287 .0267139
797.993 .0267034
798.698 .0266939
799.403 .0266851
800.108 .0266764
800.812 .0266673
801.517 .0266580
802.221 .0266479
802.924 .0266373
803.628 .0266267
804.331 .0266164
805.034 .0266069
805.736 .0265983
806.439 .0265901
807.141 .0265823
807.843 .0265746
808.544 .0265665
809.245 .0265576
809.946 .0265487
810.647 .0265394
811.347 .0265302
812.047 .0265215
812.747 .0265140
813.447 .0265073
814.146 .0265014
814.845 .0264960
815.543 .0264908
816.242 .0264854
816.940 .0264796
817.638 .0264731
818.335 .0264664
819.032 .0264590
819.729 .0264513
820.426 .0264430
821.122 .0264350
821.818 .0264267
822.514 .0264183
823.209 .0264101
823.905 .0264017
824.599 .0263929
825.294 .0263836
825.988 .0263736
826.682 .0263627
827.376 .0263508
828.069 .0263381
828.762 .0263245
829.455 .0263102
830.147 .0262957
830.840 .0262811
831.531 .0262664
832.223 .0262518
832.914 .0262371
833.605 .0262225
834.296 .0262075
834.986 .0261921
835.676 .0261762
836.366 .0261602
837.055 .0261444
837.744 .0261288
838.433 .0261141
839.121 .0261008
839.809 .0260888
840.497 .0260782
841.185 .0260688
841.872 .0260603
842.559 .0260525
843.245 .0260448
843.932 .0260372
844.617 .0260292
845.303 .0260205
845.988 .0260112
846.673 .0260010
847.358 .0259900
848.042 .0259784
848.726 .0259662
849.410 .0259534
850.093 .0259398
850.776 .0259256
851.459 .0259104
852.141 .0258942
852.823 .0258773
853.505 .0258594
854.186 .0258406
854.867 .0258215
855.548 .0258019
856.228 .0257827
856.908 .0257643
857.588 .0257472
858.267 .0257311
858.946 .0257160
859.625 .0257016
860.303 .0256878
860.981 .0256742
861.659 .0256611
862.336 .0256473
863.013 .0256336
863.690 .0256192
864.366 .0256044
865.042 .0255890
865.718 .0255734
866.393 .0255575
867.068 .0255413
867.743 .0255245
868.417 .0255069
869.091 .0254884
869.765 .0254697
870.438 .0254502
871.111 .0254303
871.783 .0254101
872.456 .0253899
873.127 .0253696
873.799 .0253500
874.470 .0253309
875.141 .0253125
875.811 .0252945
876.481 .0252765
877.151 .0252586
877.820 .0252403
878.489 .0252216
879.158 .0252025
879.826 .0251830
880.494 .0251634
881.162 .0251432
881.829 .0251236
882.496 .0251041
883.163 .0250851
883.829 .0250664
884.495 .0250481
885.160 .0250303
885.825 .0250128
886.490 .0249958
887.154 .0249795
887.818 .0249638
888.482 .0249488
889.145 .0249340
889.808 .0249197
890.471 .0249054
891.133 .0248910
891.795 .0248762
892.456 .0248614
893.117 .0248461
893.778 .0248304
894.439 .0248144
895.099 .0247979
895.758 .0247810
896.417 .0247636
897.076 .0247458
897.735 .0247274
898.393 .0247090
899.051 .0246908
899.708 .0246725
900.365 .0246548
901.022 .0246376
901.678 .0246210
902.334 .0246050
902.990 .0245897
903.645 .0245751
904.300 .0245616
904.954 .0245491
905.608 .0245373
906.262 .0245266
906.915 .0245169
907.568 .0245077
908.221 .0244990
908.873 .0244905
909.525 .0244819
910.176 .0244735
910.828 .0244653
911.478 .0244571
912.129 .0244493
912.778 .0244415
913.428 .0244335
914.077 .0244253
914.726 .0244167
915.375 .0244071
916.023 .0243964
916.670 .0243852
917.318 .0243727
917.964 .0243596
918.611 .0243458
919.257 .0243313
919.903 .0243161
920.548 .0243004
921.193 .0242837
921.838 .0242666
922.482 .0242498
923.126 .0242330
923.770 .0242164
924.413 .0242010
925.056 .0241861
925.698 .0241723
926.340 .0241595
926.982 .0241478
927.623 .0241368
928.264 .0241268
928.904 .0241172
929.544 .0241084
930.184 .0241006
930.823 .0240936
931.462 .0240868
932.101 .0240809
932.739 .0240755
933.377 .0240700
934.014 .0240644
934.651 .0240592
935.288 .0240539
935.924 .0240490
936.560 .0240439
937.196 .0240388
937.831 .0240334
938.466 .0240273
939.100 .0240201
939.734 .0240118
940.368 .0240020
941.001 .0239909
941.634 .0239786
942.266 .0239660
942.899 .0239526
943.530 .0239393
944.162 .0239256
944.793 .0239118
945.423 .0238978
946.053 .0238829
946.683 .0238675
947.313 .0238520
947.942 .0238363
948.571 .0238208
949.199 .0238060
949.827 .0237919
950.455 .0237786
951.082 .0237663
951.709 .0237550
952.335 .0237447
952.961 .0237359
953.587 .0237285
954.212 .0237221
954.837 .0237172
955.462 .0237134
956.086 .0237105
956.710 .0237086
957.334 .0237071
957.957 .0237053
958.579 .0237029
959.202 .0236998
959.824 .0236960
960.445 .0236920
961.067 .0236881
961.688 .0236843
962.308 .0236808
962.928 .0236779
963.548 .0236749
964.168 .0236716
964.787 .0236677
965.406 .0236632
966.024 .0236577
966.642 .0236511
967.260 .0236442
967.877 .0236370
968.494 .0236301
969.110 .0236240
969.727 .0236184
970.342 .0236137
970.958 .0236092
971.573 .0236055
972.188 .0236026
972.802 .0236006
973.416 .0235992
974.030 .0235980
974.643 .0235973
975.256 .0235970
975.869 .0235962
976.481 .0235950
977.093 .0235937
977.705 .0235923
978.316 .0235906
978.927 .0235891
979.538 .0235882
980.148 .0235882
980.758 .0235892
981.367 .0235915
981.977 .0235943
982.586 .0235979
983.194 .0236014
983.802 .0236049
984.410 .0236085
985.018 .0236123
985.625 .0236161
986.232 .0236209
986.838 .0236269
987.445 .0236344
988.050 .0236427
988.656 .0236522
989.261 .0236621
989.866 .0236719
990.471 .0236809
991.075 .0236887
991.679 .0236944
992.282 .0236987
992.886 .0237015
993.489 .0237033
994.091 .0237039
994.694 .0237038
995.296 .0237032
995.897 .0237019
996.499 .0236998
997.100 .0236965
997.701 .0236919
998.301 .0236872
998.901 .0236817
999.501 .0236761
1000.101 .0236710
1000.700 .0236676
1001.299 .0236653
1001.898 .0236640
1002.496 .0236637
1003.094 .0236640
1003.692 .0236643
1004.289 .0236643
1004.887 .0236640
1005.484 .0236631
1006.080 .0236625
1006.677 .0236620
1007.273 .0236620
1007.868 .0236626
1008.464 .0236636
1009.059 .0236655
1009.654 .0236678
1010.249 .0236697
1010.843 .0236706
1011.437 .0236707
1012.031 .0236708
1012.625 .0236701
1013.218 .0236690
1013.811 .0236683
1014.404 .0236688
1014.997 .0236706
1015.589 .0236730
1016.181 .0236765
1016.773 .0236809
1017.365 .0236865
1017.956 .0236918
1018.547 .0236965
1019.138 .0237009
1019.728 .0237048
1020.319 .0237083
1020.909 .0237117
1021.499 .0237148
1022.088 .0237183
1022.678 .0237222
1023.267 .0237267
1023.856 .0237306
1024.445 .0237344
1025.033 .0237378
1025.621 .0237411
1026.209 .0237436
1026.797 .0237453
1027.385 .0237464
1027.972 .0237477
1028.560 .0237496
1029.147 .0237515
1029.734 .0237542
1030.320 .0237578
1030.907 .0237613
1031.493 .0237654
1032.079 .0237689
1032.665 .0237717
1033.250 .0237737
1033.836 .0237748
1034.421 .0237743
1035.006 .0237729
1035.591 .0237704
1036.176 .0237668
1036.761 .0237624
1037.345 .0237569
1037.929 .0237498
1038.514 .0237406
1039.097 .0237300
1039.681 .0237180
1040.265 .0237044
1040.848 .0236906
1041.432 .0236763
1042.015 .0236625
1042.598 .0236492
1043.181 .0236364
1043.764 .0236241
1044.346 .0236124
1044.929 .0236009
1045.511 .0235892
1046.094 .0235771
1046.676 .0235657
1047.258 .0235546
1047.840 .0235438
1048.422 .0235348
1049.003 .0235267
1049.585 .0235189
1050.166 .0235114
1050.748 .0235042
1051.329 .0234976
1051.910 .0234906
1052.491 .0234838
1053.072 .0234775
1053.653 .0234730
1054.234 .0234697
1054.815 .0234665
1055.396 .0234641
1055.976 .0234615
1056.557 .0234567
1057.138 .0234499
1057.718 .0234410
1058.298 .0234306
1058.879 .0234199
1059.459 .0234088
1060.039 .0233976
1060.620 .0233867
1061.200 .0233747
1061.780 .0233611
1062.360 .0233459
1062.940 .0233291
1063.520 .0233086
1064.101 .0232869
1064.681 .0232648
1065.261 .0232428
1065.841 .0232226
1066.421 .0232057
1067.001 .0231907
1067.581 .0231781
1068.161 .0231655
1068.741 .0231527
1069.321 .0231400
1069.901 .0231285
1070.482 .0231167
1071.062 .0231061
1071.642 .0230970
1072.222 .0230904
1072.803 .0230837
1073.383 .0230789
1073.963 .0230737
1074.544 .0230686
1075.124 .0230618
1075.705 .0230525
1076.286 .0230404
1076.866 .0230267
1077.447 .0230114
1078.028 .0229953
1078.609 .0229784
1079.190 .0229617
1079.771 .0229441
1080.352 .0229267
1080.934 .0229093
1081.515 .0228927
1082.097 .0228761
1082.679 .0228610
1083.260 .0228459
1083.842 .0228314
1084.424 .0228169
1085.007 .0228031
1085.589 .0227914
1086.172 .0227812
1086.754 .0227735
1087.337 .0227668
1087.920 .0227624
1088.503 .0227590
1089.087 .0227553
1089.670 .0227506
1090.254 .0227440
1090.838 .0227361
1091.422 .0227270
1092.006 .0227164
1092.590 .0227076
1093.175 .0227012
1093.760 .0226979
1094.345 .0226965
1094.930 .0226964
1095.516 .0226963
1096.102 .0226952
1096.688 .0226945
1097.274 .0226953
1097.860 .0226984
1098.447 .0227033
1099.034 .0227108
1099.622 .0227192
1100.209 .0227269
1100.797 .0227318
1101.385 .0227331
1101.973 .0227309
1102.562 .0227245
1103.151 .0227127
1103.740 .0226982
1104.330 .0226824
1104.920 .0226670
1105.510 .0226514
1106.101 .0226361
1106.691 .0226183
1107.283 .0225973
1107.874 .0225716
1108.466 .0225428
1109.058 .0225133
1109.651 .0224856
1110.244 .0224625
1110.837 .0224451
1111.431 .0224348
1112.025 .0224306
1112.620 .0224317
1113.215 .0224392
1113.810 .0224484
1114.406 .0224597
1115.002 .0224714
1115.599 .0224827
1116.196 .0224931
1116.793 .0225016
1117.391 .0225121
1117.989 .0225196
1118.588 .0225260
1119.187 .0225300
1119.787 .0225325
1120.387 .0225339
1120.988 .0225365
1121.589 .0225389
1122.190 .0225407
1122.793 .0225412
1123.395 .0225380
1123.998 .0225319
1124.602 .0225273
1125.206 .0225214
1125.811 .0225200
1126.416 .0225254
1127.022 .0225396
1127.628 .0225595
1128.235 .0225914
1128.843 .0226350
1129.451 .0226880
1130.059 .0227455
1130.669 .0228067
1131.278 .0228679
1131.889 .0229287
1132.500 .0229845
1133.112 .0230363
1133.724 .0230878
1134.337 .0231377
1134.950 .0231812
1135.564 .0232224
1136.179 .0232602
1136.795 .0232959
1137.411 .0233275
1138.028 .0233565
1138.645 .0233807
1139.263 .0234017
1139.882 .0234190
1140.502 .0234361
1141.122 .0234498
1141.743 .0234730
1142.365 .0234951
1142.987 .0234586
1143.611 .0235713
1144.235 .0234524
1144.859 .0237714
1145.485 .0236840
