Measurement Sequence started on: 10-20-44-796
Integration time: 35
Scans to Average: 2 
>>>>>Begin Spectral Data<<<<<
432.953 .0613363
433.882 .0336240
434.810 .0334889
435.737 .0327995
436.662 .0329198
437.586 .0340544
438.509 .0330572
439.431 .0331014
440.351 .0331902
441.269 .0333440
442.187 .0335070
443.103 .0336620
444.018 .0338194
444.932 .0339238
445.844 .0339841
446.756 .0340184
447.666 .0340278
448.575 .0340088
449.482 .0340014
450.388 .0340148
451.294 .0340298
452.198 .0340681
453.100 .0341206
454.002 .0341652
454.902 .0342026
455.801 .0342326
456.699 .0342514
457.596 .0342727
458.492 .0343039
459.387 .0343368
460.280 .0343719
461.172 .0344087
462.064 .0344368
462.954 .0344465
463.843 .0344410
464.730 .0344210
465.617 .0343856
466.503 .0343473
467.387 .0342997
468.271 .0342489
469.153 .0342002
470.035 .0341568
470.915 .0341118
471.794 .0340591
472.673 .0340005
473.550 .0339381
474.426 .0338730
475.301 .0338142
476.175 .0337611
477.048 .0337172
477.920 .0336832
478.791 .0336541
479.661 .0336253
480.530 .0335944
481.398 .0335545
482.266 .0335084
483.132 .0334575
483.997 .0334029
484.861 .0333467
485.724 .0332990
486.587 .0332630
487.448 .0332315
488.308 .0332023
489.168 .0331768
490.026 .0331499
490.884 .0331273
491.741 .0331039
492.597 .0330888
493.452 .0330840
494.306 .0330872
495.159 .0330998
496.011 .0331230
496.862 .0331519
497.713 .0331795
498.562 .0331983
499.411 .0332078
500.259 .0332003
501.106 .0331765
501.952 .0331409
502.798 .0330983
503.642 .0330460
504.486 .0329859
505.329 .0329162
506.171 .0328430
507.012 .0327616
507.852 .0326738
508.692 .0325809
509.531 .0324834
510.369 .0323801
511.206 .0322705
512.043 .0321624
512.878 .0320561
513.713 .0319464
514.547 .0318358
515.381 .0317253
516.213 .0316120
517.045 .0314951
517.876 .0313712
518.706 .0312415
519.536 .0311010
520.365 .0309490
521.193 .0307707
522.020 .0305632
522.847 .0303295
523.673 .0300651
524.498 .0297812
525.323 .0294833
526.146 .0291743
526.969 .0288835
527.792 .0286151
528.614 .0283744
529.435 .0281631
530.255 .0279917
531.075 .0278453
531.894 .0277244
532.712 .0276175
533.530 .0275193
534.347 .0274245
535.163 .0273445
535.979 .0272774
536.794 .0272296
537.608 .0272123
538.422 .0272128
539.235 .0272301
540.048 .0272590
540.860 .0272742
541.671 .0272832
542.481 .0272763
543.292 .0272578
544.101 .0272209
544.910 .0271817
545.718 .0271535
546.526 .0271423
547.333 .0271522
548.139 .0271821
548.945 .0272254
549.750 .0272766
550.555 .0273275
551.359 .0273781
552.162 .0274266
552.965 .0274705
553.768 .0275072
554.569 .0275399
555.371 .0275612
556.171 .0275802
556.972 .0275963
557.771 .0276082
558.570 .0276164
559.369 .0276238
560.167 .0276295
560.964 .0276461
561.761 .0276708
562.558 .0277067
563.354 .0277630
564.149 .0278374
564.944 .0279237
565.738 .0280237
566.532 .0281389
567.325 .0282624
568.118 .0283906
568.910 .0285226
569.702 .0286518
570.494 .0287815
571.285 .0289126
572.075 .0290395
572.865 .0291617
573.654 .0292800
574.443 .0293857
575.232 .0294826
576.020 .0295718
576.807 .0296495
577.594 .0297196
578.381 .0297846
579.167 .0298441
579.952 .0298989
580.738 .0299534
581.522 .0300090
582.307 .0300632
583.091 .0301198
583.874 .0301756
584.657 .0302286
585.440 .0302832
586.222 .0303397
587.004 .0303957
587.785 .0304518
588.566 .0305039
589.346 .0305499
590.126 .0305899
590.906 .0306217
591.685 .0306454
592.464 .0306636
593.242 .0306776
594.020 .0306883
594.797 .0306961
595.575 .0307040
596.351 .0307119
597.128 .0307182
597.904 .0307226
598.679 .0307230
599.454 .0307192
600.229 .0307123
601.004 .0307021
601.778 .0306905
602.551 .0306783
603.325 .0306668
604.097 .0306566
604.870 .0306473
605.642 .0306383
606.414 .0306299
607.185 .0306206
607.956 .0306104
608.727 .0305987
609.497 .0305853
610.267 .0305705
611.037 .0305551
611.806 .0305386
612.575 .0305215
613.344 .0305042
614.112 .0304878
614.880 .0304714
615.647 .0304556
616.414 .0304395
617.181 .0304235
617.948 .0304072
618.714 .0303899
619.480 .0303715
620.245 .0303519
621.011 .0303314
621.775 .0303108
622.540 .0302901
623.304 .0302712
624.068 .0302538
624.832 .0302388
625.595 .0302243
626.358 .0302105
627.120 .0301965
627.883 .0301807
628.645 .0301635
629.406 .0301446
630.168 .0301239
630.929 .0301028
631.689 .0300820
632.450 .0300623
633.210 .0300449
633.970 .0300293
634.729 .0300138
635.489 .0299977
636.248 .0299795
637.006 .0299588
637.765 .0299348
638.523 .0299088
639.280 .0298806
640.038 .0298514
640.795 .0298229
641.552 .0297957
642.309 .0297710
643.065 .0297493
643.821 .0297298
644.577 .0297115
645.332 .0296929
646.088 .0296733
646.843 .0296527
647.597 .0296315
648.352 .0296104
649.106 .0295892
649.860 .0295684
650.613 .0295493
651.367 .0295316
652.120 .0295147
652.872 .0294982
653.625 .0294811
654.377 .0294632
655.129 .0294439
655.881 .0294233
656.632 .0294015
657.384 .0293805
658.135 .0293609
658.885 .0293424
659.636 .0293251
660.386 .0293096
661.136 .0292949
661.885 .0292812
662.635 .0292677
663.384 .0292546
664.133 .0292425
664.881 .0292319
665.630 .0292225
666.378 .0292149
667.126 .0292090
667.874 .0292044
668.621 .0291999
669.368 .0291946
670.115 .0291877
670.862 .0291781
671.608 .0291669
672.354 .0291546
673.100 .0291409
673.846 .0291268
674.591 .0291133
675.337 .0291005
676.082 .0290876
676.826 .0290740
677.571 .0290601
678.315 .0290451
679.059 .0290297
679.803 .0290137
680.547 .0289978
681.290 .0289839
682.033 .0289722
682.776 .0289625
683.518 .0289552
684.261 .0289492
685.003 .0289435
685.745 .0289376
686.487 .0289304
687.228 .0289212
687.969 .0289104
688.710 .0288988
689.451 .0288868
690.192 .0288748
690.932 .0288640
691.672 .0288541
692.412 .0288446
693.152 .0288343
693.891 .0288220
694.630 .0288075
695.369 .0287901
696.108 .0287691
696.846 .0287451
697.585 .0287196
698.323 .0286937
699.061 .0286686
699.798 .0286455
700.536 .0286246
701.273 .0286054
702.010 .0285876
702.746 .0285702
703.483 .0285528
704.219 .0285354
704.955 .0285181
705.691 .0285011
706.427 .0284844
707.162 .0284685
707.897 .0284537
708.632 .0284406
709.367 .0284288
710.101 .0284171
710.835 .0284050
711.569 .0283920
712.303 .0283777
713.037 .0283618
713.770 .0283454
714.503 .0283277
715.236 .0283096
715.969 .0282906
716.702 .0282710
717.434 .0282512
718.166 .0282317
718.898 .0282125
719.629 .0281934
720.361 .0281745
721.092 .0281558
721.823 .0281368
722.554 .0281179
723.284 .0280989
724.014 .0280797
724.744 .0280595
725.474 .0280387
726.204 .0280172
726.933 .0279958
727.662 .0279744
728.391 .0279530
729.120 .0279317
729.849 .0279104
730.577 .0278887
731.305 .0278660
732.033 .0278427
732.760 .0278190
733.488 .0277949
734.215 .0277706
734.942 .0277469
735.669 .0277234
736.395 .0277013
737.122 .0276803
737.848 .0276606
738.573 .0276420
739.299 .0276247
740.024 .0276075
740.750 .0275904
741.474 .0275729
742.199 .0275547
742.924 .0275355
743.648 .0275160
744.372 .0274955
745.096 .0274750
745.819 .0274545
746.543 .0274347
747.266 .0274160
747.989 .0273992
748.711 .0273840
749.434 .0273709
750.156 .0273594
750.878 .0273489
751.599 .0273393
752.321 .0273305
753.042 .0273223
753.763 .0273144
754.484 .0273068
755.205 .0272994
755.925 .0272925
756.645 .0272863
757.365 .0272802
758.085 .0272743
758.804 .0272682
759.523 .0272606
760.242 .0272513
760.961 .0272397
761.679 .0272258
762.397 .0272092
763.115 .0271903
763.833 .0271688
764.551 .0271451
765.268 .0271199
765.985 .0270943
766.702 .0270680
767.418 .0270420
768.134 .0270159
768.850 .0269902
769.566 .0269646
770.282 .0269396
770.997 .0269149
771.712 .0268919
772.427 .0268705
773.142 .0268511
773.856 .0268335
774.570 .0268178
775.284 .0268033
775.998 .0267896
776.711 .0267763
777.424 .0267631
778.137 .0267495
778.849 .0267363
779.562 .0267237
780.274 .0267121
780.986 .0267010
781.697 .0266911
782.409 .0266819
783.120 .0266729
783.831 .0266633
784.541 .0266523
785.252 .0266401
785.962 .0266264
786.671 .0266111
787.381 .0265952
788.090 .0265787
788.799 .0265623
789.508 .0265461
790.217 .0265301
790.925 .0265141
791.633 .0264983
792.341 .0264825
793.048 .0264666
793.755 .0264502
794.462 .0264328
795.169 .0264148
795.875 .0263969
796.581 .0263795
797.287 .0263626
797.993 .0263470
798.698 .0263329
799.403 .0263202
800.108 .0263092
800.812 .0263000
801.517 .0262920
802.221 .0262850
802.924 .0262779
803.628 .0262706
804.331 .0262632
805.034 .0262556
805.736 .0262476
806.439 .0262400
807.141 .0262324
807.843 .0262241
808.544 .0262147
809.245 .0262041
809.946 .0261921
810.647 .0261788
811.347 .0261639
812.047 .0261481
812.747 .0261320
813.447 .0261159
814.146 .0261002
814.845 .0260859
815.543 .0260722
816.242 .0260596
816.940 .0260483
817.638 .0260385
818.335 .0260304
819.032 .0260242
819.729 .0260204
820.426 .0260190
821.122 .0260197
821.818 .0260209
822.514 .0260225
823.209 .0260242
823.905 .0260250
824.599 .0260236
825.294 .0260207
825.988 .0260161
826.682 .0260101
827.376 .0260033
828.069 .0259956
828.762 .0259868
829.455 .0259767
830.147 .0259649
830.840 .0259516
831.531 .0259366
832.223 .0259206
832.914 .0259030
833.605 .0258855
834.296 .0258681
834.986 .0258511
835.676 .0258351
836.366 .0258208
837.055 .0258079
837.744 .0257963
838.433 .0257854
839.121 .0257751
839.809 .0257649
840.497 .0257554
841.185 .0257462
841.872 .0257373
842.559 .0257289
843.245 .0257213
843.932 .0257142
844.617 .0257084
845.303 .0257036
845.988 .0256998
846.673 .0256969
847.358 .0256942
848.042 .0256916
848.726 .0256888
849.410 .0256857
850.093 .0256823
850.776 .0256779
851.459 .0256731
852.141 .0256670
852.823 .0256605
853.505 .0256539
854.186 .0256469
854.867 .0256404
855.548 .0256334
856.228 .0256257
856.908 .0256174
857.588 .0256079
858.267 .0255975
858.946 .0255862
859.625 .0255742
860.303 .0255618
860.981 .0255503
861.659 .0255396
862.336 .0255297
863.013 .0255211
863.690 .0255134
864.366 .0255058
865.042 .0254979
865.718 .0254902
866.393 .0254820
867.068 .0254743
867.743 .0254671
868.417 .0254602
869.091 .0254542
869.765 .0254489
870.438 .0254437
871.111 .0254388
871.783 .0254339
872.456 .0254282
873.127 .0254212
873.799 .0254143
874.470 .0254062
875.141 .0253975
875.811 .0253885
876.481 .0253790
877.151 .0253687
877.820 .0253571
878.489 .0253441
879.158 .0253300
879.826 .0253155
880.494 .0253003
881.162 .0252848
881.829 .0252707
882.496 .0252569
883.163 .0252434
883.829 .0252304
884.495 .0252176
885.160 .0252050
885.825 .0251930
886.490 .0251821
887.154 .0251728
887.818 .0251653
888.482 .0251597
889.145 .0251555
889.808 .0251529
890.471 .0251505
891.133 .0251474
891.795 .0251440
892.456 .0251398
893.117 .0251341
893.778 .0251282
894.439 .0251222
895.099 .0251166
895.758 .0251113
896.417 .0251065
897.076 .0251017
897.735 .0250966
898.393 .0250908
899.051 .0250838
899.708 .0250753
900.365 .0250657
901.022 .0250547
901.678 .0250429
902.334 .0250310
902.990 .0250189
903.645 .0250074
904.300 .0249970
904.954 .0249874
905.608 .0249787
906.262 .0249706
906.915 .0249635
907.568 .0249559
908.221 .0249479
908.873 .0249392
909.525 .0249286
910.176 .0249171
910.828 .0249039
911.478 .0248900
912.129 .0248760
912.778 .0248628
913.428 .0248502
914.077 .0248388
914.726 .0248283
915.375 .0248173
916.023 .0248049
916.670 .0247910
917.318 .0247746
917.964 .0247558
918.611 .0247354
919.257 .0247139
919.903 .0246920
920.548 .0246710
921.193 .0246506
921.838 .0246321
922.482 .0246150
923.126 .0245984
923.770 .0245818
924.413 .0245651
925.056 .0245483
925.698 .0245313
926.340 .0245148
926.982 .0244996
927.623 .0244853
928.264 .0244734
928.904 .0244624
929.544 .0244533
930.184 .0244454
930.823 .0244379
931.462 .0244304
932.101 .0244230
932.739 .0244151
933.377 .0244067
934.014 .0243978
934.651 .0243887
935.288 .0243790
935.924 .0243687
936.560 .0243573
937.196 .0243451
937.831 .0243320
938.466 .0243179
939.100 .0243023
939.734 .0242863
940.368 .0242694
941.001 .0242517
941.634 .0242333
942.266 .0242145
942.899 .0241950
943.530 .0241756
944.162 .0241553
944.793 .0241344
945.423 .0241133
946.053 .0240918
946.683 .0240698
947.313 .0240481
947.942 .0240261
948.571 .0240039
949.199 .0239817
949.827 .0239589
950.455 .0239349
951.082 .0239105
951.709 .0238856
952.335 .0238602
952.961 .0238352
953.587 .0238103
954.212 .0237859
954.837 .0237633
955.462 .0237424
956.086 .0237230
956.710 .0237051
957.334 .0236890
957.957 .0236738
958.579 .0236593
959.202 .0236456
959.824 .0236320
960.445 .0236190
961.067 .0236061
961.688 .0235931
962.308 .0235799
962.928 .0235676
963.548 .0235553
964.168 .0235434
964.787 .0235318
965.406 .0235204
966.024 .0235093
966.642 .0234985
967.260 .0234878
967.877 .0234768
968.494 .0234658
969.110 .0234544
969.727 .0234417
970.342 .0234292
970.958 .0234163
971.573 .0234043
972.188 .0233934
972.802 .0233838
973.416 .0233752
974.030 .0233677
974.643 .0233613
975.256 .0233556
975.869 .0233499
976.481 .0233437
977.093 .0233369
977.705 .0233304
978.316 .0233236
978.927 .0233168
979.538 .0233101
980.148 .0233036
980.758 .0232968
981.367 .0232901
981.977 .0232833
982.586 .0232775
983.194 .0232729
983.802 .0232693
984.410 .0232667
985.018 .0232655
985.625 .0232647
986.232 .0232641
986.838 .0232636
987.445 .0232625
988.050 .0232604
988.656 .0232575
989.261 .0232545
989.866 .0232519
990.471 .0232506
991.075 .0232506
991.679 .0232518
992.282 .0232546
992.886 .0232576
993.489 .0232604
994.091 .0232622
994.694 .0232636
995.296 .0232636
995.897 .0232627
996.499 .0232613
997.100 .0232596
997.701 .0232582
998.301 .0232577
998.901 .0232583
999.501 .0232594
1000.101 .0232608
1000.700 .0232621
1001.299 .0232633
1001.898 .0232640
1002.496 .0232629
1003.094 .0232604
1003.692 .0232567
1004.289 .0232527
1004.887 .0232481
1005.484 .0232433
1006.080 .0232384
1006.677 .0232336
1007.273 .0232282
1007.868 .0232217
1008.464 .0232145
1009.059 .0232071
1009.654 .0231999
1010.249 .0231935
1010.843 .0231882
1011.437 .0231845
1012.031 .0231821
1012.625 .0231817
1013.218 .0231818
1013.811 .0231822
1014.404 .0231819
1014.997 .0231818
1015.589 .0231823
1016.181 .0231835
1016.773 .0231864
1017.365 .0231919
1017.956 .0231995
1018.547 .0232090
1019.138 .0232199
1019.728 .0232313
1020.319 .0232435
1020.909 .0232553
1021.499 .0232659
1022.088 .0232760
1022.678 .0232862
1023.267 .0232974
1023.856 .0233094
1024.445 .0233232
1025.033 .0233377
1025.621 .0233524
1026.209 .0233675
1026.797 .0233814
1027.385 .0233934
1027.972 .0234042
1028.560 .0234132
1029.147 .0234200
1029.734 .0234250
1030.320 .0234280
1030.907 .0234295
1031.493 .0234305
1032.079 .0234307
1032.665 .0234299
1033.250 .0234287
1033.836 .0234279
1034.421 .0234274
1035.006 .0234275
1035.591 .0234291
1036.176 .0234316
1036.761 .0234351
1037.345 .0234395
1037.929 .0234437
1038.514 .0234478
1039.097 .0234525
1039.681 .0234577
1040.265 .0234637
1040.848 .0234705
1041.432 .0234782
1042.015 .0234866
1042.598 .0234957
1043.181 .0235049
1043.764 .0235124
1044.346 .0235175
1044.929 .0235210
1045.511 .0235214
1046.094 .0235196
1046.676 .0235172
1047.258 .0235143
1047.840 .0235125
1048.422 .0235122
1049.003 .0235117
1049.585 .0235118
1050.166 .0235124
1050.748 .0235140
1051.329 .0235151
1051.910 .0235176
1052.491 .0235201
1053.072 .0235233
1053.653 .0235285
1054.234 .0235365
1054.815 .0235449
1055.396 .0235555
1055.976 .0235683
1056.557 .0235823
1057.138 .0235971
1057.718 .0236124
1058.298 .0236270
1058.879 .0236415
1059.459 .0236547
1060.039 .0236662
1060.620 .0236739
1061.200 .0236804
1061.780 .0236845
1062.360 .0236863
1062.940 .0236865
1063.520 .0236862
1064.101 .0236833
1064.681 .0236794
1065.261 .0236721
1065.841 .0236608
1066.421 .0236451
1067.001 .0236262
1067.581 .0236023
1068.161 .0235778
1068.741 .0235531
1069.321 .0235307
1069.901 .0235120
1070.482 .0234997
1071.062 .0234914
1071.642 .0234871
1072.222 .0234865
1072.803 .0234894
1073.383 .0234930
1073.963 .0235003
1074.544 .0235080
1075.124 .0235196
1075.705 .0235345
1076.286 .0235523
1076.866 .0235740
1077.447 .0236000
1078.028 .0236268
1078.609 .0236552
1079.190 .0236838
1079.771 .0237096
1080.352 .0237306
1080.934 .0237474
1081.515 .0237588
1082.097 .0237659
1082.679 .0237686
1083.260 .0237671
1083.842 .0237619
1084.424 .0237559
1085.007 .0237466
1085.589 .0237343
1086.172 .0237209
1086.754 .0237052
1087.337 .0236898
1087.920 .0236744
1088.503 .0236606
1089.087 .0236482
1089.670 .0236397
1090.254 .0236346
1090.838 .0236312
1091.422 .0236291
1092.006 .0236286
1092.590 .0236277
1093.175 .0236258
1093.760 .0236231
1094.345 .0236216
1094.930 .0236199
1095.516 .0236206
1096.102 .0236235
1096.688 .0236285
1097.274 .0236345
1097.860 .0236410
1098.447 .0236435
1099.034 .0236413
1099.622 .0236329
1100.209 .0236202
1100.797 .0236043
1101.385 .0235876
1101.973 .0235723
1102.562 .0235591
1103.151 .0235509
1103.740 .0235460
1104.330 .0235444
1104.920 .0235475
1105.510 .0235525
1106.101 .0235602
1106.691 .0235707
1107.283 .0235857
1107.874 .0236038
1108.466 .0236234
1109.058 .0236490
1109.651 .0236761
1110.244 .0237027
1110.837 .0237278
1111.431 .0237553
1112.025 .0237833
1112.620 .0238104
1113.215 .0238392
1113.810 .0238712
1114.406 .0239039
1115.002 .0239352
1115.599 .0239599
1116.196 .0239779
1116.793 .0239853
1117.391 .0239774
1117.989 .0239583
1118.588 .0239349
1119.187 .0239068
1119.787 .0238781
1120.387 .0238540
1120.988 .0238378
1121.589 .0238243
1122.190 .0238105
1122.793 .0237975
1123.395 .0237825
1123.998 .0237638
1124.602 .0237415
1125.206 .0237207
1125.811 .0237091
1126.416 .0237069
1127.022 .0237143
1127.628 .0237326
1128.235 .0237598
1128.843 .0237953
1129.451 .0238335
1130.059 .0238709
1130.669 .0239077
1131.278 .0239416
1131.889 .0239703
1132.500 .0239983
1133.112 .0240232
1133.724 .0240460
1134.337 .0240677
1134.950 .0240837
1135.564 .0240952
1136.179 .0241018
1136.795 .0241063
1137.411 .0241067
1138.028 .0241070
1138.645 .0241052
1139.263 .0241002
1139.882 .0240898
1140.502 .0240748
1141.122 .0240593
1141.743 .0240580
1142.365 .0240451
1142.987 .0238970
1143.611 .0238857
1144.235 .0240626
1144.859 .0244270
1145.485 .0238964
