Measurement Sequence started on: 10-20-44-796
Integration time: 35
Scans to Average: 2 
>>>>>Begin Spectral Data<<<<<
432.953 .0442769
433.882 .0463124
434.810 .0424679
435.737 .0424172
436.662 .0401287
437.586 .0401954
438.509 .0394048
439.431 .0386817
440.351 .0381981
441.269 .0378306
442.187 .0376170
443.103 .0374672
444.018 .0374175
444.932 .0374099
445.844 .0374209
446.756 .0374407
447.666 .0374900
448.575 .0375594
449.482 .0376559
450.388 .0377628
451.294 .0378775
452.198 .0379920
453.100 .0380936
454.002 .0381822
454.902 .0382513
455.801 .0382976
456.699 .0383334
457.596 .0383565
458.492 .0383709
459.387 .0383778
460.280 .0383717
461.172 .0383453
462.064 .0383008
462.954 .0382333
463.843 .0381476
464.730 .0380437
465.617 .0379311
466.503 .0378195
467.387 .0377073
468.271 .0375968
469.153 .0374924
470.035 .0373949
470.915 .0373031
471.794 .0372143
472.673 .0371305
473.550 .0370514
474.426 .0369812
475.301 .0369160
476.175 .0368599
477.048 .0368122
477.920 .0367743
478.791 .0367430
479.661 .0367236
480.530 .0367132
481.398 .0367057
482.266 .0367060
483.132 .0367116
483.997 .0367140
484.861 .0367149
485.724 .0367113
486.587 .0367031
487.448 .0366864
488.308 .0366613
489.168 .0366300
490.026 .0365964
490.884 .0365610
491.741 .0365227
492.597 .0364824
493.452 .0364415
494.306 .0363945
495.159 .0363435
496.011 .0362889
496.862 .0362315
497.713 .0361717
498.562 .0361075
499.411 .0360438
500.259 .0359824
501.106 .0359220
501.952 .0358646
502.798 .0358130
503.642 .0357635
504.486 .0357124
505.329 .0356607
506.171 .0356062
507.012 .0355490
507.852 .0354861
508.692 .0354181
509.531 .0353441
510.369 .0352703
511.206 .0351911
512.043 .0351065
512.878 .0350227
513.713 .0349347
514.547 .0348394
515.381 .0347351
516.213 .0346213
517.045 .0344955
517.876 .0343579
518.706 .0342145
519.536 .0340619
520.365 .0339105
521.193 .0337552
522.020 .0335997
522.847 .0334466
523.673 .0332905
524.498 .0331265
525.323 .0329547
526.146 .0327808
526.969 .0326032
527.792 .0324213
528.614 .0322351
529.435 .0320539
530.255 .0318802
531.075 .0317111
531.894 .0315491
532.712 .0313947
533.530 .0312499
534.347 .0311133
535.163 .0309814
535.979 .0308594
536.794 .0307530
537.608 .0306662
538.422 .0305901
539.235 .0305273
540.048 .0304693
540.860 .0304170
541.671 .0303661
542.481 .0303184
543.292 .0302616
544.101 .0302017
544.910 .0301432
545.718 .0300871
546.526 .0300336
547.333 .0299891
548.139 .0299509
548.945 .0299193
549.750 .0298925
550.555 .0298704
551.359 .0298505
552.162 .0298398
552.965 .0298372
553.768 .0298404
554.569 .0298545
555.371 .0298775
556.171 .0299062
556.972 .0299481
557.771 .0300037
558.570 .0300636
559.369 .0301361
560.167 .0302210
560.964 .0303160
561.761 .0304208
562.558 .0305335
563.354 .0306543
564.149 .0307801
564.944 .0309083
565.738 .0310344
566.532 .0311580
567.325 .0312830
568.118 .0314019
568.910 .0315165
569.702 .0316313
570.494 .0317439
571.285 .0318514
572.075 .0319540
572.865 .0320509
573.654 .0321380
574.443 .0322137
575.232 .0322781
576.020 .0323350
576.807 .0323837
577.594 .0324276
578.381 .0324672
579.167 .0325025
579.952 .0325378
580.738 .0325709
581.522 .0326009
582.307 .0326274
583.091 .0326526
583.874 .0326744
584.657 .0326949
585.440 .0327165
586.222 .0327372
587.004 .0327585
587.785 .0327819
588.566 .0328048
589.346 .0328265
590.126 .0328474
590.906 .0328649
591.685 .0328783
592.464 .0328894
593.242 .0328970
594.020 .0329018
594.797 .0329055
595.575 .0329087
596.351 .0329099
597.128 .0329112
597.904 .0329115
598.679 .0329100
599.454 .0329058
600.229 .0328996
601.004 .0328899
601.778 .0328766
602.551 .0328608
603.325 .0328424
604.097 .0328223
604.870 .0328018
605.642 .0327811
606.414 .0327600
607.185 .0327399
607.956 .0327200
608.727 .0326995
609.497 .0326794
610.267 .0326592
611.037 .0326386
611.806 .0326182
612.575 .0325985
613.344 .0325788
614.112 .0325596
614.880 .0325412
615.647 .0325221
616.414 .0325024
617.181 .0324818
617.948 .0324601
618.714 .0324364
619.480 .0324115
620.245 .0323850
621.011 .0323578
621.775 .0323304
622.540 .0323020
623.304 .0322733
624.068 .0322448
624.832 .0322159
625.595 .0321862
626.358 .0321565
627.120 .0321269
627.883 .0320969
628.645 .0320672
629.406 .0320379
630.168 .0320097
630.929 .0319827
631.689 .0319572
632.450 .0319329
633.210 .0319097
633.970 .0318869
634.729 .0318646
635.489 .0318419
636.248 .0318179
637.006 .0317920
637.765 .0317642
638.523 .0317359
639.280 .0317069
640.038 .0316782
640.795 .0316515
641.552 .0316274
642.309 .0316061
643.065 .0315865
643.821 .0315685
644.577 .0315510
645.332 .0315331
646.088 .0315132
646.843 .0314911
647.597 .0314672
648.352 .0314423
649.106 .0314176
649.860 .0313941
650.613 .0313726
651.367 .0313533
652.120 .0313373
652.872 .0313229
653.625 .0313098
654.377 .0312972
655.129 .0312841
655.881 .0312703
656.632 .0312549
657.384 .0312389
658.135 .0312228
658.885 .0312076
659.636 .0311937
660.386 .0311814
661.136 .0311709
661.885 .0311616
662.635 .0311529
663.384 .0311441
664.133 .0311345
664.881 .0311230
665.630 .0311095
666.378 .0310939
667.126 .0310765
667.874 .0310578
668.621 .0310380
669.368 .0310185
670.115 .0309994
670.862 .0309811
671.608 .0309638
672.354 .0309478
673.100 .0309326
673.846 .0309183
674.591 .0309041
675.337 .0308905
676.082 .0308770
676.826 .0308631
677.571 .0308482
678.315 .0308325
679.059 .0308162
679.803 .0307994
680.547 .0307822
681.290 .0307660
682.033 .0307495
682.776 .0307335
683.518 .0307172
684.261 .0307006
685.003 .0306834
685.745 .0306652
686.487 .0306457
687.228 .0306252
687.969 .0306034
688.710 .0305811
689.451 .0305582
690.192 .0305362
690.932 .0305145
691.672 .0304927
692.412 .0304711
693.152 .0304496
693.891 .0304274
694.630 .0304049
695.369 .0303817
696.108 .0303582
696.846 .0303340
697.585 .0303092
698.323 .0302844
699.061 .0302599
699.798 .0302359
700.536 .0302124
701.273 .0301890
702.010 .0301663
702.746 .0301436
703.483 .0301207
704.219 .0300980
704.955 .0300750
705.691 .0300518
706.427 .0300279
707.162 .0300044
707.897 .0299810
708.632 .0299579
709.367 .0299356
710.101 .0299139
710.835 .0298928
711.569 .0298725
712.303 .0298521
713.037 .0298323
713.770 .0298124
714.503 .0297921
715.236 .0297711
715.969 .0297499
716.702 .0297285
717.434 .0297069
718.166 .0296848
718.898 .0296629
719.629 .0296409
720.361 .0296190
721.092 .0295969
721.823 .0295746
722.554 .0295522
723.284 .0295292
724.014 .0295048
724.744 .0294792
725.474 .0294526
726.204 .0294250
726.933 .0293966
727.662 .0293682
728.391 .0293405
729.120 .0293138
729.849 .0292889
730.577 .0292661
731.305 .0292446
732.033 .0292243
732.760 .0292041
733.488 .0291837
734.215 .0291627
734.942 .0291408
735.669 .0291180
736.395 .0290951
737.122 .0290728
737.848 .0290508
738.573 .0290296
739.299 .0290100
740.024 .0289914
740.750 .0289735
741.474 .0289560
742.199 .0289385
742.924 .0289207
743.648 .0289029
744.372 .0288849
745.096 .0288673
745.819 .0288503
746.543 .0288342
747.266 .0288188
747.989 .0288049
748.711 .0287922
749.434 .0287805
750.156 .0287700
750.878 .0287609
751.599 .0287526
752.321 .0287450
753.042 .0287377
753.763 .0287302
754.484 .0287223
755.205 .0287136
755.925 .0287038
756.645 .0286930
757.365 .0286812
758.085 .0286689
758.804 .0286560
759.523 .0286428
760.242 .0286292
760.961 .0286152
761.679 .0286009
762.397 .0285856
763.115 .0285693
763.833 .0285516
764.551 .0285330
765.268 .0285138
765.985 .0284939
766.702 .0284738
767.418 .0284546
768.134 .0284363
768.850 .0284195
769.566 .0284040
770.282 .0283897
770.997 .0283765
771.712 .0283643
772.427 .0283520
773.142 .0283398
773.856 .0283270
774.570 .0283135
775.284 .0282997
775.998 .0282856
776.711 .0282712
777.424 .0282565
778.137 .0282421
778.849 .0282279
779.562 .0282135
780.274 .0281990
780.986 .0281843
781.697 .0281692
782.409 .0281540
783.120 .0281382
783.831 .0281225
784.541 .0281072
785.252 .0280925
785.962 .0280784
786.671 .0280650
787.381 .0280521
788.090 .0280399
788.799 .0280282
789.508 .0280174
790.217 .0280067
790.925 .0279964
791.633 .0279861
792.341 .0279759
793.048 .0279649
793.755 .0279533
794.462 .0279404
795.169 .0279271
795.875 .0279132
796.581 .0278996
797.287 .0278865
797.993 .0278745
798.698 .0278641
799.403 .0278550
800.108 .0278465
800.812 .0278387
801.517 .0278307
802.221 .0278223
802.924 .0278129
803.628 .0278032
804.331 .0277933
805.034 .0277840
805.736 .0277752
806.439 .0277673
807.141 .0277599
807.843 .0277527
808.544 .0277445
809.245 .0277349
809.946 .0277238
810.647 .0277107
811.347 .0276960
812.047 .0276809
812.747 .0276658
813.447 .0276510
814.146 .0276369
814.845 .0276241
815.543 .0276123
816.242 .0276012
816.940 .0275907
817.638 .0275805
818.335 .0275709
819.032 .0275616
819.729 .0275522
820.426 .0275429
821.122 .0275332
821.818 .0275225
822.514 .0275104
823.209 .0274968
823.905 .0274816
824.599 .0274648
825.294 .0274472
825.988 .0274290
826.682 .0274106
827.376 .0273922
828.069 .0273740
828.762 .0273554
829.455 .0273364
830.147 .0273166
830.840 .0272961
831.531 .0272754
832.223 .0272550
832.914 .0272356
833.605 .0272180
834.296 .0272027
834.986 .0271897
835.676 .0271783
836.366 .0271680
837.055 .0271577
837.744 .0271467
838.433 .0271345
839.121 .0271206
839.809 .0271055
840.497 .0270896
841.185 .0270738
841.872 .0270583
842.559 .0270440
843.245 .0270309
843.932 .0270186
844.617 .0270065
845.303 .0269944
845.988 .0269816
846.673 .0269680
847.358 .0269537
848.042 .0269390
848.726 .0269242
849.410 .0269099
850.093 .0268963
850.776 .0268839
851.459 .0268722
852.141 .0268611
852.823 .0268500
853.505 .0268387
854.186 .0268267
854.867 .0268142
855.548 .0268009
856.228 .0267871
856.908 .0267730
857.588 .0267593
858.267 .0267455
858.946 .0267323
859.625 .0267195
860.303 .0267070
860.981 .0266952
861.659 .0266835
862.336 .0266718
863.013 .0266607
863.690 .0266496
864.366 .0266389
865.042 .0266281
865.718 .0266177
866.393 .0266068
867.068 .0265954
867.743 .0265835
868.417 .0265706
869.091 .0265567
869.765 .0265425
870.438 .0265277
871.111 .0265130
871.783 .0264983
872.456 .0264838
873.127 .0264691
873.799 .0264546
874.470 .0264397
875.141 .0264244
875.811 .0264087
876.481 .0263932
877.151 .0263777
877.820 .0263627
878.489 .0263486
879.158 .0263353
879.826 .0263229
880.494 .0263113
881.162 .0262996
881.829 .0262884
882.496 .0262772
883.163 .0262660
883.829 .0262547
884.495 .0262437
885.160 .0262333
885.825 .0262231
886.490 .0262136
887.154 .0262046
887.818 .0261963
888.482 .0261881
889.145 .0261800
889.808 .0261723
890.471 .0261649
891.133 .0261578
891.795 .0261506
892.456 .0261438
893.117 .0261368
893.778 .0261298
894.439 .0261226
895.099 .0261151
895.758 .0261079
896.417 .0261006
897.076 .0260932
897.735 .0260861
898.393 .0260794
899.051 .0260726
899.708 .0260657
900.365 .0260590
901.022 .0260516
901.678 .0260439
902.334 .0260361
902.990 .0260279
903.645 .0260199
904.300 .0260122
904.954 .0260043
905.608 .0259963
906.262 .0259888
906.915 .0259810
907.568 .0259728
908.221 .0259641
908.873 .0259547
909.525 .0259439
910.176 .0259321
910.828 .0259190
911.478 .0259050
912.129 .0258909
912.778 .0258764
913.428 .0258615
914.077 .0258471
914.726 .0258327
915.375 .0258182
916.023 .0258038
916.670 .0257895
917.318 .0257749
917.964 .0257600
918.611 .0257452
919.257 .0257304
919.903 .0257160
920.548 .0257025
921.193 .0256898
921.838 .0256782
922.482 .0256678
923.126 .0256581
923.770 .0256494
924.413 .0256413
925.056 .0256338
925.698 .0256271
926.340 .0256207
926.982 .0256147
927.623 .0256084
928.264 .0256021
928.904 .0255956
929.544 .0255883
930.184 .0255806
930.823 .0255722
931.462 .0255633
932.101 .0255539
932.739 .0255442
933.377 .0255342
934.014 .0255236
934.651 .0255124
935.288 .0255002
935.924 .0254871
936.560 .0254730
937.196 .0254584
937.831 .0254439
938.466 .0254295
939.100 .0254156
939.734 .0254020
940.368 .0253890
941.001 .0253762
941.634 .0253636
942.266 .0253506
942.899 .0253368
943.530 .0253219
944.162 .0253056
944.793 .0252883
945.423 .0252703
946.053 .0252519
946.683 .0252335
947.313 .0252152
947.942 .0251970
948.571 .0251783
949.199 .0251590
949.827 .0251388
950.455 .0251176
951.082 .0250953
951.709 .0250726
952.335 .0250497
952.961 .0250276
953.587 .0250072
954.212 .0249891
954.837 .0249732
955.462 .0249593
956.086 .0249467
956.710 .0249356
957.334 .0249251
957.957 .0249152
958.579 .0249054
959.202 .0248961
959.824 .0248874
960.445 .0248794
961.067 .0248720
961.688 .0248661
962.308 .0248609
962.928 .0248569
963.548 .0248526
964.168 .0248475
964.787 .0248408
965.406 .0248329
966.024 .0248236
966.642 .0248128
967.260 .0248008
967.877 .0247884
968.494 .0247753
969.110 .0247623
969.727 .0247490
970.342 .0247363
970.958 .0247238
971.573 .0247119
972.188 .0246993
972.802 .0246868
973.416 .0246743
974.030 .0246618
974.643 .0246495
975.256 .0246377
975.869 .0246265
976.481 .0246160
977.093 .0246069
977.705 .0245999
978.316 .0245943
978.927 .0245909
979.538 .0245888
980.148 .0245872
980.758 .0245853
981.367 .0245829
981.977 .0245798
982.586 .0245767
983.194 .0245733
983.802 .0245701
984.410 .0245677
985.018 .0245668
985.625 .0245669
986.232 .0245679
986.838 .0245699
987.445 .0245721
988.050 .0245732
988.656 .0245736
989.261 .0245722
989.866 .0245693
990.471 .0245653
991.075 .0245607
991.679 .0245560
992.282 .0245516
992.886 .0245482
993.489 .0245461
994.091 .0245449
994.694 .0245444
995.296 .0245434
995.897 .0245419
996.499 .0245390
997.100 .0245338
997.701 .0245268
998.301 .0245192
998.901 .0245120
999.501 .0245062
1000.101 .0245026
1000.700 .0245018
1001.299 .0245037
1001.898 .0245074
1002.496 .0245123
1003.094 .0245167
1003.692 .0245200
1004.289 .0245217
1004.887 .0245219
1005.484 .0245212
1006.080 .0245202
1006.677 .0245198
1007.273 .0245209
1007.868 .0245233
1008.464 .0245270
1009.059 .0245301
1009.654 .0245327
1010.249 .0245346
1010.843 .0245347
1011.437 .0245328
1012.031 .0245292
1012.625 .0245242
1013.218 .0245183
1013.811 .0245118
1014.404 .0245057
1014.997 .0245004
1015.589 .0244968
1016.181 .0244951
1016.773 .0244949
1017.365 .0244963
1017.956 .0244989
1018.547 .0245018
1019.138 .0245049
1019.728 .0245080
1020.319 .0245109
1020.909 .0245138
1021.499 .0245170
1022.088 .0245216
1022.678 .0245270
1023.267 .0245339
1023.856 .0245414
1024.445 .0245480
1025.033 .0245536
1025.621 .0245574
1026.209 .0245589
1026.797 .0245578
1027.385 .0245553
1027.972 .0245517
1028.560 .0245476
1029.147 .0245434
1029.734 .0245399
1030.320 .0245368
1030.907 .0245337
1031.493 .0245302
1032.079 .0245256
1032.665 .0245201
1033.250 .0245142
1033.836 .0245082
1034.421 .0245024
1035.006 .0244963
1035.591 .0244900
1036.176 .0244833
1036.761 .0244767
1037.345 .0244692
1037.929 .0244605
1038.514 .0244509
1039.097 .0244415
1039.681 .0244320
1040.265 .0244218
1040.848 .0244124
1041.432 .0244038
1042.015 .0243954
1042.598 .0243870
1043.181 .0243790
1043.764 .0243722
1044.346 .0243673
1044.929 .0243647
1045.511 .0243644
1046.094 .0243667
1046.676 .0243716
1047.258 .0243780
1047.840 .0243858
1048.422 .0243945
1049.003 .0244029
1049.585 .0244101
1050.166 .0244172
1050.748 .0244236
1051.329 .0244294
1051.910 .0244357
1052.491 .0244420
1053.072 .0244479
1053.653 .0244527
1054.234 .0244562
1054.815 .0244585
1055.396 .0244599
1055.976 .0244604
1056.557 .0244590
1057.138 .0244574
1057.718 .0244552
1058.298 .0244525
1058.879 .0244489
1059.459 .0244449
1060.039 .0244391
1060.620 .0244314
1061.200 .0244226
1061.780 .0244129
1062.360 .0244025
1062.940 .0243924
1063.520 .0243824
1064.101 .0243730
1064.681 .0243633
1065.261 .0243530
1065.841 .0243407
1066.421 .0243279
1067.001 .0243129
1067.581 .0242956
1068.161 .0242771
1068.741 .0242587
1069.321 .0242406
1069.901 .0242237
1070.482 .0242088
1071.062 .0241945
1071.642 .0241800
1072.222 .0241662
1072.803 .0241519
1073.383 .0241377
1073.963 .0241243
1074.544 .0241126
1075.124 .0241029
1075.705 .0240959
1076.286 .0240925
1076.866 .0240910
1077.447 .0240927
1078.028 .0240947
1078.609 .0240952
1079.190 .0240935
1079.771 .0240916
1080.352 .0240885
1080.934 .0240835
1081.515 .0240792
1082.097 .0240748
1082.679 .0240694
1083.260 .0240639
1083.842 .0240568
1084.424 .0240478
1085.007 .0240370
1085.589 .0240252
1086.172 .0240103
1086.754 .0239971
1087.337 .0239867
1087.920 .0239796
1088.503 .0239800
1089.087 .0239863
1089.670 .0239963
1090.254 .0240099
1090.838 .0240265
1091.422 .0240420
1092.006 .0240563
1092.590 .0240700
1093.175 .0240787
1093.760 .0240843
1094.345 .0240862
1094.930 .0240828
1095.516 .0240770
1096.102 .0240702
1096.688 .0240596
1097.274 .0240470
1097.860 .0240331
1098.447 .0240161
1099.034 .0239976
1099.622 .0239789
1100.209 .0239585
1100.797 .0239393
1101.385 .0239203
1101.973 .0239015
1102.562 .0238828
1103.151 .0238666
1103.740 .0238501
1104.330 .0238334
1104.920 .0238166
1105.510 .0237992
1106.101 .0237828
1106.691 .0237689
1107.283 .0237556
1107.874 .0237487
1108.466 .0237450
1109.058 .0237463
1109.651 .0237516
1110.244 .0237619
1110.837 .0237753
1111.431 .0237931
1112.025 .0238165
1112.620 .0238440
1113.215 .0238759
1113.810 .0239127
1114.406 .0239549
1115.002 .0240040
1115.599 .0240543
1116.196 .0241024
1116.793 .0241472
1117.391 .0241873
1117.989 .0242151
1118.588 .0242303
1119.187 .0242345
1119.787 .0242283
1120.387 .0242152
1120.988 .0241970
1121.589 .0241793
1122.190 .0241648
1122.793 .0241544
1123.395 .0241472
1123.998 .0241431
1124.602 .0241419
1125.206 .0241392
1125.811 .0241362
1126.416 .0241352
1127.022 .0241356
1127.628 .0241397
1128.235 .0241498
1128.843 .0241733
1129.451 .0242081
1130.059 .0242538
1130.669 .0243079
1131.278 .0243688
1131.889 .0244306
1132.500 .0244882
1133.112 .0245388
1133.724 .0245828
1134.337 .0246219
1134.950 .0246553
1135.564 .0246872
1136.179 .0247247
1136.795 .0247705
1137.411 .0248255
1138.028 .0248879
1138.645 .0249551
1139.263 .0250221
1139.882 .0250850
1140.502 .0251428
1141.122 .0252028
1141.743 .0252736
1142.365 .0253489
1142.987 .0252692
1143.611 .0253713
1144.235 .0256725
1144.859 .0259631
1145.485 .0259275
