Measurement Sequence started on: 10-20-44-796
Integration time: 35
Scans to Average: 2 
>>>>>Begin Spectral Data<<<<<
432.953 .0431184
433.882 .0406342
434.810 .0374600
435.737 .0352979
436.662 .0333602
437.586 .0347784
438.509 .0340607
439.431 .0336012
440.351 .0333433
441.269 .0332253
442.187 .0331855
443.103 .0331530
444.018 .0331432
444.932 .0331489
445.844 .0331465
446.756 .0331392
447.666 .0331260
448.575 .0330895
449.482 .0330547
450.388 .0330196
451.294 .0329728
452.198 .0329388
453.100 .0329049
454.002 .0328695
454.902 .0328253
455.801 .0327737
456.699 .0327105
457.596 .0326482
458.492 .0325932
459.387 .0325385
460.280 .0325029
461.172 .0324716
462.064 .0324429
462.954 .0324178
463.843 .0323891
464.730 .0323536
465.617 .0323081
466.503 .0322591
467.387 .0322025
468.271 .0321441
469.153 .0320876
470.035 .0320329
470.915 .0319884
471.794 .0319458
472.673 .0318990
473.550 .0318516
474.426 .0318063
475.301 .0317578
476.175 .0317108
477.048 .0316659
477.920 .0316257
478.791 .0315927
479.661 .0315663
480.530 .0315466
481.398 .0315304
482.266 .0315164
483.132 .0315040
483.997 .0314881
484.861 .0314704
485.724 .0314495
486.587 .0314338
487.448 .0314232
488.308 .0314153
489.168 .0314139
490.026 .0314201
490.884 .0314321
491.741 .0314440
492.597 .0314480
493.452 .0314458
494.306 .0314321
495.159 .0314068
496.011 .0313713
496.862 .0313307
497.713 .0312886
498.562 .0312446
499.411 .0312024
500.259 .0311611
501.106 .0311166
501.952 .0310689
502.798 .0310130
503.642 .0309460
504.486 .0308661
505.329 .0307720
506.171 .0306716
507.012 .0305663
507.852 .0304545
508.692 .0303409
509.531 .0302242
510.369 .0301028
511.206 .0299768
512.043 .0298435
512.878 .0297077
513.713 .0295658
514.547 .0294236
515.381 .0292769
516.213 .0291244
517.045 .0289678
517.876 .0288052
518.706 .0286341
519.536 .0284587
520.365 .0282743
521.193 .0280877
522.020 .0279047
522.847 .0277221
523.673 .0275477
524.498 .0273818
525.323 .0272262
526.146 .0270741
526.969 .0269275
527.792 .0267864
528.614 .0266375
529.435 .0264857
530.255 .0263357
531.075 .0261876
531.894 .0260479
532.712 .0259102
533.530 .0257840
534.347 .0256745
535.163 .0255850
535.979 .0255148
536.794 .0254739
537.608 .0254643
538.422 .0254886
539.235 .0255359
540.048 .0255994
540.860 .0256660
541.671 .0257297
542.481 .0257768
543.292 .0257959
544.101 .0257915
544.910 .0257714
545.718 .0257404
546.526 .0257183
547.333 .0257068
548.139 .0257142
548.945 .0257419
549.750 .0257873
550.555 .0258394
551.359 .0258958
552.162 .0259522
552.965 .0260035
553.768 .0260571
554.569 .0261193
555.371 .0261865
556.171 .0262700
556.972 .0263768
557.771 .0264987
558.570 .0266300
559.369 .0267633
560.167 .0268907
560.964 .0270101
561.761 .0271184
562.558 .0272108
563.354 .0272972
564.149 .0273816
564.944 .0274615
565.738 .0275408
566.532 .0276217
567.325 .0276978
568.118 .0277649
568.910 .0278240
569.702 .0278737
570.494 .0279154
571.285 .0279554
572.075 .0279975
572.865 .0280442
573.654 .0280988
574.443 .0281570
575.232 .0282222
576.020 .0282937
576.807 .0283641
577.594 .0284326
578.381 .0284993
579.167 .0285626
579.952 .0286241
580.738 .0286858
581.522 .0287518
582.307 .0288210
583.091 .0288936
583.874 .0289664
584.657 .0290372
585.440 .0291062
586.222 .0291681
587.004 .0292232
587.785 .0292725
588.566 .0293131
589.346 .0293469
590.126 .0293748
590.906 .0293981
591.685 .0294166
592.464 .0294296
593.242 .0294390
594.020 .0294454
594.797 .0294510
595.575 .0294543
596.351 .0294579
597.128 .0294623
597.904 .0294667
598.679 .0294699
599.454 .0294723
600.229 .0294738
601.004 .0294755
601.778 .0294768
602.551 .0294763
603.325 .0294762
604.097 .0294771
604.870 .0294782
605.642 .0294814
606.414 .0294856
607.185 .0294901
607.956 .0294937
608.727 .0294970
609.497 .0294990
610.267 .0294991
611.037 .0294989
611.806 .0294982
612.575 .0294974
613.344 .0294970
614.112 .0294963
614.880 .0294953
615.647 .0294951
616.414 .0294935
617.181 .0294892
617.948 .0294827
618.714 .0294728
619.480 .0294594
620.245 .0294432
621.011 .0294247
621.775 .0294041
622.540 .0293817
623.304 .0293591
624.068 .0293355
624.832 .0293118
625.595 .0292886
626.358 .0292642
627.120 .0292399
627.883 .0292150
628.645 .0291892
629.406 .0291636
630.168 .0291384
630.929 .0291145
631.689 .0290922
632.450 .0290721
633.210 .0290538
633.970 .0290371
634.729 .0290220
635.489 .0290062
636.248 .0289894
637.006 .0289701
637.765 .0289486
638.523 .0289252
639.280 .0289007
640.038 .0288755
640.795 .0288508
641.552 .0288279
642.309 .0288060
643.065 .0287861
643.821 .0287685
644.577 .0287521
645.332 .0287370
646.088 .0287229
646.843 .0287091
647.597 .0286957
648.352 .0286830
649.106 .0286707
649.860 .0286594
650.613 .0286486
651.367 .0286377
652.120 .0286275
652.872 .0286179
653.625 .0286093
654.377 .0286013
655.129 .0285939
655.881 .0285860
656.632 .0285769
657.384 .0285667
658.135 .0285544
658.885 .0285412
659.636 .0285272
660.386 .0285122
661.136 .0284976
661.885 .0284835
662.635 .0284699
663.384 .0284575
664.133 .0284455
664.881 .0284326
665.630 .0284190
666.378 .0284046
667.126 .0283890
667.874 .0283733
668.621 .0283580
669.368 .0283437
670.115 .0283304
670.862 .0283179
671.608 .0283057
672.354 .0282935
673.100 .0282812
673.846 .0282681
674.591 .0282550
675.337 .0282423
676.082 .0282302
676.826 .0282199
677.571 .0282114
678.315 .0282043
679.059 .0281977
679.803 .0281912
680.547 .0281843
681.290 .0281764
682.033 .0281665
682.776 .0281558
683.518 .0281458
684.261 .0281363
685.003 .0281279
685.745 .0281210
686.487 .0281159
687.228 .0281114
687.969 .0281065
688.710 .0281005
689.451 .0280926
690.192 .0280833
690.932 .0280717
691.672 .0280584
692.412 .0280452
693.152 .0280320
693.891 .0280199
694.630 .0280087
695.369 .0279985
696.108 .0279877
696.846 .0279763
697.585 .0279636
698.323 .0279498
699.061 .0279352
699.798 .0279200
700.536 .0279046
701.273 .0278894
702.010 .0278748
702.746 .0278606
703.483 .0278463
704.219 .0278323
704.955 .0278170
705.691 .0278009
706.427 .0277833
707.162 .0277650
707.897 .0277465
708.632 .0277279
709.367 .0277092
710.101 .0276906
710.835 .0276715
711.569 .0276518
712.303 .0276315
713.037 .0276109
713.770 .0275900
714.503 .0275693
715.236 .0275488
715.969 .0275292
716.702 .0275103
717.434 .0274925
718.166 .0274750
718.898 .0274580
719.629 .0274406
720.361 .0274225
721.092 .0274039
721.823 .0273843
722.554 .0273639
723.284 .0273436
724.014 .0273225
724.744 .0273008
725.474 .0272780
726.204 .0272547
726.933 .0272306
727.662 .0272064
728.391 .0271826
729.120 .0271595
729.849 .0271376
730.577 .0271173
731.305 .0270975
732.033 .0270792
732.760 .0270606
733.488 .0270420
734.215 .0270224
734.942 .0270023
735.669 .0269810
736.395 .0269600
737.122 .0269397
737.848 .0269207
738.573 .0269026
739.299 .0268855
740.024 .0268684
740.750 .0268512
741.474 .0268323
742.199 .0268119
742.924 .0267893
743.648 .0267660
744.372 .0267416
745.096 .0267185
745.819 .0266959
746.543 .0266753
747.266 .0266562
747.989 .0266384
748.711 .0266211
749.434 .0266047
750.156 .0265888
750.878 .0265742
751.599 .0265603
752.321 .0265478
753.042 .0265360
753.763 .0265266
754.484 .0265179
755.205 .0265100
755.925 .0265017
756.645 .0264929
757.365 .0264827
758.085 .0264717
758.804 .0264597
759.523 .0264472
760.242 .0264339
760.961 .0264200
761.679 .0264048
762.397 .0263883
763.115 .0263706
763.833 .0263524
764.551 .0263332
765.268 .0263130
765.985 .0262919
766.702 .0262706
767.418 .0262491
768.134 .0262278
768.850 .0262065
769.566 .0261853
770.282 .0261640
770.997 .0261426
771.712 .0261215
772.427 .0261014
773.142 .0260827
773.856 .0260644
774.570 .0260471
775.284 .0260300
775.998 .0260126
776.711 .0259953
777.424 .0259783
778.137 .0259619
778.849 .0259466
779.562 .0259328
780.274 .0259214
780.986 .0259126
781.697 .0259060
782.409 .0259012
783.120 .0258973
783.831 .0258937
784.541 .0258897
785.252 .0258849
785.962 .0258797
786.671 .0258741
787.381 .0258673
788.090 .0258596
788.799 .0258506
789.508 .0258403
790.217 .0258276
790.925 .0258126
791.633 .0257957
792.341 .0257767
793.048 .0257564
793.755 .0257357
794.462 .0257149
795.169 .0256958
795.875 .0256777
796.581 .0256611
797.287 .0256459
797.993 .0256324
798.698 .0256198
799.403 .0256091
800.108 .0256004
800.812 .0255938
801.517 .0255893
802.221 .0255879
802.924 .0255883
803.628 .0255909
804.331 .0255945
805.034 .0255980
805.736 .0256008
806.439 .0256027
807.141 .0256025
807.843 .0256010
808.544 .0255982
809.245 .0255937
809.946 .0255881
810.647 .0255811
811.347 .0255723
812.047 .0255624
812.747 .0255520
813.447 .0255408
814.146 .0255290
814.845 .0255175
815.543 .0255057
816.242 .0254942
816.940 .0254832
817.638 .0254720
818.335 .0254613
819.032 .0254513
819.729 .0254418
820.426 .0254328
821.122 .0254249
821.818 .0254179
822.514 .0254123
823.209 .0254082
823.905 .0254047
824.599 .0254012
825.294 .0253977
825.988 .0253937
826.682 .0253885
827.376 .0253825
828.069 .0253755
828.762 .0253684
829.455 .0253609
830.147 .0253529
830.840 .0253453
831.531 .0253380
832.223 .0253309
832.914 .0253237
833.605 .0253160
834.296 .0253084
834.986 .0253005
835.676 .0252926
836.366 .0252843
837.055 .0252757
837.744 .0252667
838.433 .0252570
839.121 .0252465
839.809 .0252356
840.497 .0252245
841.185 .0252139
841.872 .0252037
842.559 .0251939
843.245 .0251847
843.932 .0251763
844.617 .0251683
845.303 .0251599
845.988 .0251505
846.673 .0251407
847.358 .0251302
848.042 .0251199
848.726 .0251097
849.410 .0251006
850.093 .0250928
850.776 .0250867
851.459 .0250816
852.141 .0250760
852.823 .0250701
853.505 .0250630
854.186 .0250545
854.867 .0250450
855.548 .0250344
856.228 .0250248
856.908 .0250169
857.588 .0250107
858.267 .0250057
858.946 .0250018
859.625 .0249983
860.303 .0249943
860.981 .0249891
861.659 .0249817
862.336 .0249725
863.013 .0249617
863.690 .0249500
864.366 .0249375
865.042 .0249255
865.718 .0249136
866.393 .0249019
867.068 .0248904
867.743 .0248781
868.417 .0248653
869.091 .0248522
869.765 .0248382
870.438 .0248238
871.111 .0248088
871.783 .0247939
872.456 .0247794
873.127 .0247661
873.799 .0247538
874.470 .0247427
875.141 .0247327
875.811 .0247238
876.481 .0247154
877.151 .0247075
877.820 .0246996
878.489 .0246909
879.158 .0246813
879.826 .0246703
880.494 .0246579
881.162 .0246448
881.829 .0246312
882.496 .0246169
883.163 .0246022
883.829 .0245872
884.495 .0245722
885.160 .0245569
885.825 .0245418
886.490 .0245275
887.154 .0245133
887.818 .0244994
888.482 .0244858
889.145 .0244727
889.808 .0244603
890.471 .0244487
891.133 .0244375
891.795 .0244267
892.456 .0244163
893.117 .0244058
893.778 .0243949
894.439 .0243839
895.099 .0243720
895.758 .0243588
896.417 .0243447
897.076 .0243301
897.735 .0243148
898.393 .0242999
899.051 .0242859
899.708 .0242728
900.365 .0242603
901.022 .0242486
901.678 .0242371
902.334 .0242255
902.990 .0242139
903.645 .0242015
904.300 .0241891
904.954 .0241772
905.608 .0241657
906.262 .0241554
906.915 .0241470
907.568 .0241392
908.221 .0241316
908.873 .0241232
909.525 .0241132
910.176 .0241014
910.828 .0240875
911.478 .0240718
912.129 .0240548
912.778 .0240373
913.428 .0240198
914.077 .0240026
914.726 .0239864
915.375 .0239703
916.023 .0239548
916.670 .0239394
917.318 .0239232
917.964 .0239066
918.611 .0238899
919.257 .0238729
919.903 .0238567
920.548 .0238413
921.193 .0238263
921.838 .0238122
922.482 .0237988
923.126 .0237850
923.770 .0237712
924.413 .0237568
925.056 .0237423
925.698 .0237282
926.340 .0237152
926.982 .0237032
927.623 .0236927
928.264 .0236840
928.904 .0236761
929.544 .0236684
930.184 .0236609
930.823 .0236525
931.462 .0236438
932.101 .0236340
932.739 .0236230
933.377 .0236115
934.014 .0235996
934.651 .0235872
935.288 .0235745
935.924 .0235615
936.560 .0235472
937.196 .0235321
937.831 .0235164
938.466 .0234993
939.100 .0234815
939.734 .0234636
940.368 .0234454
941.001 .0234274
941.634 .0234100
942.266 .0233926
942.899 .0233753
943.530 .0233584
944.162 .0233408
944.793 .0233225
945.423 .0233034
946.053 .0232839
946.683 .0232632
947.313 .0232422
947.942 .0232201
948.571 .0231965
949.199 .0231724
949.827 .0231474
950.455 .0231215
951.082 .0230958
951.709 .0230707
952.335 .0230461
952.961 .0230225
953.587 .0230003
954.212 .0229788
954.837 .0229587
955.462 .0229405
956.086 .0229240
956.710 .0229092
957.334 .0228970
957.957 .0228871
958.579 .0228792
959.202 .0228740
959.824 .0228695
960.445 .0228653
961.067 .0228613
961.688 .0228563
962.308 .0228499
962.928 .0228432
963.548 .0228357
964.168 .0228280
964.787 .0228209
965.406 .0228142
966.024 .0228071
966.642 .0228002
967.260 .0227925
967.877 .0227832
968.494 .0227721
969.110 .0227592
969.727 .0227445
970.342 .0227297
970.958 .0227149
971.573 .0227006
972.188 .0226874
972.802 .0226760
973.416 .0226655
974.030 .0226560
974.643 .0226469
975.256 .0226383
975.869 .0226298
976.481 .0226217
977.093 .0226138
977.705 .0226066
978.316 .0226005
978.927 .0225964
979.538 .0225935
980.148 .0225917
980.758 .0225906
981.367 .0225903
981.977 .0225897
982.586 .0225891
983.194 .0225877
983.802 .0225863
984.410 .0225845
985.018 .0225833
985.625 .0225822
986.232 .0225822
986.838 .0225839
987.445 .0225871
988.050 .0225914
988.656 .0225971
989.261 .0226031
989.866 .0226094
990.471 .0226158
991.075 .0226225
991.679 .0226294
992.282 .0226371
992.886 .0226454
993.489 .0226552
994.091 .0226653
994.694 .0226762
995.296 .0226867
995.897 .0226968
996.499 .0227058
997.100 .0227129
997.701 .0227182
998.301 .0227224
998.901 .0227257
999.501 .0227284
1000.101 .0227314
1000.700 .0227347
1001.299 .0227378
1001.898 .0227406
1002.496 .0227433
1003.094 .0227456
1003.692 .0227473
1004.289 .0227482
1004.887 .0227485
1005.484 .0227485
1006.080 .0227477
1006.677 .0227462
1007.273 .0227445
1007.868 .0227426
1008.464 .0227403
1009.059 .0227376
1009.654 .0227353
1010.249 .0227331
1010.843 .0227320
1011.437 .0227317
1012.031 .0227326
1012.625 .0227351
1013.218 .0227394
1013.811 .0227456
1014.404 .0227542
1014.997 .0227646
1015.589 .0227767
1016.181 .0227911
1016.773 .0228067
1017.365 .0228236
1017.956 .0228405
1018.547 .0228577
1019.138 .0228751
1019.728 .0228919
1020.319 .0229087
1020.909 .0229242
1021.499 .0229382
1022.088 .0229503
1022.678 .0229586
1023.267 .0229635
1023.856 .0229649
1024.445 .0229633
1025.033 .0229598
1025.621 .0229546
1026.209 .0229489
1026.797 .0229427
1027.385 .0229368
1027.972 .0229313
1028.560 .0229253
1029.147 .0229186
1029.734 .0229117
1030.320 .0229039
1030.907 .0228969
1031.493 .0228916
1032.079 .0228890
1032.665 .0228901
1033.250 .0228947
1033.836 .0229019
1034.421 .0229110
1035.006 .0229218
1035.591 .0229337
1036.176 .0229448
1036.761 .0229554
1037.345 .0229655
1037.929 .0229741
1038.514 .0229829
1039.097 .0229914
1039.681 .0230001
1040.265 .0230081
1040.848 .0230156
1041.432 .0230221
1042.015 .0230278
1042.598 .0230329
1043.181 .0230378
1043.764 .0230422
1044.346 .0230474
1044.929 .0230528
1045.511 .0230587
1046.094 .0230668
1046.676 .0230772
1047.258 .0230877
1047.840 .0230992
1048.422 .0231102
1049.003 .0231207
1049.585 .0231292
1050.166 .0231369
1050.748 .0231423
1051.329 .0231458
1051.910 .0231487
1052.491 .0231504
1053.072 .0231514
1053.653 .0231527
1054.234 .0231524
1054.815 .0231501
1055.396 .0231466
1055.976 .0231406
1056.557 .0231322
1057.138 .0231253
1057.718 .0231194
1058.298 .0231149
1058.879 .0231134
1059.459 .0231154
1060.039 .0231191
1060.620 .0231254
1061.200 .0231316
1061.780 .0231345
1062.360 .0231341
1062.940 .0231297
1063.520 .0231201
1064.101 .0231076
1064.681 .0230940
1065.261 .0230808
1065.841 .0230698
1066.421 .0230632
1067.001 .0230580
1067.581 .0230556
1068.161 .0230542
1068.741 .0230521
1069.321 .0230472
1069.901 .0230414
1070.482 .0230350
1071.062 .0230289
1071.642 .0230242
1072.222 .0230249
1072.803 .0230287
1073.383 .0230372
1073.963 .0230482
1074.544 .0230589
1075.124 .0230651
1075.705 .0230666
1076.286 .0230599
1076.866 .0230466
1077.447 .0230276
1078.028 .0230044
1078.609 .0229795
1079.190 .0229583
1079.771 .0229403
1080.352 .0229258
1080.934 .0229167
1081.515 .0229116
1082.097 .0229069
1082.679 .0229046
1083.260 .0229025
1083.842 .0229013
1084.424 .0229042
1085.007 .0229114
1085.589 .0229207
1086.172 .0229336
1086.754 .0229495
1087.337 .0229657
1087.920 .0229837
1088.503 .0230014
1089.087 .0230179
1089.670 .0230344
1090.254 .0230506
1090.838 .0230656
1091.422 .0230797
1092.006 .0230939
1092.590 .0231058
1093.175 .0231150
1093.760 .0231207
1094.345 .0231215
1094.930 .0231170
1095.516 .0231102
1096.102 .0231008
1096.688 .0230910
1097.274 .0230804
1097.860 .0230718
1098.447 .0230638
1099.034 .0230552
1099.622 .0230435
1100.209 .0230283
1100.797 .0230089
1101.385 .0229847
1101.973 .0229572
1102.562 .0229296
1103.151 .0229048
1103.740 .0228867
1104.330 .0228733
1104.920 .0228694
1105.510 .0228710
1106.101 .0228765
1106.691 .0228831
1107.283 .0228907
1107.874 .0228964
1108.466 .0228981
1109.058 .0228995
1109.651 .0229026
1110.244 .0229079
1110.837 .0229180
1111.431 .0229330
1112.025 .0229511
1112.620 .0229692
1113.215 .0229812
1113.810 .0229835
1114.406 .0229775
1115.002 .0229589
1115.599 .0229309
1116.196 .0228988
1116.793 .0228673
1117.391 .0228411
1117.989 .0228224
1118.588 .0228167
1119.187 .0228191
1119.787 .0228230
1120.387 .0228269
1120.988 .0228259
1121.589 .0228183
1122.190 .0228066
1122.793 .0227929
1123.395 .0227847
1123.998 .0227861
1124.602 .0227956
1125.206 .0228153
1125.811 .0228414
1126.416 .0228719
1127.022 .0228987
1127.628 .0229191
1128.235 .0229335
1128.843 .0229413
1129.451 .0229472
1130.059 .0229582
1130.669 .0229757
1131.278 .0230063
1131.889 .0230464
1132.500 .0230954
1133.112 .0231506
1133.724 .0232089
1134.337 .0232695
1134.950 .0233294
1135.564 .0233894
1136.179 .0234535
1136.795 .0235177
1137.411 .0235877
1138.028 .0236618
1138.645 .0237365
1139.263 .0238163
1139.882 .0238896
1140.502 .0239644
1141.122 .0240308
1141.743 .0241029
1142.365 .0241681
1142.987 .0241306
1143.611 .0244127
1144.235 .0242616
1144.859 .0245916
1145.485 .0244379
