Measurement Sequence started on: 10-20-44-796
Integration time: 35
Scans to Average: 2 
>>>>>Begin Spectral Data<<<<<
432.953 .0257348
433.882 .0314150
434.810 .0386562
435.737 .0402516
436.662 .0404290
437.586 .0398535
438.509 .0408460
439.431 .0414059
440.351 .0416459
441.269 .0417698
442.187 .0418355
443.103 .0418301
444.018 .0417969
444.932 .0417441
445.844 .0416476
446.756 .0415448
447.666 .0414628
448.575 .0413942
449.482 .0413619
450.388 .0413394
451.294 .0413316
452.198 .0413122
453.100 .0412855
454.002 .0412641
454.902 .0412430
455.801 .0412215
456.699 .0411968
457.596 .0411683
458.492 .0411414
459.387 .0411142
460.280 .0410929
461.172 .0410732
462.064 .0410502
462.954 .0410124
463.843 .0409675
464.730 .0409184
465.617 .0408663
466.503 .0408044
467.387 .0407418
468.271 .0406707
469.153 .0405929
470.035 .0405063
470.915 .0404153
471.794 .0403199
472.673 .0402237
473.550 .0401290
474.426 .0400411
475.301 .0399627
476.175 .0398999
477.048 .0398510
477.920 .0398149
478.791 .0397840
479.661 .0397541
480.530 .0397228
481.398 .0396902
482.266 .0396546
483.132 .0396197
483.997 .0395852
484.861 .0395583
485.724 .0395424
486.587 .0395372
487.448 .0395403
488.308 .0395426
489.168 .0395396
490.026 .0395222
490.884 .0394877
491.741 .0394374
492.597 .0393668
493.452 .0392894
494.306 .0392095
495.159 .0391306
496.011 .0390578
496.862 .0389927
497.713 .0389337
498.562 .0388763
499.411 .0388181
500.259 .0387549
501.106 .0386858
501.952 .0386178
502.798 .0385493
503.642 .0384816
504.486 .0384142
505.329 .0383450
506.171 .0382639
507.012 .0381800
507.852 .0380799
508.692 .0379604
509.531 .0378250
510.369 .0376767
511.206 .0375174
512.043 .0373488
512.878 .0371697
513.713 .0369812
514.547 .0367832
515.381 .0365848
516.213 .0363799
517.045 .0361817
517.876 .0359950
518.706 .0358280
519.536 .0356788
520.365 .0355575
521.193 .0354522
522.020 .0353618
522.847 .0352795
523.673 .0351881
524.498 .0350792
525.323 .0349548
526.146 .0348191
526.969 .0346809
527.792 .0345394
528.614 .0343976
529.435 .0342522
530.255 .0341091
531.075 .0339574
531.894 .0337957
532.712 .0336259
533.530 .0334515
534.347 .0332796
535.163 .0331197
535.979 .0329836
536.794 .0328814
537.608 .0328256
538.422 .0328099
539.235 .0328247
540.048 .0328634
540.860 .0329117
541.671 .0329619
542.481 .0330117
543.292 .0330567
544.101 .0330988
544.910 .0331368
545.718 .0331651
546.526 .0331872
547.333 .0332141
548.139 .0332419
548.945 .0332643
549.750 .0332830
550.555 .0332995
551.359 .0333038
552.162 .0333024
552.965 .0333027
553.768 .0333044
554.569 .0333117
555.371 .0333199
556.171 .0333250
556.972 .0333306
557.771 .0333287
558.570 .0333179
559.369 .0333000
560.167 .0332814
560.964 .0332566
561.761 .0332313
562.558 .0332194
563.354 .0332236
564.149 .0332364
564.944 .0332628
565.738 .0333010
566.532 .0333414
567.325 .0333795
568.118 .0334132
568.910 .0334445
569.702 .0334807
570.494 .0335205
571.285 .0335625
572.075 .0336132
572.865 .0336733
573.654 .0337346
574.443 .0337928
575.232 .0338532
576.020 .0339074
576.807 .0339552
577.594 .0339982
578.381 .0340372
579.167 .0340720
579.952 .0341088
580.738 .0341437
581.522 .0341780
582.307 .0342087
583.091 .0342345
583.874 .0342509
584.657 .0342597
585.440 .0342629
586.222 .0342608
587.004 .0342563
587.785 .0342538
588.566 .0342502
589.346 .0342485
590.126 .0342478
590.906 .0342481
591.685 .0342491
592.464 .0342483
593.242 .0342459
594.020 .0342415
594.797 .0342361
595.575 .0342304
596.351 .0342239
597.128 .0342177
597.904 .0342118
598.679 .0342046
599.454 .0341946
600.229 .0341827
601.004 .0341691
601.778 .0341528
602.551 .0341351
603.325 .0341151
604.097 .0340938
604.870 .0340724
605.642 .0340515
606.414 .0340316
607.185 .0340123
607.956 .0339938
608.727 .0339752
609.497 .0339562
610.267 .0339378
611.037 .0339178
611.806 .0338970
612.575 .0338755
613.344 .0338529
614.112 .0338283
614.880 .0338023
615.647 .0337750
616.414 .0337468
617.181 .0337163
617.948 .0336835
618.714 .0336485
619.480 .0336114
620.245 .0335737
621.011 .0335341
621.775 .0334936
622.540 .0334534
623.304 .0334131
624.068 .0333749
624.832 .0333375
625.595 .0333012
626.358 .0332665
627.120 .0332333
627.883 .0332009
628.645 .0331682
629.406 .0331360
630.168 .0331040
630.929 .0330718
631.689 .0330394
632.450 .0330066
633.210 .0329736
633.970 .0329414
634.729 .0329092
635.489 .0328766
636.248 .0328434
637.006 .0328084
637.765 .0327722
638.523 .0327345
639.280 .0326933
640.038 .0326500
640.795 .0326054
641.552 .0325608
642.309 .0325160
643.065 .0324736
643.821 .0324338
644.577 .0323966
645.332 .0323614
646.088 .0323283
646.843 .0322965
647.597 .0322665
648.352 .0322375
649.106 .0322096
649.860 .0321843
650.613 .0321616
651.367 .0321419
652.120 .0321271
652.872 .0321165
653.625 .0321092
654.377 .0321035
655.129 .0321001
655.881 .0320965
656.632 .0320925
657.384 .0320870
658.135 .0320801
658.885 .0320714
659.636 .0320613
660.386 .0320503
661.136 .0320390
661.885 .0320280
662.635 .0320166
663.384 .0320049
664.133 .0319930
664.881 .0319791
665.630 .0319636
666.378 .0319467
667.126 .0319281
667.874 .0319074
668.621 .0318854
669.368 .0318623
670.115 .0318391
670.862 .0318158
671.608 .0317935
672.354 .0317722
673.100 .0317524
673.846 .0317336
674.591 .0317155
675.337 .0316996
676.082 .0316843
676.826 .0316698
677.571 .0316564
678.315 .0316430
679.059 .0316299
679.803 .0316173
680.547 .0316053
681.290 .0315929
682.033 .0315810
682.776 .0315684
683.518 .0315554
684.261 .0315417
685.003 .0315273
685.745 .0315113
686.487 .0314948
687.228 .0314769
687.969 .0314568
688.710 .0314360
689.451 .0314141
690.192 .0313910
690.932 .0313674
691.672 .0313428
692.412 .0313184
693.152 .0312929
693.891 .0312680
694.630 .0312424
695.369 .0312177
696.108 .0311935
696.846 .0311696
697.585 .0311460
698.323 .0311226
699.061 .0310991
699.798 .0310755
700.536 .0310515
701.273 .0310268
702.010 .0310014
702.746 .0309759
703.483 .0309497
704.219 .0309238
704.955 .0308975
705.691 .0308722
706.427 .0308469
707.162 .0308223
707.897 .0307973
708.632 .0307722
709.367 .0307470
710.101 .0307209
710.835 .0306937
711.569 .0306655
712.303 .0306361
713.037 .0306061
713.770 .0305753
714.503 .0305451
715.236 .0305149
715.969 .0304858
716.702 .0304576
717.434 .0304303
718.166 .0304028
718.898 .0303749
719.629 .0303463
720.361 .0303176
721.092 .0302890
721.823 .0302603
722.554 .0302323
723.284 .0302060
724.014 .0301801
724.744 .0301549
725.474 .0301294
726.204 .0301033
726.933 .0300752
727.662 .0300448
728.391 .0300117
729.120 .0299766
729.849 .0299409
730.577 .0299054
731.305 .0298709
732.033 .0298383
732.760 .0298064
733.488 .0297756
734.215 .0297458
734.942 .0297163
735.669 .0296867
736.395 .0296584
737.122 .0296314
737.848 .0296063
738.573 .0295843
739.299 .0295656
740.024 .0295506
740.750 .0295391
741.474 .0295291
742.199 .0295196
742.924 .0295104
743.648 .0295008
744.372 .0294899
745.096 .0294788
745.819 .0294669
746.543 .0294544
747.266 .0294427
747.989 .0294313
748.711 .0294203
749.434 .0294106
750.156 .0294018
750.878 .0293932
751.599 .0293852
752.321 .0293776
753.042 .0293705
753.763 .0293644
754.484 .0293596
755.205 .0293552
755.925 .0293522
756.645 .0293503
757.365 .0293490
758.085 .0293474
758.804 .0293457
759.523 .0293424
760.242 .0293375
760.961 .0293306
761.679 .0293217
762.397 .0293112
763.115 .0292999
763.833 .0292882
764.551 .0292762
765.268 .0292644
765.985 .0292539
766.702 .0292439
767.418 .0292349
768.134 .0292261
768.850 .0292180
769.566 .0292106
770.282 .0292045
770.997 .0291990
771.712 .0291948
772.427 .0291915
773.142 .0291884
773.856 .0291848
774.570 .0291803
775.284 .0291745
775.998 .0291670
776.711 .0291579
777.424 .0291480
778.137 .0291373
778.849 .0291266
779.562 .0291156
780.274 .0291050
780.986 .0290944
781.697 .0290836
782.409 .0290730
783.120 .0290630
783.831 .0290538
784.541 .0290464
785.252 .0290410
785.962 .0290381
786.671 .0290381
787.381 .0290405
788.090 .0290445
788.799 .0290497
789.508 .0290550
790.217 .0290593
790.925 .0290621
791.633 .0290636
792.341 .0290629
793.048 .0290600
793.755 .0290555
794.462 .0290490
795.169 .0290415
795.875 .0290327
796.581 .0290230
797.287 .0290127
797.993 .0290023
798.698 .0289916
799.403 .0289810
800.108 .0289708
800.812 .0289612
801.517 .0289512
802.221 .0289412
802.924 .0289308
803.628 .0289204
804.331 .0289107
805.034 .0289019
805.736 .0288941
806.439 .0288873
807.141 .0288811
807.843 .0288756
808.544 .0288699
809.245 .0288638
809.946 .0288561
810.647 .0288464
811.347 .0288345
812.047 .0288206
812.747 .0288050
813.447 .0287882
814.146 .0287702
814.845 .0287524
815.543 .0287347
816.242 .0287171
816.940 .0286997
817.638 .0286828
818.335 .0286665
819.032 .0286497
819.729 .0286319
820.426 .0286130
821.122 .0285926
821.818 .0285709
822.514 .0285479
823.209 .0285242
823.905 .0285000
824.599 .0284759
825.294 .0284524
825.988 .0284293
826.682 .0284064
827.376 .0283836
828.069 .0283604
828.762 .0283366
829.455 .0283116
830.147 .0282850
830.840 .0282583
831.531 .0282323
832.223 .0282072
832.914 .0281837
833.605 .0281625
834.296 .0281442
834.986 .0281277
835.676 .0281128
836.366 .0280986
837.055 .0280851
837.744 .0280725
838.433 .0280598
839.121 .0280472
839.809 .0280356
840.497 .0280240
841.185 .0280129
841.872 .0280015
842.559 .0279897
843.245 .0279767
843.932 .0279626
844.617 .0279464
845.303 .0279287
845.988 .0279099
846.673 .0278903
847.358 .0278701
848.042 .0278499
848.726 .0278297
849.410 .0278090
850.093 .0277884
850.776 .0277672
851.459 .0277452
852.141 .0277230
852.823 .0277002
853.505 .0276779
854.186 .0276562
854.867 .0276356
855.548 .0276165
856.228 .0275994
856.908 .0275835
857.588 .0275683
858.267 .0275536
858.946 .0275395
859.625 .0275247
860.303 .0275093
860.981 .0274940
861.659 .0274782
862.336 .0274617
863.013 .0274448
863.690 .0274272
864.366 .0274098
865.042 .0273916
865.718 .0273728
866.393 .0273529
867.068 .0273332
867.743 .0273130
868.417 .0272921
869.091 .0272704
869.765 .0272482
870.438 .0272246
871.111 .0272000
871.783 .0271741
872.456 .0271477
873.127 .0271212
873.799 .0270963
874.470 .0270726
875.141 .0270512
875.811 .0270326
876.481 .0270170
877.151 .0270036
877.820 .0269920
878.489 .0269808
879.158 .0269701
879.826 .0269594
880.494 .0269485
881.162 .0269377
881.829 .0269282
882.496 .0269196
883.163 .0269123
883.829 .0269061
884.495 .0269008
885.160 .0268955
885.825 .0268909
886.490 .0268860
887.154 .0268800
887.818 .0268735
888.482 .0268659
889.145 .0268582
889.808 .0268505
890.471 .0268423
891.133 .0268347
891.795 .0268276
892.456 .0268211
893.117 .0268146
893.778 .0268092
894.439 .0268050
895.099 .0268011
895.758 .0267983
896.417 .0267962
897.076 .0267947
897.735 .0267939
898.393 .0267935
899.051 .0267932
899.708 .0267927
900.365 .0267910
901.022 .0267880
901.678 .0267839
902.334 .0267789
902.990 .0267729
903.645 .0267665
904.300 .0267604
904.954 .0267546
905.608 .0267493
906.262 .0267446
906.915 .0267400
907.568 .0267352
908.221 .0267297
908.873 .0267230
909.525 .0267157
910.176 .0267080
910.828 .0267012
911.478 .0266959
912.129 .0266922
912.778 .0266900
913.428 .0266891
914.077 .0266893
914.726 .0266897
915.375 .0266899
916.023 .0266897
916.670 .0266890
917.318 .0266885
917.964 .0266883
918.611 .0266885
919.257 .0266896
919.903 .0266920
920.548 .0266945
921.193 .0266971
921.838 .0266991
922.482 .0267006
923.126 .0267023
923.770 .0267047
924.413 .0267077
925.056 .0267115
925.698 .0267163
926.340 .0267215
926.982 .0267263
927.623 .0267302
928.264 .0267324
928.904 .0267325
929.544 .0267309
930.184 .0267272
930.823 .0267222
931.462 .0267167
932.101 .0267112
932.739 .0267056
933.377 .0266989
934.014 .0266908
934.651 .0266809
935.288 .0266691
935.924 .0266560
936.560 .0266420
937.196 .0266285
937.831 .0266163
938.466 .0266063
939.100 .0265982
939.734 .0265923
940.368 .0265882
941.001 .0265851
941.634 .0265821
942.266 .0265789
942.899 .0265746
943.530 .0265696
944.162 .0265641
944.793 .0265577
945.423 .0265503
946.053 .0265423
946.683 .0265332
947.313 .0265230
947.942 .0265111
948.571 .0264978
949.199 .0264823
949.827 .0264656
950.455 .0264469
951.082 .0264268
951.709 .0264066
952.335 .0263859
952.961 .0263653
953.587 .0263461
954.212 .0263282
954.837 .0263128
955.462 .0262993
956.086 .0262885
956.710 .0262790
957.334 .0262710
957.957 .0262637
958.579 .0262560
959.202 .0262486
959.824 .0262411
960.445 .0262336
961.067 .0262268
961.688 .0262196
962.308 .0262124
962.928 .0262052
963.548 .0261976
964.168 .0261887
964.787 .0261785
965.406 .0261669
966.024 .0261548
966.642 .0261427
967.260 .0261313
967.877 .0261212
968.494 .0261128
969.110 .0261066
969.727 .0261007
970.342 .0260962
970.958 .0260916
971.573 .0260870
972.188 .0260831
972.802 .0260789
973.416 .0260751
974.030 .0260713
974.643 .0260683
975.256 .0260652
975.869 .0260615
976.481 .0260584
977.093 .0260552
977.705 .0260525
978.316 .0260504
978.927 .0260482
979.538 .0260464
980.148 .0260447
980.758 .0260430
981.367 .0260409
981.977 .0260391
982.586 .0260373
983.194 .0260359
983.802 .0260350
984.410 .0260351
985.018 .0260354
985.625 .0260366
986.232 .0260383
986.838 .0260389
987.445 .0260382
988.050 .0260363
988.656 .0260326
989.261 .0260275
989.866 .0260202
990.471 .0260103
991.075 .0259981
991.679 .0259837
992.282 .0259671
992.886 .0259494
993.489 .0259314
994.091 .0259138
994.694 .0258971
995.296 .0258816
995.897 .0258676
996.499 .0258548
997.100 .0258425
997.701 .0258299
998.301 .0258163
998.901 .0258021
999.501 .0257873
1000.101 .0257739
1000.700 .0257627
1001.299 .0257540
1001.898 .0257488
1002.496 .0257465
1003.094 .0257464
1003.692 .0257474
1004.289 .0257479
1004.887 .0257465
1005.484 .0257427
1006.080 .0257358
1006.677 .0257264
1007.273 .0257161
1007.868 .0257050
1008.464 .0256948
1009.059 .0256856
1009.654 .0256782
1010.249 .0256714
1010.843 .0256660
1011.437 .0256606
1012.031 .0256549
1012.625 .0256479
1013.218 .0256382
1013.811 .0256272
1014.404 .0256159
1014.997 .0256046
1015.589 .0255941
1016.181 .0255858
1016.773 .0255796
1017.365 .0255746
1017.956 .0255722
1018.547 .0255700
1019.138 .0255682
1019.728 .0255667
1020.319 .0255642
1020.909 .0255608
1021.499 .0255573
1022.088 .0255528
1022.678 .0255469
1023.267 .0255410
1023.856 .0255333
1024.445 .0255228
1025.033 .0255105
1025.621 .0254962
1026.209 .0254793
1026.797 .0254606
1027.385 .0254403
1027.972 .0254181
1028.560 .0253957
1029.147 .0253724
1029.734 .0253482
1030.320 .0253253
1030.907 .0253038
1031.493 .0252837
1032.079 .0252652
1032.665 .0252498
1033.250 .0252366
1033.836 .0252265
1034.421 .0252191
1035.006 .0252135
1035.591 .0252095
1036.176 .0252066
1036.761 .0252037
1037.345 .0252010
1037.929 .0251986
1038.514 .0251960
1039.097 .0251924
1039.681 .0251881
1040.265 .0251822
1040.848 .0251742
1041.432 .0251638
1042.015 .0251511
1042.598 .0251353
1043.181 .0251171
1043.764 .0250955
1044.346 .0250726
1044.929 .0250504
1045.511 .0250294
1046.094 .0250105
1046.676 .0249945
1047.258 .0249816
1047.840 .0249721
1048.422 .0249656
1049.003 .0249612
1049.585 .0249570
1050.166 .0249532
1050.748 .0249482
1051.329 .0249421
1051.910 .0249350
1052.491 .0249271
1053.072 .0249184
1053.653 .0249088
1054.234 .0248958
1054.815 .0248784
1055.396 .0248589
1055.976 .0248370
1056.557 .0248127
1057.138 .0247879
1057.718 .0247630
1058.298 .0247393
1058.879 .0247175
1059.459 .0246975
1060.039 .0246776
1060.620 .0246578
1061.200 .0246378
1061.780 .0246157
1062.360 .0245938
1062.940 .0245737
1063.520 .0245566
1064.101 .0245451
1064.681 .0245401
1065.261 .0245379
1065.841 .0245371
1066.421 .0245370
1067.001 .0245343
1067.581 .0245254
1068.161 .0245091
1068.741 .0244858
1069.321 .0244581
1069.901 .0244301
1070.482 .0244032
1071.062 .0243802
1071.642 .0243658
1072.222 .0243576
1072.803 .0243525
1073.383 .0243487
1073.963 .0243449
1074.544 .0243393
1075.124 .0243308
1075.705 .0243195
1076.286 .0243060
1076.866 .0242941
1077.447 .0242844
1078.028 .0242769
1078.609 .0242744
1079.190 .0242763
1079.771 .0242797
1080.352 .0242828
1080.934 .0242859
1081.515 .0242858
1082.097 .0242841
1082.679 .0242806
1083.260 .0242762
1083.842 .0242708
1084.424 .0242662
1085.007 .0242627
1085.589 .0242596
1086.172 .0242574
1086.754 .0242528
1087.337 .0242456
1087.920 .0242379
1088.503 .0242281
1089.087 .0242157
1089.670 .0242017
1090.254 .0241893
1090.838 .0241755
1091.422 .0241630
1092.006 .0241499
1092.590 .0241397
1093.175 .0241330
1093.760 .0241316
1094.345 .0241345
1094.930 .0241413
1095.516 .0241551
1096.102 .0241747
1096.688 .0241964
1097.274 .0242217
1097.860 .0242477
1098.447 .0242746
1099.034 .0242987
1099.622 .0243196
1100.209 .0243340
1100.797 .0243427
1101.385 .0243454
1101.973 .0243432
1102.562 .0243343
1103.151 .0243235
1103.740 .0243101
1104.330 .0242955
1104.920 .0242809
1105.510 .0242665
1106.101 .0242537
1106.691 .0242443
1107.283 .0242369
1107.874 .0242317
1108.466 .0242280
1109.058 .0242311
1109.651 .0242387
1110.244 .0242522
1110.837 .0242730
1111.431 .0242998
1112.025 .0243305
1112.620 .0243656
1113.215 .0244033
1113.810 .0244433
1114.406 .0244848
1115.002 .0245258
1115.599 .0245618
1116.196 .0245931
1116.793 .0246193
1117.391 .0246382
1117.989 .0246525
1118.588 .0246589
1119.187 .0246603
1119.787 .0246570
1120.387 .0246528
1120.988 .0246467
1121.589 .0246404
1122.190 .0246401
1122.793 .0246451
1123.395 .0246512
1123.998 .0246616
1124.602 .0246743
1125.206 .0246948
1125.811 .0247194
1126.416 .0247489
1127.022 .0247815
1127.628 .0248220
1128.235 .0248639
1128.843 .0249067
1129.451 .0249451
1130.059 .0249839
1130.669 .0250190
1131.278 .0250529
1131.889 .0250875
1132.500 .0251199
1133.112 .0251552
1133.724 .0251969
1134.337 .0252373
1134.950 .0252770
1135.564 .0253077
1136.179 .0253336
1136.795 .0253519
1137.411 .0253683
1138.028 .0253839
1138.645 .0254107
1139.263 .0254588
1139.882 .0255158
1140.502 .0255833
1141.122 .0256508
1141.743 .0257355
1142.365 .0258431
1142.987 .0258557
1143.611 .0259515
1144.235 .0257374
1144.859 .0263192
1145.485 .0269545
