Measurement Sequence started on: 10-20-44-796
Integration time: 35
Scans to Average: 2 
>>>>>Begin Spectral Data<<<<<
432.953 .0468199
433.882 .0388041
434.810 .0411729
435.737 .0410667
436.662 .0396607
437.586 .0406234
438.509 .0404253
439.431 .0404825
440.351 .0404598
441.269 .0404363
442.187 .0404198
443.103 .0403607
444.018 .0402647
444.932 .0401636
445.844 .0400495
446.756 .0399239
447.666 .0397777
448.575 .0396229
449.482 .0394599
450.388 .0392977
451.294 .0391398
452.198 .0390023
453.100 .0388876
454.002 .0387934
454.902 .0387168
455.801 .0386661
456.699 .0386350
457.596 .0386173
458.492 .0386034
459.387 .0385897
460.280 .0385790
461.172 .0385672
462.064 .0385571
462.954 .0385444
463.843 .0385320
464.730 .0385230
465.617 .0385127
466.503 .0384987
467.387 .0384800
468.271 .0384528
469.153 .0384170
470.035 .0383686
470.915 .0383035
471.794 .0382201
472.673 .0381286
473.550 .0380321
474.426 .0379398
475.301 .0378566
476.175 .0377859
477.048 .0377239
477.920 .0376698
478.791 .0376179
479.661 .0375623
480.530 .0375051
481.398 .0374421
482.266 .0373768
483.132 .0373159
483.997 .0372618
484.861 .0372213
485.724 .0372023
486.587 .0372049
487.448 .0372208
488.308 .0372437
489.168 .0372695
490.026 .0372910
490.884 .0373050
491.741 .0373098
492.597 .0373085
493.452 .0373056
494.306 .0373051
495.159 .0373054
496.011 .0373108
496.862 .0373191
497.713 .0373220
498.562 .0373152
499.411 .0372956
500.259 .0372577
501.106 .0372010
501.952 .0371278
502.798 .0370446
503.642 .0369502
504.486 .0368489
505.329 .0367450
506.171 .0366433
507.012 .0365431
507.852 .0364377
508.692 .0363283
509.531 .0362165
510.369 .0361002
511.206 .0359775
512.043 .0358552
512.878 .0357334
513.713 .0356128
514.547 .0354933
515.381 .0353715
516.213 .0352517
517.045 .0351301
517.876 .0350068
518.706 .0348792
519.536 .0347511
520.365 .0346185
521.193 .0344756
522.020 .0343327
522.847 .0341853
523.673 .0340309
524.498 .0338719
525.323 .0337042
526.146 .0335350
526.969 .0333651
527.792 .0331951
528.614 .0330238
529.435 .0328672
530.255 .0327176
531.075 .0325712
531.894 .0324259
532.712 .0322864
533.530 .0321417
534.347 .0320000
535.163 .0318553
535.979 .0317146
536.794 .0315816
537.608 .0314624
538.422 .0313570
539.235 .0312792
540.048 .0312152
540.860 .0311671
541.671 .0311256
542.481 .0310984
543.292 .0310652
544.101 .0310347
544.910 .0310095
545.718 .0309968
546.526 .0309919
547.333 .0309972
548.139 .0310048
548.945 .0310294
549.750 .0310589
550.555 .0310921
551.359 .0311252
552.162 .0311610
552.965 .0311961
553.768 .0312285
554.569 .0312614
555.371 .0312962
556.171 .0313316
556.972 .0313765
557.771 .0314174
558.570 .0314593
559.369 .0315026
560.167 .0315461
560.964 .0315919
561.761 .0316402
562.558 .0316899
563.354 .0317394
564.149 .0317868
564.944 .0318340
565.738 .0318768
566.532 .0319129
567.325 .0319445
568.118 .0319692
568.910 .0319935
569.702 .0320173
570.494 .0320381
571.285 .0320635
572.075 .0320923
572.865 .0321224
573.654 .0321507
574.443 .0321767
575.232 .0322031
576.020 .0322258
576.807 .0322497
577.594 .0322730
578.381 .0322979
579.167 .0323264
579.952 .0323600
580.738 .0323994
581.522 .0324444
582.307 .0324921
583.091 .0325423
583.874 .0325934
584.657 .0326420
585.440 .0326857
586.222 .0327232
587.004 .0327546
587.785 .0327812
588.566 .0328021
589.346 .0328196
590.126 .0328337
590.906 .0328446
591.685 .0328523
592.464 .0328564
593.242 .0328568
594.020 .0328539
594.797 .0328500
595.575 .0328445
596.351 .0328377
597.128 .0328301
597.904 .0328231
598.679 .0328172
599.454 .0328114
600.229 .0328061
601.004 .0327999
601.778 .0327925
602.551 .0327833
603.325 .0327712
604.097 .0327577
604.870 .0327422
605.642 .0327256
606.414 .0327085
607.185 .0326896
607.956 .0326698
608.727 .0326492
609.497 .0326274
610.267 .0326047
611.037 .0325809
611.806 .0325564
612.575 .0325309
613.344 .0325050
614.112 .0324794
614.880 .0324536
615.647 .0324281
616.414 .0324027
617.181 .0323769
617.948 .0323512
618.714 .0323250
619.480 .0322986
620.245 .0322726
621.011 .0322467
621.775 .0322206
622.540 .0321940
623.304 .0321673
624.068 .0321408
624.832 .0321140
625.595 .0320879
626.358 .0320630
627.120 .0320389
627.883 .0320156
628.645 .0319928
629.406 .0319704
630.168 .0319477
630.929 .0319240
631.689 .0318992
632.450 .0318727
633.210 .0318449
633.970 .0318163
634.729 .0317872
635.489 .0317585
636.248 .0317293
637.006 .0316995
637.765 .0316682
638.523 .0316351
639.280 .0315990
640.038 .0315601
640.795 .0315198
641.552 .0314787
642.309 .0314378
643.065 .0313985
643.821 .0313614
644.577 .0313261
645.332 .0312925
646.088 .0312596
646.843 .0312260
647.597 .0311917
648.352 .0311559
649.106 .0311192
649.860 .0310828
650.613 .0310474
651.367 .0310139
652.120 .0309823
652.872 .0309531
653.625 .0309251
654.377 .0308985
655.129 .0308724
655.881 .0308460
656.632 .0308196
657.384 .0307925
658.135 .0307652
658.885 .0307378
659.636 .0307101
660.386 .0306830
661.136 .0306571
661.885 .0306327
662.635 .0306093
663.384 .0305877
664.133 .0305675
664.881 .0305486
665.630 .0305311
666.378 .0305142
667.126 .0304975
667.874 .0304818
668.621 .0304668
669.368 .0304518
670.115 .0304378
670.862 .0304247
671.608 .0304128
672.354 .0304023
673.100 .0303923
673.846 .0303827
674.591 .0303728
675.337 .0303624
676.082 .0303509
676.826 .0303381
677.571 .0303249
678.315 .0303111
679.059 .0302976
679.803 .0302844
680.547 .0302714
681.290 .0302585
682.033 .0302454
682.776 .0302320
683.518 .0302180
684.261 .0302026
685.003 .0301865
685.745 .0301699
686.487 .0301535
687.228 .0301377
687.969 .0301227
688.710 .0301084
689.451 .0300947
690.192 .0300814
690.932 .0300670
691.672 .0300516
692.412 .0300352
693.152 .0300174
693.891 .0299985
694.630 .0299795
695.369 .0299610
696.108 .0299431
696.846 .0299265
697.585 .0299106
698.323 .0298951
699.061 .0298794
699.798 .0298624
700.536 .0298446
701.273 .0298258
702.010 .0298070
702.746 .0297874
703.483 .0297688
704.219 .0297515
704.955 .0297352
705.691 .0297192
706.427 .0297033
707.162 .0296866
707.897 .0296686
708.632 .0296489
709.367 .0296277
710.101 .0296047
710.835 .0295812
711.569 .0295570
712.303 .0295329
713.037 .0295087
713.770 .0294846
714.503 .0294603
715.236 .0294360
715.969 .0294113
716.702 .0293864
717.434 .0293616
718.166 .0293375
718.898 .0293137
719.629 .0292907
720.361 .0292678
721.092 .0292451
721.823 .0292220
722.554 .0291979
723.284 .0291727
724.014 .0291461
724.744 .0291185
725.474 .0290897
726.204 .0290598
726.933 .0290290
727.662 .0289978
728.391 .0289662
729.120 .0289340
729.849 .0289016
730.577 .0288699
731.305 .0288390
732.033 .0288090
732.760 .0287801
733.488 .0287526
734.215 .0287264
734.942 .0287011
735.669 .0286760
736.395 .0286517
737.122 .0286274
737.848 .0286030
738.573 .0285788
739.299 .0285546
740.024 .0285304
740.750 .0285058
741.474 .0284814
742.199 .0284566
742.924 .0284313
743.648 .0284058
744.372 .0283800
745.096 .0283550
745.819 .0283304
746.543 .0283067
747.266 .0282847
747.989 .0282647
748.711 .0282461
749.434 .0282295
750.156 .0282149
750.878 .0282023
751.599 .0281916
752.321 .0281825
753.042 .0281754
753.763 .0281695
754.484 .0281640
755.205 .0281580
755.925 .0281513
756.645 .0281433
757.365 .0281336
758.085 .0281227
758.804 .0281107
759.523 .0280979
760.242 .0280843
760.961 .0280704
761.679 .0280562
762.397 .0280416
763.115 .0280262
763.833 .0280098
764.551 .0279926
765.268 .0279741
765.985 .0279549
766.702 .0279360
767.418 .0279176
768.134 .0279002
768.850 .0278842
769.566 .0278698
770.282 .0278569
770.997 .0278454
771.712 .0278350
772.427 .0278249
773.142 .0278146
773.856 .0278036
774.570 .0277914
775.284 .0277785
775.998 .0277650
776.711 .0277518
777.424 .0277395
778.137 .0277284
778.849 .0277186
779.562 .0277101
780.274 .0277025
780.986 .0276958
781.697 .0276891
782.409 .0276824
783.120 .0276759
783.831 .0276698
784.541 .0276648
785.252 .0276616
785.962 .0276604
786.671 .0276614
787.381 .0276641
788.090 .0276682
788.799 .0276725
789.508 .0276761
790.217 .0276785
790.925 .0276792
791.633 .0276779
792.341 .0276748
793.048 .0276703
793.755 .0276643
794.462 .0276574
795.169 .0276497
795.875 .0276417
796.581 .0276338
797.287 .0276263
797.993 .0276191
798.698 .0276127
799.403 .0276070
800.108 .0276014
800.812 .0275963
801.517 .0275917
802.221 .0275872
802.924 .0275832
803.628 .0275799
804.331 .0275779
805.034 .0275773
805.736 .0275777
806.439 .0275787
807.141 .0275801
807.843 .0275809
808.544 .0275801
809.245 .0275771
809.946 .0275717
810.647 .0275640
811.347 .0275549
812.047 .0275447
812.747 .0275337
813.447 .0275230
814.146 .0275122
814.845 .0275012
815.543 .0274901
816.242 .0274787
816.940 .0274664
817.638 .0274544
818.335 .0274422
819.032 .0274303
819.729 .0274193
820.426 .0274100
821.122 .0274017
821.818 .0273944
822.514 .0273874
823.209 .0273803
823.905 .0273727
824.599 .0273642
825.294 .0273541
825.988 .0273430
826.682 .0273311
827.376 .0273183
828.069 .0273048
828.762 .0272911
829.455 .0272770
830.147 .0272629
830.840 .0272486
831.531 .0272342
832.223 .0272201
832.914 .0272062
833.605 .0271925
834.296 .0271787
834.986 .0271651
835.676 .0271516
836.366 .0271383
837.055 .0271258
837.744 .0271135
838.433 .0271020
839.121 .0270913
839.809 .0270807
840.497 .0270705
841.185 .0270604
841.872 .0270495
842.559 .0270375
843.245 .0270241
843.932 .0270091
844.617 .0269925
845.303 .0269750
845.988 .0269566
846.673 .0269377
847.358 .0269190
848.042 .0269004
848.726 .0268818
849.410 .0268635
850.093 .0268450
850.776 .0268261
851.459 .0268064
852.141 .0267863
852.823 .0267655
853.505 .0267448
854.186 .0267243
854.867 .0267042
855.548 .0266845
856.228 .0266657
856.908 .0266473
857.588 .0266295
858.267 .0266117
858.946 .0265938
859.625 .0265757
860.303 .0265577
860.981 .0265399
861.659 .0265226
862.336 .0265058
863.013 .0264899
863.690 .0264743
864.366 .0264586
865.042 .0264428
865.718 .0264267
866.393 .0264099
867.068 .0263924
867.743 .0263743
868.417 .0263556
869.091 .0263371
869.765 .0263189
870.438 .0263012
871.111 .0262838
871.783 .0262667
872.456 .0262490
873.127 .0262305
873.799 .0262112
874.470 .0261908
875.141 .0261695
875.811 .0261478
876.481 .0261256
877.151 .0261040
877.820 .0260832
878.489 .0260634
879.158 .0260450
879.826 .0260280
880.494 .0260122
881.162 .0259970
881.829 .0259821
882.496 .0259674
883.163 .0259530
883.829 .0259390
884.495 .0259249
885.160 .0259114
885.825 .0258991
886.490 .0258880
887.154 .0258779
887.818 .0258689
888.482 .0258607
889.145 .0258525
889.808 .0258440
890.471 .0258350
891.133 .0258254
891.795 .0258149
892.456 .0258044
893.117 .0257937
893.778 .0257836
894.439 .0257741
895.099 .0257650
895.758 .0257565
896.417 .0257487
897.076 .0257408
897.735 .0257324
898.393 .0257243
899.051 .0257165
899.708 .0257084
900.365 .0257007
901.022 .0256932
901.678 .0256865
902.334 .0256800
902.990 .0256739
903.645 .0256675
904.300 .0256614
904.954 .0256553
905.608 .0256480
906.262 .0256405
906.915 .0256327
907.568 .0256242
908.221 .0256153
908.873 .0256062
909.525 .0255969
910.176 .0255873
910.828 .0255774
911.478 .0255672
912.129 .0255565
912.778 .0255451
913.428 .0255327
914.077 .0255197
914.726 .0255059
915.375 .0254914
916.023 .0254762
916.670 .0254615
917.318 .0254472
917.964 .0254338
918.611 .0254212
919.257 .0254094
919.903 .0253989
920.548 .0253886
921.193 .0253787
921.838 .0253700
922.482 .0253623
923.126 .0253558
923.770 .0253505
924.413 .0253466
925.056 .0253435
925.698 .0253410
926.340 .0253388
926.982 .0253368
927.623 .0253343
928.264 .0253315
928.904 .0253279
929.544 .0253245
930.184 .0253215
930.823 .0253181
931.462 .0253145
932.101 .0253108
932.739 .0253065
933.377 .0253008
934.014 .0252941
934.651 .0252871
935.288 .0252797
935.924 .0252731
936.560 .0252672
937.196 .0252623
937.831 .0252590
938.466 .0252568
939.100 .0252552
939.734 .0252537
940.368 .0252516
941.001 .0252479
941.634 .0252435
942.266 .0252379
942.899 .0252315
943.530 .0252242
944.162 .0252171
944.793 .0252097
945.423 .0252018
946.053 .0251931
946.683 .0251833
947.313 .0251727
947.942 .0251613
948.571 .0251480
949.199 .0251341
949.827 .0251197
950.455 .0251054
951.082 .0250911
951.709 .0250776
952.335 .0250646
952.961 .0250524
953.587 .0250409
954.212 .0250303
954.837 .0250207
955.462 .0250120
956.086 .0250040
956.710 .0249969
957.334 .0249906
957.957 .0249849
958.579 .0249790
959.202 .0249735
959.824 .0249676
960.445 .0249614
961.067 .0249550
961.688 .0249492
962.308 .0249444
962.928 .0249405
963.548 .0249378
964.168 .0249360
964.787 .0249344
965.406 .0249330
966.024 .0249315
966.642 .0249291
967.260 .0249260
967.877 .0249220
968.494 .0249173
969.110 .0249128
969.727 .0249084
970.342 .0249046
970.958 .0249017
971.573 .0249000
972.188 .0248992
972.802 .0248989
973.416 .0248998
974.030 .0249003
974.643 .0249008
975.256 .0249008
975.869 .0248997
976.481 .0248979
977.093 .0248963
977.705 .0248952
978.316 .0248953
978.927 .0248966
979.538 .0248987
980.148 .0249011
980.758 .0249037
981.367 .0249056
981.977 .0249060
982.586 .0249050
983.194 .0249027
983.802 .0248991
984.410 .0248953
985.018 .0248915
985.625 .0248888
986.232 .0248869
986.838 .0248860
987.445 .0248857
988.050 .0248857
988.656 .0248855
989.261 .0248849
989.866 .0248836
990.471 .0248819
991.075 .0248795
991.679 .0248762
992.282 .0248729
992.886 .0248695
993.489 .0248659
994.091 .0248624
994.694 .0248594
995.296 .0248566
995.897 .0248537
996.499 .0248511
997.100 .0248481
997.701 .0248453
998.301 .0248425
998.901 .0248399
999.501 .0248377
1000.101 .0248364
1000.700 .0248359
1001.299 .0248359
1001.898 .0248377
1002.496 .0248398
1003.094 .0248416
1003.692 .0248432
1004.289 .0248435
1004.887 .0248428
1005.484 .0248408
1006.080 .0248382
1006.677 .0248347
1007.273 .0248311
1007.868 .0248270
1008.464 .0248228
1009.059 .0248186
1009.654 .0248143
1010.249 .0248095
1010.843 .0248037
1011.437 .0247969
1012.031 .0247884
1012.625 .0247794
1013.218 .0247699
1013.811 .0247608
1014.404 .0247532
1014.997 .0247470
1015.589 .0247427
1016.181 .0247399
1016.773 .0247384
1017.365 .0247380
1017.956 .0247375
1018.547 .0247363
1019.138 .0247342
1019.728 .0247316
1020.319 .0247287
1020.909 .0247262
1021.499 .0247239
1022.088 .0247226
1022.678 .0247213
1023.267 .0247198
1023.856 .0247173
1024.445 .0247137
1025.033 .0247088
1025.621 .0247018
1026.209 .0246930
1026.797 .0246826
1027.385 .0246702
1027.972 .0246572
1028.560 .0246438
1029.147 .0246300
1029.734 .0246161
1030.320 .0246022
1030.907 .0245885
1031.493 .0245758
1032.079 .0245643
1032.665 .0245548
1033.250 .0245468
1033.836 .0245410
1034.421 .0245361
1035.006 .0245316
1035.591 .0245278
1036.176 .0245232
1036.761 .0245176
1037.345 .0245105
1037.929 .0245009
1038.514 .0244893
1039.097 .0244765
1039.681 .0244627
1040.265 .0244481
1040.848 .0244336
1041.432 .0244190
1042.015 .0244034
1042.598 .0243870
1043.181 .0243698
1043.764 .0243514
1044.346 .0243327
1044.929 .0243133
1045.511 .0242938
1046.094 .0242763
1046.676 .0242608
1047.258 .0242480
1047.840 .0242385
1048.422 .0242326
1049.003 .0242284
1049.585 .0242255
1050.166 .0242235
1050.748 .0242211
1051.329 .0242181
1051.910 .0242137
1052.491 .0242079
1053.072 .0242022
1053.653 .0241966
1054.234 .0241911
1054.815 .0241861
1055.396 .0241823
1055.976 .0241784
1056.557 .0241745
1057.138 .0241701
1057.718 .0241644
1058.298 .0241569
1058.879 .0241481
1059.459 .0241368
1060.039 .0241241
1060.620 .0241102
1061.200 .0240949
1061.780 .0240798
1062.360 .0240640
1062.940 .0240472
1063.520 .0240299
1064.101 .0240128
1064.681 .0239952
1065.261 .0239766
1065.841 .0239574
1066.421 .0239377
1067.001 .0239181
1067.581 .0238991
1068.161 .0238795
1068.741 .0238615
1069.321 .0238464
1069.901 .0238335
1070.482 .0238220
1071.062 .0238114
1071.642 .0238016
1072.222 .0237923
1072.803 .0237817
1073.383 .0237686
1073.963 .0237525
1074.544 .0237346
1075.124 .0237142
1075.705 .0236914
1076.286 .0236678
1076.866 .0236457
1077.447 .0236253
1078.028 .0236072
1078.609 .0235903
1079.190 .0235760
1079.771 .0235632
1080.352 .0235520
1080.934 .0235424
1081.515 .0235342
1082.097 .0235283
1082.679 .0235241
1083.260 .0235224
1083.842 .0235238
1084.424 .0235272
1085.007 .0235321
1085.589 .0235387
1086.172 .0235463
1086.754 .0235524
1087.337 .0235569
1087.920 .0235608
1088.503 .0235629
1089.087 .0235617
1089.670 .0235563
1090.254 .0235477
1090.838 .0235356
1091.422 .0235213
1092.006 .0235035
1092.590 .0234850
1093.175 .0234670
1093.760 .0234492
1094.345 .0234318
1094.930 .0234179
1095.516 .0234081
1096.102 .0234015
1096.688 .0233988
1097.274 .0234012
1097.860 .0234070
1098.447 .0234144
1099.034 .0234235
1099.622 .0234331
1100.209 .0234405
1100.797 .0234470
1101.385 .0234505
1101.973 .0234536
1102.562 .0234562
1103.151 .0234582
1103.740 .0234583
1104.330 .0234578
1104.920 .0234546
1105.510 .0234489
1106.101 .0234405
1106.691 .0234299
1107.283 .0234177
1107.874 .0234050
1108.466 .0233945
1109.058 .0233859
1109.651 .0233809
1110.244 .0233842
1110.837 .0233912
1111.431 .0234037
1112.025 .0234189
1112.620 .0234379
1113.215 .0234587
1113.810 .0234807
1114.406 .0235031
1115.002 .0235263
1115.599 .0235486
1116.196 .0235687
1116.793 .0235852
1117.391 .0235988
1117.989 .0236096
1118.588 .0236174
1119.187 .0236219
1119.787 .0236262
1120.387 .0236269
1120.988 .0236290
1121.589 .0236298
1122.190 .0236332
1122.793 .0236364
1123.395 .0236386
1123.998 .0236402
1124.602 .0236401
1125.206 .0236402
1125.811 .0236418
1126.416 .0236443
1127.022 .0236503
1127.628 .0236550
1128.235 .0236608
1128.843 .0236649
1129.451 .0236720
1130.059 .0236793
1130.669 .0236906
1131.278 .0237056
1131.889 .0237229
1132.500 .0237440
1133.112 .0237682
1133.724 .0237978
1134.337 .0238334
1134.950 .0238746
1135.564 .0239208
1136.179 .0239704
1136.795 .0240286
1137.411 .0240947
1138.028 .0241691
1138.645 .0242535
1139.263 .0243430
1139.882 .0244357
1140.502 .0245385
1141.122 .0246520
1141.743 .0247789
1142.365 .0249053
1142.987 .0248526
1143.611 .0252314
1144.235 .0254449
1144.859 .0256770
1145.485 .0253749
