Measurement Sequence started on: 10-20-44-796
Integration time: 35
Scans to Average: 2 
>>>>>Begin Spectral Data<<<<<
432.953 .0331118
433.882 .0301225
434.810 .0309036
435.737 .0317078
436.662 .0304727
437.586 .0312617
438.509 .0312676
439.431 .0313644
440.351 .0314492
441.269 .0315312
442.187 .0316659
443.103 .0318312
444.018 .0320256
444.932 .0322561
445.844 .0325356
446.756 .0328239
447.666 .0331167
448.575 .0333623
449.482 .0335896
450.388 .0337800
451.294 .0339368
452.198 .0340656
453.100 .0341634
454.002 .0342474
454.902 .0343312
455.801 .0343969
456.699 .0344649
457.596 .0345263
458.492 .0345741
459.387 .0345953
460.280 .0346038
461.172 .0345908
462.064 .0345642
462.954 .0345207
463.843 .0344732
464.730 .0344136
465.617 .0343538
466.503 .0342890
467.387 .0342186
468.271 .0341481
469.153 .0340816
470.035 .0340145
470.915 .0339624
471.794 .0339116
472.673 .0338711
473.550 .0338382
474.426 .0338139
475.301 .0337860
476.175 .0337587
477.048 .0337253
477.920 .0336860
478.791 .0336396
479.661 .0335973
480.530 .0335590
481.398 .0335294
482.266 .0335114
483.132 .0335059
483.997 .0335061
484.861 .0335095
485.724 .0335051
486.587 .0334951
487.448 .0334714
488.308 .0334370
489.168 .0333934
490.026 .0333490
490.884 .0333055
491.741 .0332702
492.597 .0332433
493.452 .0332271
494.306 .0332129
495.159 .0331964
496.011 .0331762
496.862 .0331500
497.713 .0331115
498.562 .0330594
499.411 .0329987
500.259 .0329338
501.106 .0328631
501.952 .0327952
502.798 .0327298
503.642 .0326675
504.486 .0326061
505.329 .0325422
506.171 .0324722
507.012 .0323976
507.852 .0323191
508.692 .0322319
509.531 .0321419
510.369 .0320505
511.206 .0319560
512.043 .0318610
512.878 .0317722
513.713 .0316835
514.547 .0315892
515.381 .0314871
516.213 .0313731
517.045 .0312419
517.876 .0310991
518.706 .0309421
519.536 .0307758
520.365 .0306028
521.193 .0304204
522.020 .0302252
522.847 .0300270
523.673 .0298273
524.498 .0296240
525.323 .0294178
526.146 .0292205
526.969 .0290314
527.792 .0288526
528.614 .0286943
529.435 .0285652
530.255 .0284606
531.075 .0283760
531.894 .0283051
532.712 .0282435
533.530 .0281848
534.347 .0281248
535.163 .0280505
535.979 .0279749
536.794 .0278982
537.608 .0278139
538.422 .0277278
539.235 .0276569
540.048 .0275982
540.860 .0275470
541.671 .0275048
542.481 .0274680
543.292 .0274292
544.101 .0273962
544.910 .0273606
545.718 .0273321
546.526 .0273169
547.333 .0273130
548.139 .0273171
548.945 .0273387
549.750 .0273700
550.555 .0274094
551.359 .0274556
552.162 .0275033
552.965 .0275483
553.768 .0275905
554.569 .0276356
555.371 .0276821
556.171 .0277353
556.972 .0278003
557.771 .0278728
558.570 .0279611
559.369 .0280572
560.167 .0281623
560.964 .0282770
561.761 .0283997
562.558 .0285274
563.354 .0286535
564.149 .0287792
564.944 .0289045
565.738 .0290227
566.532 .0291355
567.325 .0292432
568.118 .0293450
568.910 .0294403
569.702 .0295334
570.494 .0296227
571.285 .0297075
572.075 .0297897
572.865 .0298666
573.654 .0299357
574.443 .0300005
575.232 .0300578
576.020 .0301099
576.807 .0301590
577.594 .0302061
578.381 .0302483
579.167 .0302921
579.952 .0303367
580.738 .0303765
581.522 .0304153
582.307 .0304526
583.091 .0304856
583.874 .0305165
584.657 .0305442
585.440 .0305674
586.222 .0305865
587.004 .0306036
587.785 .0306164
588.566 .0306269
589.346 .0306375
590.126 .0306455
590.906 .0306511
591.685 .0306568
592.464 .0306611
593.242 .0306654
594.020 .0306710
594.797 .0306752
595.575 .0306786
596.351 .0306816
597.128 .0306825
597.904 .0306799
598.679 .0306751
599.454 .0306682
600.229 .0306588
601.004 .0306482
601.778 .0306370
602.551 .0306247
603.325 .0306122
604.097 .0305990
604.870 .0305846
605.642 .0305697
606.414 .0305539
607.185 .0305371
607.956 .0305211
608.727 .0305061
609.497 .0304912
610.267 .0304782
611.037 .0304673
611.806 .0304578
612.575 .0304495
613.344 .0304426
614.112 .0304362
614.880 .0304302
615.647 .0304248
616.414 .0304198
617.181 .0304148
617.948 .0304111
618.714 .0304067
619.480 .0304024
620.245 .0303974
621.011 .0303906
621.775 .0303820
622.540 .0303714
623.304 .0303580
624.068 .0303421
624.832 .0303247
625.595 .0303057
626.358 .0302857
627.120 .0302656
627.883 .0302444
628.645 .0302226
629.406 .0302003
630.168 .0301771
630.929 .0301528
631.689 .0301282
632.450 .0301028
633.210 .0300768
633.970 .0300512
634.729 .0300249
635.489 .0299994
636.248 .0299749
637.006 .0299511
637.765 .0299276
638.523 .0299038
639.280 .0298794
640.038 .0298544
640.795 .0298304
641.552 .0298066
642.309 .0297837
643.065 .0297630
643.821 .0297432
644.577 .0297245
645.332 .0297065
646.088 .0296888
646.843 .0296710
647.597 .0296530
648.352 .0296341
649.106 .0296152
649.860 .0295971
650.613 .0295795
651.367 .0295634
652.120 .0295482
652.872 .0295334
653.625 .0295183
654.377 .0295030
655.129 .0294878
655.881 .0294717
656.632 .0294559
657.384 .0294401
658.135 .0294249
658.885 .0294108
659.636 .0293964
660.386 .0293826
661.136 .0293690
661.885 .0293549
662.635 .0293404
663.384 .0293251
664.133 .0293092
664.881 .0292920
665.630 .0292739
666.378 .0292553
667.126 .0292369
667.874 .0292181
668.621 .0291995
669.368 .0291811
670.115 .0291634
670.862 .0291457
671.608 .0291283
672.354 .0291122
673.100 .0290968
673.846 .0290818
674.591 .0290671
675.337 .0290527
676.082 .0290396
676.826 .0290282
677.571 .0290184
678.315 .0290099
679.059 .0290024
679.803 .0289946
680.547 .0289857
681.290 .0289758
682.033 .0289640
682.776 .0289494
683.518 .0289329
684.261 .0289154
685.003 .0288969
685.745 .0288784
686.487 .0288607
687.228 .0288432
687.969 .0288253
688.710 .0288060
689.451 .0287835
690.192 .0287587
690.932 .0287314
691.672 .0287021
692.412 .0286712
693.152 .0286401
693.891 .0286099
694.630 .0285812
695.369 .0285544
696.108 .0285290
696.846 .0285039
697.585 .0284794
698.323 .0284551
699.061 .0284310
699.798 .0284070
700.536 .0283842
701.273 .0283629
702.010 .0283438
702.746 .0283266
703.483 .0283113
704.219 .0282973
704.955 .0282845
705.691 .0282726
706.427 .0282604
707.162 .0282487
707.897 .0282376
708.632 .0282272
709.367 .0282170
710.101 .0282069
710.835 .0281966
711.569 .0281856
712.303 .0281744
713.037 .0281620
713.770 .0281483
714.503 .0281344
715.236 .0281199
715.969 .0281051
716.702 .0280899
717.434 .0280746
718.166 .0280585
718.898 .0280421
719.629 .0280244
720.361 .0280055
721.092 .0279856
721.823 .0279647
722.554 .0279433
723.284 .0279221
724.014 .0279007
724.744 .0278795
725.474 .0278590
726.204 .0278388
726.933 .0278186
727.662 .0277984
728.391 .0277786
729.120 .0277592
729.849 .0277404
730.577 .0277217
731.305 .0277036
732.033 .0276869
732.760 .0276709
733.488 .0276555
734.215 .0276408
734.942 .0276266
735.669 .0276119
736.395 .0275962
737.122 .0275798
737.848 .0275620
738.573 .0275440
739.299 .0275252
740.024 .0275066
740.750 .0274887
741.474 .0274722
742.199 .0274569
742.924 .0274435
743.648 .0274314
744.372 .0274197
745.096 .0274082
745.819 .0273968
746.543 .0273857
747.266 .0273749
747.989 .0273652
748.711 .0273575
749.434 .0273516
750.156 .0273485
750.878 .0273475
751.599 .0273488
752.321 .0273521
753.042 .0273567
753.763 .0273617
754.484 .0273667
755.205 .0273715
755.925 .0273753
756.645 .0273775
757.365 .0273787
758.085 .0273783
758.804 .0273760
759.523 .0273723
760.242 .0273668
760.961 .0273599
761.679 .0273514
762.397 .0273409
763.115 .0273284
763.833 .0273135
764.551 .0272962
765.268 .0272767
765.985 .0272551
766.702 .0272331
767.418 .0272105
768.134 .0271885
768.850 .0271676
769.566 .0271482
770.282 .0271297
770.997 .0271117
771.712 .0270933
772.427 .0270747
773.142 .0270549
773.856 .0270346
774.570 .0270139
775.284 .0269938
775.998 .0269755
776.711 .0269592
777.424 .0269446
778.137 .0269321
778.849 .0269204
779.562 .0269093
780.274 .0268978
780.986 .0268861
781.697 .0268736
782.409 .0268616
783.120 .0268504
783.831 .0268405
784.541 .0268326
785.252 .0268275
785.962 .0268236
786.671 .0268207
787.381 .0268176
788.090 .0268135
788.799 .0268072
789.508 .0267988
790.217 .0267876
790.925 .0267738
791.633 .0267580
792.341 .0267405
793.048 .0267219
793.755 .0267031
794.462 .0266841
795.169 .0266658
795.875 .0266477
796.581 .0266299
797.287 .0266121
797.993 .0265948
798.698 .0265789
799.403 .0265635
800.108 .0265488
800.812 .0265351
801.517 .0265225
802.221 .0265109
802.924 .0265000
803.628 .0264900
804.331 .0264809
805.034 .0264720
805.736 .0264626
806.439 .0264526
807.141 .0264428
807.843 .0264329
808.544 .0264221
809.245 .0264102
809.946 .0263969
810.647 .0263818
811.347 .0263652
812.047 .0263468
812.747 .0263273
813.447 .0263067
814.146 .0262857
814.845 .0262649
815.543 .0262454
816.242 .0262283
816.940 .0262139
817.638 .0262025
818.335 .0261935
819.032 .0261858
819.729 .0261788
820.426 .0261719
821.122 .0261652
821.818 .0261577
822.514 .0261491
823.209 .0261395
823.905 .0261295
824.599 .0261188
825.294 .0261079
825.988 .0260967
826.682 .0260850
827.376 .0260720
828.069 .0260567
828.762 .0260391
829.455 .0260194
830.147 .0259973
830.840 .0259731
831.531 .0259476
832.223 .0259213
832.914 .0258946
833.605 .0258693
834.296 .0258457
834.986 .0258244
835.676 .0258057
836.366 .0257891
837.055 .0257744
837.744 .0257616
838.433 .0257496
839.121 .0257383
839.809 .0257274
840.497 .0257170
841.185 .0257067
841.872 .0256968
842.559 .0256879
843.245 .0256796
843.932 .0256726
844.617 .0256663
845.303 .0256601
845.988 .0256533
846.673 .0256456
847.358 .0256371
848.042 .0256279
848.726 .0256175
849.410 .0256067
850.093 .0255961
850.776 .0255861
851.459 .0255763
852.141 .0255666
852.823 .0255565
853.505 .0255461
854.186 .0255346
854.867 .0255221
855.548 .0255085
856.228 .0254956
856.908 .0254835
857.588 .0254729
858.267 .0254647
858.946 .0254580
859.625 .0254524
860.303 .0254476
860.981 .0254424
861.659 .0254358
862.336 .0254278
863.013 .0254186
863.690 .0254079
864.366 .0253965
865.042 .0253848
865.718 .0253730
866.393 .0253616
867.068 .0253503
867.743 .0253380
868.417 .0253244
869.091 .0253095
869.765 .0252923
870.438 .0252739
871.111 .0252546
871.783 .0252349
872.456 .0252150
873.127 .0251963
873.799 .0251790
874.470 .0251630
875.141 .0251493
875.811 .0251379
876.481 .0251285
877.151 .0251214
877.820 .0251153
878.489 .0251103
879.158 .0251060
879.826 .0251018
880.494 .0250971
881.162 .0250917
881.829 .0250855
882.496 .0250776
883.163 .0250697
883.829 .0250620
884.495 .0250548
885.160 .0250484
885.825 .0250429
886.490 .0250381
887.154 .0250336
887.818 .0250298
888.482 .0250257
889.145 .0250221
889.808 .0250187
890.471 .0250153
891.133 .0250127
891.795 .0250107
892.456 .0250101
893.117 .0250104
893.778 .0250116
894.439 .0250126
895.099 .0250131
895.758 .0250127
896.417 .0250108
897.076 .0250081
897.735 .0250041
898.393 .0249996
899.051 .0249944
899.708 .0249886
900.365 .0249823
901.022 .0249761
901.678 .0249698
902.334 .0249631
902.990 .0249562
903.645 .0249489
904.300 .0249418
904.954 .0249351
905.608 .0249297
906.262 .0249261
906.915 .0249246
907.568 .0249244
908.221 .0249253
908.873 .0249269
909.525 .0249282
910.176 .0249287
910.828 .0249281
911.478 .0249267
912.129 .0249243
912.778 .0249207
913.428 .0249173
914.077 .0249143
914.726 .0249127
915.375 .0249116
916.023 .0249118
916.670 .0249121
917.318 .0249118
917.964 .0249097
918.611 .0249054
919.257 .0248986
919.903 .0248892
920.548 .0248772
921.193 .0248638
921.838 .0248496
922.482 .0248358
923.126 .0248227
923.770 .0248119
924.413 .0248021
925.056 .0247936
925.698 .0247850
926.340 .0247764
926.982 .0247671
927.623 .0247574
928.264 .0247465
928.904 .0247352
929.544 .0247240
930.184 .0247128
930.823 .0247018
931.462 .0246926
932.101 .0246841
932.739 .0246767
933.377 .0246697
934.014 .0246626
934.651 .0246547
935.288 .0246463
935.924 .0246369
936.560 .0246265
937.196 .0246157
937.831 .0246044
938.466 .0245925
939.100 .0245818
939.734 .0245719
940.368 .0245634
941.001 .0245563
941.634 .0245508
942.266 .0245457
942.899 .0245409
943.530 .0245359
944.162 .0245295
944.793 .0245216
945.423 .0245109
946.053 .0244982
946.683 .0244838
947.313 .0244686
947.942 .0244528
948.571 .0244367
949.199 .0244210
949.827 .0244044
950.455 .0243866
951.082 .0243684
951.709 .0243491
952.335 .0243291
952.961 .0243085
953.587 .0242878
954.212 .0242674
954.837 .0242479
955.462 .0242297
956.086 .0242136
956.710 .0241992
957.334 .0241859
957.957 .0241733
958.579 .0241616
959.202 .0241506
959.824 .0241392
960.445 .0241284
961.067 .0241184
961.688 .0241084
962.308 .0240989
962.928 .0240901
963.548 .0240826
964.168 .0240757
964.787 .0240695
965.406 .0240639
966.024 .0240588
966.642 .0240537
967.260 .0240490
967.877 .0240450
968.494 .0240413
969.110 .0240378
969.727 .0240335
970.342 .0240290
970.958 .0240235
971.573 .0240169
972.188 .0240092
972.802 .0240004
973.416 .0239906
974.030 .0239790
974.643 .0239669
975.256 .0239547
975.869 .0239421
976.481 .0239293
977.093 .0239176
977.705 .0239064
978.316 .0238958
978.927 .0238858
979.538 .0238756
980.148 .0238656
980.758 .0238556
981.367 .0238454
981.977 .0238360
982.586 .0238275
983.194 .0238212
983.802 .0238165
984.410 .0238143
985.018 .0238137
985.625 .0238146
986.232 .0238168
986.838 .0238189
987.445 .0238198
988.050 .0238188
988.656 .0238163
989.261 .0238124
989.866 .0238075
990.471 .0238028
991.075 .0237988
991.679 .0237959
992.282 .0237942
992.886 .0237937
993.489 .0237943
994.091 .0237957
994.694 .0237970
995.296 .0237973
995.897 .0237967
996.499 .0237955
997.100 .0237946
997.701 .0237944
998.301 .0237956
998.901 .0237986
999.501 .0238039
1000.101 .0238104
1000.700 .0238179
1001.299 .0238257
1001.898 .0238329
1002.496 .0238385
1003.094 .0238418
1003.692 .0238414
1004.289 .0238389
1004.887 .0238348
1005.484 .0238292
1006.080 .0238228
1006.677 .0238164
1007.273 .0238090
1007.868 .0238007
1008.464 .0237913
1009.059 .0237798
1009.654 .0237661
1010.249 .0237515
1010.843 .0237361
1011.437 .0237206
1012.031 .0237064
1012.625 .0236940
1013.218 .0236841
1013.811 .0236772
1014.404 .0236722
1014.997 .0236674
1015.589 .0236637
1016.181 .0236597
1016.773 .0236558
1017.365 .0236521
1017.956 .0236495
1018.547 .0236491
1019.138 .0236520
1019.728 .0236572
1020.319 .0236646
1020.909 .0236737
1021.499 .0236834
1022.088 .0236920
1022.678 .0236991
1023.267 .0237035
1023.856 .0237058
1024.445 .0237062
1025.033 .0237062
1025.621 .0237053
1026.209 .0237056
1026.797 .0237046
1027.385 .0237036
1027.972 .0237026
1028.560 .0236995
1029.147 .0236935
1029.734 .0236868
1030.320 .0236787
1030.907 .0236694
1031.493 .0236599
1032.079 .0236514
1032.665 .0236443
1033.250 .0236402
1033.836 .0236371
1034.421 .0236350
1035.006 .0236340
1035.591 .0236336
1036.176 .0236314
1036.761 .0236297
1037.345 .0236279
1037.929 .0236255
1038.514 .0236240
1039.097 .0236238
1039.681 .0236229
1040.265 .0236219
1040.848 .0236197
1041.432 .0236156
1042.015 .0236090
1042.598 .0235991
1043.181 .0235853
1043.764 .0235696
1044.346 .0235534
1044.929 .0235376
1045.511 .0235231
1046.094 .0235122
1046.676 .0235039
1047.258 .0234973
1047.840 .0234911
1048.422 .0234846
1049.003 .0234767
1049.585 .0234671
1050.166 .0234560
1050.748 .0234432
1051.329 .0234315
1051.910 .0234210
1052.491 .0234134
1053.072 .0234094
1053.653 .0234081
1054.234 .0234088
1054.815 .0234092
1055.396 .0234103
1055.976 .0234098
1056.557 .0234064
1057.138 .0234011
1057.718 .0233938
1058.298 .0233858
1058.879 .0233767
1059.459 .0233690
1060.039 .0233611
1060.620 .0233527
1061.200 .0233424
1061.780 .0233305
1062.360 .0233170
1062.940 .0233031
1063.520 .0232896
1064.101 .0232769
1064.681 .0232673
1065.261 .0232595
1065.841 .0232523
1066.421 .0232474
1067.001 .0232420
1067.581 .0232350
1068.161 .0232242
1068.741 .0232129
1069.321 .0232000
1069.901 .0231901
1070.482 .0231853
1071.062 .0231859
1071.642 .0231926
1072.222 .0232053
1072.803 .0232203
1073.383 .0232359
1073.963 .0232491
1074.544 .0232581
1075.124 .0232610
1075.705 .0232587
1076.286 .0232506
1076.866 .0232410
1077.447 .0232324
1078.028 .0232278
1078.609 .0232251
1079.190 .0232249
1079.771 .0232258
1080.352 .0232270
1080.934 .0232259
1081.515 .0232222
1082.097 .0232167
1082.679 .0232103
1083.260 .0232027
1083.842 .0231978
1084.424 .0231962
1085.007 .0231994
1085.589 .0232074
1086.172 .0232176
1086.754 .0232290
1087.337 .0232402
1087.920 .0232496
1088.503 .0232569
1089.087 .0232620
1089.670 .0232653
1090.254 .0232642
1090.838 .0232609
1091.422 .0232553
1092.006 .0232452
1092.590 .0232318
1093.175 .0232157
1093.760 .0231955
1094.345 .0231711
1094.930 .0231434
1095.516 .0231155
1096.102 .0230909
1096.688 .0230709
1097.274 .0230553
1097.860 .0230424
1098.447 .0230335
1099.034 .0230256
1099.622 .0230179
1100.209 .0230141
1100.797 .0230124
1101.385 .0230142
1101.973 .0230207
1102.562 .0230308
1103.151 .0230454
1103.740 .0230631
1104.330 .0230812
1104.920 .0230938
1105.510 .0230987
1106.101 .0230950
1106.691 .0230790
1107.283 .0230580
1107.874 .0230332
1108.466 .0230078
1109.058 .0229872
1109.651 .0229717
1110.244 .0229590
1110.837 .0229491
1111.431 .0229393
1112.025 .0229242
1112.620 .0229032
1113.215 .0228769
1113.810 .0228436
1114.406 .0228116
1115.002 .0227845
1115.599 .0227630
1116.196 .0227501
1116.793 .0227525
1117.391 .0227639
1117.989 .0227825
1118.588 .0228099
1119.187 .0228407
1119.787 .0228702
1120.387 .0228996
1120.988 .0229282
1121.589 .0229562
1122.190 .0229897
1122.793 .0230262
1123.395 .0230651
1123.998 .0231072
1124.602 .0231555
1125.206 .0232057
1125.811 .0232606
1126.416 .0233201
1127.022 .0233738
1127.628 .0234228
1128.235 .0234720
1128.843 .0235133
1129.451 .0235462
1130.059 .0235749
1130.669 .0236016
1131.278 .0236209
1131.889 .0236354
1132.500 .0236458
1133.112 .0236531
1133.724 .0236628
1134.337 .0236760
1134.950 .0236816
1135.564 .0236897
1136.179 .0237031
1136.795 .0237126
1137.411 .0237262
1138.028 .0237434
1138.645 .0237612
1139.263 .0237820
1139.882 .0238045
1140.502 .0238338
1141.122 .0238720
1141.743 .0239293
1142.365 .0239796
1142.987 .0239318
1143.611 .0241648
1144.235 .0243568
1144.859 .0244345
1145.485 .0239461
