Measurement Sequence started on: 10-20-44-796
Integration time: 35
Scans to Average: 2 
>>>>>Begin Spectral Data<<<<<
432.953 .0430071
433.882 .0462811
434.810 .0435973
435.737 .0435449
436.662 .0442316
437.586 .0429567
438.509 .0426445
439.431 .0422689
440.351 .0419974
441.269 .0417431
442.187 .0414827
443.103 .0412782
444.018 .0410620
444.932 .0408458
445.844 .0406473
446.756 .0404649
447.666 .0403105
448.575 .0401879
449.482 .0401025
450.388 .0400466
451.294 .0400139
452.198 .0400047
453.100 .0400060
454.002 .0400121
454.902 .0400152
455.801 .0400118
456.699 .0400114
457.596 .0400135
458.492 .0400168
459.387 .0400100
460.280 .0400021
461.172 .0399791
462.064 .0399411
462.954 .0398871
463.843 .0398209
464.730 .0397484
465.617 .0396719
466.503 .0395942
467.387 .0395135
468.271 .0394342
469.153 .0393582
470.035 .0392784
470.915 .0392037
471.794 .0391271
472.673 .0390484
473.550 .0389738
474.426 .0389082
475.301 .0388510
476.175 .0388035
477.048 .0387635
477.920 .0387276
478.791 .0386943
479.661 .0386621
480.530 .0386279
481.398 .0385899
482.266 .0385531
483.132 .0385135
483.997 .0384719
484.861 .0384314
485.724 .0383941
486.587 .0383615
487.448 .0383341
488.308 .0383082
489.168 .0382834
490.026 .0382580
490.884 .0382348
491.741 .0382073
492.597 .0381764
493.452 .0381423
494.306 .0381015
495.159 .0380551
496.011 .0380090
496.862 .0379601
497.713 .0379122
498.562 .0378630
499.411 .0378149
500.259 .0377607
501.106 .0377036
501.952 .0376407
502.798 .0375680
503.642 .0374860
504.486 .0373912
505.329 .0372830
506.171 .0371669
507.012 .0370461
507.852 .0369205
508.692 .0367943
509.531 .0366709
510.369 .0365466
511.206 .0364240
512.043 .0363031
512.878 .0361784
513.713 .0360438
514.547 .0359009
515.381 .0357444
516.213 .0355725
517.045 .0353903
517.876 .0351969
518.706 .0350011
519.536 .0348050
520.365 .0346156
521.193 .0344290
522.020 .0342505
522.847 .0340798
523.673 .0339134
524.498 .0337469
525.323 .0335820
526.146 .0334171
526.969 .0332534
527.792 .0330945
528.614 .0329408
529.435 .0327964
530.255 .0326686
531.075 .0325522
531.894 .0324485
532.712 .0323528
533.530 .0322749
534.347 .0322041
535.163 .0321407
535.979 .0320816
536.794 .0320238
537.608 .0319688
538.422 .0319133
539.235 .0318556
540.048 .0317935
540.860 .0317364
541.671 .0316872
542.481 .0316456
543.292 .0316203
544.101 .0316110
544.910 .0316229
545.718 .0316510
546.526 .0316944
547.333 .0317428
548.139 .0317957
548.945 .0318505
549.750 .0318970
550.555 .0319394
551.359 .0319776
552.162 .0320130
552.965 .0320506
553.768 .0320869
554.569 .0321205
555.371 .0321510
556.171 .0321792
556.972 .0321981
557.771 .0322064
558.570 .0322044
559.369 .0321957
560.167 .0321855
560.964 .0321771
561.761 .0321742
562.558 .0321807
563.354 .0321998
564.149 .0322283
564.944 .0322629
565.738 .0323019
566.532 .0323403
567.325 .0323782
568.118 .0324156
568.910 .0324532
569.702 .0324902
570.494 .0325321
571.285 .0325804
572.075 .0326340
572.865 .0326916
573.654 .0327498
574.443 .0328094
575.232 .0328661
576.020 .0329198
576.807 .0329695
577.594 .0330166
578.381 .0330644
579.167 .0331109
579.952 .0331585
580.738 .0332078
581.522 .0332558
582.307 .0333019
583.091 .0333432
583.874 .0333785
584.657 .0334058
585.440 .0334288
586.222 .0334450
587.004 .0334575
587.785 .0334666
588.566 .0334743
589.346 .0334801
590.126 .0334841
590.906 .0334847
591.685 .0334822
592.464 .0334757
593.242 .0334657
594.020 .0334508
594.797 .0334352
595.575 .0334181
596.351 .0334019
597.128 .0333861
597.904 .0333719
598.679 .0333579
599.454 .0333449
600.229 .0333307
601.004 .0333161
601.778 .0332998
602.551 .0332827
603.325 .0332644
604.097 .0332455
604.870 .0332257
605.642 .0332067
606.414 .0331876
607.185 .0331694
607.956 .0331509
608.727 .0331333
609.497 .0331162
610.267 .0330999
611.037 .0330833
611.806 .0330665
612.575 .0330491
613.344 .0330314
614.112 .0330130
614.880 .0329948
615.647 .0329767
616.414 .0329594
617.181 .0329433
617.948 .0329285
618.714 .0329143
619.480 .0329008
620.245 .0328866
621.011 .0328722
621.775 .0328564
622.540 .0328393
623.304 .0328213
624.068 .0328033
624.832 .0327856
625.595 .0327678
626.358 .0327503
627.120 .0327324
627.883 .0327134
628.645 .0326933
629.406 .0326709
630.168 .0326473
630.929 .0326229
631.689 .0325978
632.450 .0325719
633.210 .0325464
633.970 .0325206
634.729 .0324939
635.489 .0324658
636.248 .0324349
637.006 .0324017
637.765 .0323657
638.523 .0323279
639.280 .0322892
640.038 .0322513
640.795 .0322151
641.552 .0321803
642.309 .0321472
643.065 .0321152
643.821 .0320828
644.577 .0320505
645.332 .0320179
646.088 .0319850
646.843 .0319514
647.597 .0319180
648.352 .0318855
649.106 .0318546
649.860 .0318246
650.613 .0317960
651.367 .0317681
652.120 .0317400
652.872 .0317112
653.625 .0316810
654.377 .0316504
655.129 .0316199
655.881 .0315885
656.632 .0315563
657.384 .0315231
658.135 .0314901
658.885 .0314564
659.636 .0314228
660.386 .0313896
661.136 .0313567
661.885 .0313250
662.635 .0312948
663.384 .0312665
664.133 .0312397
664.881 .0312145
665.630 .0311898
666.378 .0311652
667.126 .0311401
667.874 .0311142
668.621 .0310880
669.368 .0310624
670.115 .0310377
670.862 .0310137
671.608 .0309915
672.354 .0309717
673.100 .0309531
673.846 .0309362
674.591 .0309196
675.337 .0309039
676.082 .0308874
676.826 .0308709
677.571 .0308539
678.315 .0308369
679.059 .0308203
679.803 .0308040
680.547 .0307878
681.290 .0307719
682.033 .0307556
682.776 .0307387
683.518 .0307210
684.261 .0307030
685.003 .0306835
685.745 .0306642
686.487 .0306452
687.228 .0306274
687.969 .0306104
688.710 .0305951
689.451 .0305806
690.192 .0305669
690.932 .0305539
691.672 .0305412
692.412 .0305285
693.152 .0305164
693.891 .0305047
694.630 .0304943
695.369 .0304847
696.108 .0304762
696.846 .0304681
697.585 .0304605
698.323 .0304526
699.061 .0304437
699.798 .0304336
700.536 .0304223
701.273 .0304098
702.010 .0303965
702.746 .0303826
703.483 .0303688
704.219 .0303551
704.955 .0303418
705.691 .0303284
706.427 .0303150
707.162 .0303012
707.897 .0302869
708.632 .0302726
709.367 .0302578
710.101 .0302423
710.835 .0302262
711.569 .0302102
712.303 .0301940
713.037 .0301776
713.770 .0301612
714.503 .0301447
715.236 .0301285
715.969 .0301123
716.702 .0300958
717.434 .0300794
718.166 .0300627
718.898 .0300455
719.629 .0300273
720.361 .0300087
721.092 .0299885
721.823 .0299675
722.554 .0299459
723.284 .0299235
724.014 .0298999
724.744 .0298756
725.474 .0298504
726.204 .0298244
726.933 .0297980
727.662 .0297702
728.391 .0297415
729.120 .0297123
729.849 .0296821
730.577 .0296514
731.305 .0296204
732.033 .0295896
732.760 .0295587
733.488 .0295282
734.215 .0294976
734.942 .0294666
735.669 .0294354
736.395 .0294044
737.122 .0293734
737.848 .0293430
738.573 .0293133
739.299 .0292846
740.024 .0292574
740.750 .0292314
741.474 .0292063
742.199 .0291820
742.924 .0291582
743.648 .0291351
744.372 .0291121
745.096 .0290902
745.819 .0290690
746.543 .0290491
747.266 .0290311
747.989 .0290151
748.711 .0290004
749.434 .0289865
750.156 .0289728
750.878 .0289589
751.599 .0289445
752.321 .0289293
753.042 .0289137
753.763 .0288986
754.484 .0288839
755.205 .0288698
755.925 .0288565
756.645 .0288441
757.365 .0288312
758.085 .0288178
758.804 .0288029
759.523 .0287857
760.242 .0287665
760.961 .0287453
761.679 .0287225
762.397 .0286986
763.115 .0286741
763.833 .0286490
764.551 .0286238
765.268 .0285986
765.985 .0285727
766.702 .0285466
767.418 .0285206
768.134 .0284945
768.850 .0284686
769.566 .0284433
770.282 .0284189
770.997 .0283958
771.712 .0283741
772.427 .0283535
773.142 .0283340
773.856 .0283150
774.570 .0282968
775.284 .0282788
775.998 .0282613
776.711 .0282443
777.424 .0282282
778.137 .0282130
778.849 .0281984
779.562 .0281849
780.274 .0281723
780.986 .0281603
781.697 .0281493
782.409 .0281392
783.120 .0281306
783.831 .0281232
784.541 .0281174
785.252 .0281132
785.962 .0281104
786.671 .0281085
787.381 .0281072
788.090 .0281062
788.799 .0281049
789.508 .0281023
790.217 .0280986
790.925 .0280941
791.633 .0280890
792.341 .0280831
793.048 .0280772
793.755 .0280710
794.462 .0280648
795.169 .0280583
795.875 .0280515
796.581 .0280444
797.287 .0280373
797.993 .0280301
798.698 .0280233
799.403 .0280172
800.108 .0280116
800.812 .0280069
801.517 .0280034
802.221 .0280006
802.924 .0279979
803.628 .0279953
804.331 .0279929
805.034 .0279899
805.736 .0279865
806.439 .0279826
807.141 .0279784
807.843 .0279744
808.544 .0279704
809.245 .0279662
809.946 .0279622
810.647 .0279581
811.347 .0279541
812.047 .0279500
812.747 .0279462
813.447 .0279424
814.146 .0279391
814.845 .0279367
815.543 .0279352
816.242 .0279342
816.940 .0279341
817.638 .0279344
818.335 .0279346
819.032 .0279342
819.729 .0279328
820.426 .0279308
821.122 .0279280
821.818 .0279239
822.514 .0279191
823.209 .0279137
823.905 .0279078
824.599 .0279007
825.294 .0278928
825.988 .0278835
826.682 .0278724
827.376 .0278594
828.069 .0278447
828.762 .0278282
829.455 .0278107
830.147 .0277927
830.840 .0277750
831.531 .0277581
832.223 .0277422
832.914 .0277273
833.605 .0277138
834.296 .0277009
834.986 .0276885
835.676 .0276761
836.366 .0276644
837.055 .0276527
837.744 .0276414
838.433 .0276306
839.121 .0276206
839.809 .0276111
840.497 .0276027
841.185 .0275948
841.872 .0275874
842.559 .0275804
843.245 .0275730
843.932 .0275651
844.617 .0275565
845.303 .0275469
845.988 .0275367
846.673 .0275258
847.358 .0275146
848.042 .0275028
848.726 .0274912
849.410 .0274796
850.093 .0274679
850.776 .0274565
851.459 .0274447
852.141 .0274319
852.823 .0274181
853.505 .0274028
854.186 .0273861
854.867 .0273685
855.548 .0273500
856.228 .0273308
856.908 .0273120
857.588 .0272937
858.267 .0272759
858.946 .0272589
859.625 .0272428
860.303 .0272266
860.981 .0272107
861.659 .0271944
862.336 .0271774
863.013 .0271602
863.690 .0271431
864.366 .0271263
865.042 .0271099
865.718 .0270939
866.393 .0270777
867.068 .0270611
867.743 .0270444
868.417 .0270263
869.091 .0270069
869.765 .0269864
870.438 .0269648
871.111 .0269420
871.783 .0269186
872.456 .0268942
873.127 .0268697
873.799 .0268452
874.470 .0268209
875.141 .0267962
875.811 .0267722
876.481 .0267485
877.151 .0267261
877.820 .0267047
878.489 .0266846
879.158 .0266652
879.826 .0266467
880.494 .0266285
881.162 .0266106
881.829 .0265927
882.496 .0265747
883.163 .0265568
883.829 .0265398
884.495 .0265227
885.160 .0265063
885.825 .0264905
886.490 .0264758
887.154 .0264613
887.818 .0264471
888.482 .0264324
889.145 .0264178
889.808 .0264033
890.471 .0263884
891.133 .0263739
891.795 .0263598
892.456 .0263462
893.117 .0263330
893.778 .0263200
894.439 .0263074
895.099 .0262947
895.758 .0262821
896.417 .0262693
897.076 .0262561
897.735 .0262426
898.393 .0262286
899.051 .0262148
899.708 .0262006
900.365 .0261861
901.022 .0261715
901.678 .0261567
902.334 .0261409
902.990 .0261247
903.645 .0261073
904.300 .0260895
904.954 .0260707
905.608 .0260511
906.262 .0260311
906.915 .0260112
907.568 .0259914
908.221 .0259720
908.873 .0259530
909.525 .0259354
910.176 .0259184
910.828 .0259027
911.478 .0258876
912.129 .0258731
912.778 .0258594
913.428 .0258466
914.077 .0258341
914.726 .0258221
915.375 .0258100
916.023 .0257985
916.670 .0257874
917.318 .0257770
917.964 .0257666
918.611 .0257567
919.257 .0257475
919.903 .0257380
920.548 .0257278
921.193 .0257173
921.838 .0257063
922.482 .0256954
923.126 .0256843
923.770 .0256736
924.413 .0256634
925.056 .0256547
925.698 .0256472
926.340 .0256410
926.982 .0256356
927.623 .0256309
928.264 .0256258
928.904 .0256202
929.544 .0256137
930.184 .0256061
930.823 .0255980
931.462 .0255898
932.101 .0255812
932.739 .0255722
933.377 .0255628
934.014 .0255530
934.651 .0255423
935.288 .0255309
935.924 .0255187
936.560 .0255058
937.196 .0254929
937.831 .0254802
938.466 .0254679
939.100 .0254563
939.734 .0254453
940.368 .0254343
941.001 .0254235
941.634 .0254123
942.266 .0254008
942.899 .0253892
943.530 .0253778
944.162 .0253668
944.793 .0253562
945.423 .0253460
946.053 .0253358
946.683 .0253250
947.313 .0253140
947.942 .0253015
948.571 .0252883
949.199 .0252744
949.827 .0252601
950.455 .0252458
951.082 .0252327
951.709 .0252207
952.335 .0252104
952.961 .0252018
953.587 .0251945
954.212 .0251876
954.837 .0251814
955.462 .0251752
956.086 .0251690
956.710 .0251632
957.334 .0251579
957.957 .0251531
958.579 .0251493
959.202 .0251465
959.824 .0251442
960.445 .0251425
961.067 .0251413
961.688 .0251397
962.308 .0251376
962.928 .0251351
963.548 .0251319
964.168 .0251281
964.787 .0251240
965.406 .0251193
966.024 .0251147
966.642 .0251106
967.260 .0251066
967.877 .0251032
968.494 .0251007
969.110 .0250985
969.727 .0250962
970.342 .0250938
970.958 .0250914
971.573 .0250889
972.188 .0250863
972.802 .0250838
973.416 .0250815
974.030 .0250799
974.643 .0250783
975.256 .0250767
975.869 .0250756
976.481 .0250746
977.093 .0250736
977.705 .0250731
978.316 .0250731
978.927 .0250737
979.538 .0250752
980.148 .0250775
980.758 .0250804
981.367 .0250842
981.977 .0250882
982.586 .0250928
983.194 .0250977
983.802 .0251025
984.410 .0251067
985.018 .0251110
985.625 .0251157
986.232 .0251200
986.838 .0251247
987.445 .0251300
988.050 .0251360
988.656 .0251427
989.261 .0251496
989.866 .0251560
990.471 .0251619
991.075 .0251671
991.679 .0251703
992.282 .0251721
992.886 .0251727
993.489 .0251727
994.091 .0251725
994.694 .0251724
995.296 .0251723
995.897 .0251721
996.499 .0251719
997.100 .0251704
997.701 .0251674
998.301 .0251632
998.901 .0251577
999.501 .0251514
1000.101 .0251457
1000.700 .0251407
1001.299 .0251371
1001.898 .0251354
1002.496 .0251350
1003.094 .0251351
1003.692 .0251357
1004.289 .0251354
1004.887 .0251342
1005.484 .0251327
1006.080 .0251308
1006.677 .0251285
1007.273 .0251274
1007.868 .0251272
1008.464 .0251280
1009.059 .0251295
1009.654 .0251319
1010.249 .0251341
1010.843 .0251366
1011.437 .0251392
1012.031 .0251407
1012.625 .0251427
1013.218 .0251447
1013.811 .0251467
1014.404 .0251495
1014.997 .0251530
1015.589 .0251564
1016.181 .0251603
1016.773 .0251646
1017.365 .0251688
1017.956 .0251725
1018.547 .0251757
1019.138 .0251781
1019.728 .0251794
1020.319 .0251796
1020.909 .0251791
1021.499 .0251772
1022.088 .0251758
1022.678 .0251729
1023.267 .0251694
1023.856 .0251648
1024.445 .0251593
1025.033 .0251524
1025.621 .0251444
1026.209 .0251355
1026.797 .0251262
1027.385 .0251164
1027.972 .0251074
1028.560 .0250983
1029.147 .0250901
1029.734 .0250826
1030.320 .0250755
1030.907 .0250676
1031.493 .0250605
1032.079 .0250535
1032.665 .0250481
1033.250 .0250435
1033.836 .0250407
1034.421 .0250394
1035.006 .0250403
1035.591 .0250427
1036.176 .0250455
1036.761 .0250482
1037.345 .0250510
1037.929 .0250519
1038.514 .0250517
1039.097 .0250506
1039.681 .0250497
1040.265 .0250481
1040.848 .0250463
1041.432 .0250436
1042.015 .0250394
1042.598 .0250332
1043.181 .0250250
1043.764 .0250144
1044.346 .0250022
1044.929 .0249887
1045.511 .0249749
1046.094 .0249611
1046.676 .0249484
1047.258 .0249359
1047.840 .0249241
1048.422 .0249119
1049.003 .0248991
1049.585 .0248846
1050.166 .0248696
1050.748 .0248547
1051.329 .0248401
1051.910 .0248274
1052.491 .0248184
1053.072 .0248126
1053.653 .0248107
1054.234 .0248115
1054.815 .0248141
1055.396 .0248161
1055.976 .0248171
1056.557 .0248146
1057.138 .0248094
1057.718 .0248015
1058.298 .0247920
1058.879 .0247811
1059.459 .0247702
1060.039 .0247593
1060.620 .0247478
1061.200 .0247350
1061.780 .0247194
1062.360 .0246994
1062.940 .0246765
1063.520 .0246498
1064.101 .0246207
1064.681 .0245893
1065.261 .0245575
1065.841 .0245258
1066.421 .0244955
1067.001 .0244652
1067.581 .0244359
1068.161 .0244075
1068.741 .0243796
1069.321 .0243522
1069.901 .0243279
1070.482 .0243063
1071.062 .0242875
1071.642 .0242714
1072.222 .0242575
1072.803 .0242430
1073.383 .0242289
1073.963 .0242137
1074.544 .0241982
1075.124 .0241849
1075.705 .0241739
1076.286 .0241663
1076.866 .0241647
1077.447 .0241682
1078.028 .0241752
1078.609 .0241855
1079.190 .0241982
1079.771 .0242092
1080.352 .0242188
1080.934 .0242276
1081.515 .0242352
1082.097 .0242438
1082.679 .0242541
1083.260 .0242653
1083.842 .0242782
1084.424 .0242916
1085.007 .0243024
1085.589 .0243095
1086.172 .0243127
1086.754 .0243103
1087.337 .0243019
1087.920 .0242896
1088.503 .0242731
1089.087 .0242541
1089.670 .0242351
1090.254 .0242160
1090.838 .0241970
1091.422 .0241794
1092.006 .0241623
1092.590 .0241454
1093.175 .0241285
1093.760 .0241114
1094.345 .0240935
1094.930 .0240751
1095.516 .0240578
1096.102 .0240423
1096.688 .0240290
1097.274 .0240205
1097.860 .0240165
1098.447 .0240175
1099.034 .0240212
1099.622 .0240258
1100.209 .0240292
1100.797 .0240292
1101.385 .0240245
1101.973 .0240160
1102.562 .0240033
1103.151 .0239888
1103.740 .0239724
1104.330 .0239550
1104.920 .0239355
1105.510 .0239141
1106.101 .0238881
1106.691 .0238578
1107.283 .0238226
1107.874 .0237827
1108.466 .0237372
1109.058 .0236918
1109.651 .0236470
1110.244 .0236052
1110.837 .0235703
1111.431 .0235426
1112.025 .0235221
1112.620 .0235098
1113.215 .0235071
1113.810 .0235126
1114.406 .0235281
1115.002 .0235537
1115.599 .0235862
1116.196 .0236250
1116.793 .0236682
1117.391 .0237135
1117.989 .0237603
1118.588 .0238085
1119.187 .0238576
1119.787 .0239037
1120.387 .0239518
1120.988 .0239991
1121.589 .0240452
1122.190 .0240871
1122.793 .0241253
1123.395 .0241530
1123.998 .0241722
1124.602 .0241834
1125.206 .0241890
1125.811 .0241916
1126.416 .0241987
1127.022 .0242103
1127.628 .0242259
1128.235 .0242463
1128.843 .0242724
1129.451 .0242958
1130.059 .0243237
1130.669 .0243496
1131.278 .0243760
1131.889 .0244005
1132.500 .0244279
1133.112 .0244574
1133.724 .0244920
1134.337 .0245339
1134.950 .0245776
1135.564 .0246231
1136.179 .0246764
1136.795 .0247310
1137.411 .0247921
1138.028 .0248593
1138.645 .0249322
1139.263 .0250079
1139.882 .0250855
1140.502 .0251750
1141.122 .0252761
1141.743 .0254032
1142.365 .0255495
1142.987 .0254588
1143.611 .0258766
1144.235 .0260651
1144.859 .0265124
1145.485 .0265754
