Measurement Sequence started on: 10-20-44-796
Integration time: 35
Scans to Average: 2 
>>>>>Begin Spectral Data<<<<<
432.953 .0496844
433.882 .0441968
434.810 .0369355
435.737 .0356803
436.662 .0349060
437.586 .0361626
438.509 .0351658
439.431 .0345252
440.351 .0341565
441.269 .0338295
442.187 .0335306
443.103 .0332457
444.018 .0330189
444.932 .0328407
445.844 .0326986
446.756 .0325836
447.666 .0324901
448.575 .0324012
449.482 .0323186
450.388 .0322425
451.294 .0321803
452.198 .0321309
453.100 .0320888
454.002 .0320639
454.902 .0320501
455.801 .0320477
456.699 .0320499
457.596 .0320575
458.492 .0320599
459.387 .0320587
460.280 .0320462
461.172 .0320290
462.064 .0320092
462.954 .0319857
463.843 .0319636
464.730 .0319433
465.617 .0319253
466.503 .0319069
467.387 .0318855
468.271 .0318612
469.153 .0318275
470.035 .0317893
470.915 .0317444
471.794 .0316963
472.673 .0316475
473.550 .0316023
474.426 .0315622
475.301 .0315292
476.175 .0315020
477.048 .0314788
477.920 .0314591
478.791 .0314428
479.661 .0314281
480.530 .0314174
481.398 .0314084
482.266 .0314022
483.132 .0313992
483.997 .0313969
484.861 .0313927
485.724 .0313886
486.587 .0313869
487.448 .0313849
488.308 .0313817
489.168 .0313781
490.026 .0313713
490.884 .0313620
491.741 .0313461
492.597 .0313217
493.452 .0312897
494.306 .0312511
495.159 .0312064
496.011 .0311561
496.862 .0311048
497.713 .0310531
498.562 .0310011
499.411 .0309506
500.259 .0308992
501.106 .0308426
501.952 .0307820
502.798 .0307181
503.642 .0306470
504.486 .0305718
505.329 .0304922
506.171 .0304124
507.012 .0303338
507.852 .0302545
508.692 .0301753
509.531 .0300912
510.369 .0300072
511.206 .0299205
512.043 .0298267
512.878 .0297254
513.713 .0296168
514.547 .0295013
515.381 .0293770
516.213 .0292430
517.045 .0291001
517.876 .0289509
518.706 .0287969
519.536 .0286392
520.365 .0284735
521.193 .0283067
522.020 .0281409
522.847 .0279697
523.673 .0277961
524.498 .0276110
525.323 .0274165
526.146 .0272142
526.969 .0270094
527.792 .0268068
528.614 .0266013
529.435 .0264066
530.255 .0262262
531.075 .0260568
531.894 .0258996
532.712 .0257508
533.530 .0256028
534.347 .0254586
535.163 .0253105
535.979 .0251633
536.794 .0250295
537.608 .0249187
538.422 .0248398
539.235 .0247920
540.048 .0247804
540.860 .0248038
541.671 .0248494
542.481 .0249171
543.292 .0249815
544.101 .0250402
544.910 .0250929
545.718 .0251328
546.526 .0251678
547.333 .0252024
548.139 .0252398
548.945 .0252811
549.750 .0253231
550.555 .0253699
551.359 .0254129
552.162 .0254541
552.965 .0254931
553.768 .0255250
554.569 .0255581
555.371 .0255914
556.171 .0256250
556.972 .0256683
557.771 .0257229
558.570 .0257813
559.369 .0258475
560.167 .0259216
560.964 .0260018
561.761 .0260891
562.558 .0261840
563.354 .0262870
564.149 .0263907
564.944 .0264964
565.738 .0266013
566.532 .0267002
567.325 .0267950
568.118 .0268785
568.910 .0269539
569.702 .0270248
570.494 .0270936
571.285 .0271600
572.075 .0272312
572.865 .0273076
573.654 .0273839
574.443 .0274606
575.232 .0275369
576.020 .0276124
576.807 .0276842
577.594 .0277531
578.381 .0278206
579.167 .0278861
579.952 .0279549
580.738 .0280233
581.522 .0280941
582.307 .0281641
583.091 .0282306
583.874 .0282938
584.657 .0283525
585.440 .0284076
586.222 .0284579
587.004 .0285040
587.785 .0285466
588.566 .0285842
589.346 .0286178
590.126 .0286454
590.906 .0286682
591.685 .0286861
592.464 .0286995
593.242 .0287088
594.020 .0287153
594.797 .0287208
595.575 .0287257
596.351 .0287303
597.128 .0287342
597.904 .0287361
598.679 .0287361
599.454 .0287327
600.229 .0287270
601.004 .0287193
601.778 .0287103
602.551 .0286999
603.325 .0286891
604.097 .0286785
604.870 .0286668
605.642 .0286545
606.414 .0286415
607.185 .0286271
607.956 .0286104
608.727 .0285923
609.497 .0285733
610.267 .0285539
611.037 .0285339
611.806 .0285134
612.575 .0284929
613.344 .0284725
614.112 .0284518
614.880 .0284309
615.647 .0284107
616.414 .0283914
617.181 .0283722
617.948 .0283538
618.714 .0283359
619.480 .0283178
620.245 .0282997
621.011 .0282811
621.775 .0282619
622.540 .0282427
623.304 .0282241
624.068 .0282072
624.832 .0281917
625.595 .0281784
626.358 .0281667
627.120 .0281559
627.883 .0281455
628.645 .0281341
629.406 .0281223
630.168 .0281096
630.929 .0280965
631.689 .0280836
632.450 .0280710
633.210 .0280593
633.970 .0280484
634.729 .0280381
635.489 .0280276
636.248 .0280159
637.006 .0280026
637.765 .0279881
638.523 .0279719
639.280 .0279543
640.038 .0279364
640.795 .0279191
641.552 .0279028
642.309 .0278874
643.065 .0278734
643.821 .0278604
644.577 .0278481
645.332 .0278357
646.088 .0278228
646.843 .0278100
647.597 .0277967
648.352 .0277835
649.106 .0277708
649.860 .0277586
650.613 .0277471
651.367 .0277366
652.120 .0277263
652.872 .0277162
653.625 .0277051
654.377 .0276925
655.129 .0276785
655.881 .0276634
656.632 .0276470
657.384 .0276299
658.135 .0276130
658.885 .0275963
659.636 .0275800
660.386 .0275650
661.136 .0275506
661.885 .0275370
662.635 .0275245
663.384 .0275119
664.133 .0274993
664.881 .0274871
665.630 .0274750
666.378 .0274630
667.126 .0274518
667.874 .0274405
668.621 .0274286
669.368 .0274171
670.115 .0274050
670.862 .0273925
671.608 .0273807
672.354 .0273690
673.100 .0273568
673.846 .0273447
674.591 .0273322
675.337 .0273188
676.082 .0273050
676.826 .0272906
677.571 .0272747
678.315 .0272579
679.059 .0272406
679.803 .0272224
680.547 .0272044
681.290 .0271867
682.033 .0271684
682.776 .0271503
683.518 .0271319
684.261 .0271127
685.003 .0270930
685.745 .0270733
686.487 .0270538
687.228 .0270350
687.969 .0270171
688.710 .0270006
689.451 .0269851
690.192 .0269715
690.932 .0269586
691.672 .0269463
692.412 .0269342
693.152 .0269219
693.891 .0269097
694.630 .0268977
695.369 .0268857
696.108 .0268744
696.846 .0268629
697.585 .0268516
698.323 .0268399
699.061 .0268278
699.798 .0268147
700.536 .0268008
701.273 .0267861
702.010 .0267710
702.746 .0267557
703.483 .0267409
704.219 .0267268
704.955 .0267140
705.691 .0267027
706.427 .0266918
707.162 .0266822
707.897 .0266731
708.632 .0266644
709.367 .0266559
710.101 .0266473
710.835 .0266390
711.569 .0266306
712.303 .0266224
713.037 .0266143
713.770 .0266061
714.503 .0265974
715.236 .0265884
715.969 .0265791
716.702 .0265690
717.434 .0265585
718.166 .0265474
718.898 .0265362
719.629 .0265250
720.361 .0265140
721.092 .0265030
721.823 .0264919
722.554 .0264808
723.284 .0264689
724.014 .0264557
724.744 .0264414
725.474 .0264253
726.204 .0264079
726.933 .0263899
727.662 .0263712
728.391 .0263527
729.120 .0263349
729.849 .0263180
730.577 .0263022
731.305 .0262868
732.033 .0262717
732.760 .0262555
733.488 .0262390
734.215 .0262215
734.942 .0262033
735.669 .0261846
736.395 .0261664
737.122 .0261487
737.848 .0261322
738.573 .0261165
739.299 .0261018
740.024 .0260872
740.750 .0260724
741.474 .0260568
742.199 .0260403
742.924 .0260222
743.648 .0260033
744.372 .0259831
745.096 .0259634
745.819 .0259439
746.543 .0259252
747.266 .0259082
747.989 .0258932
748.711 .0258799
749.434 .0258681
750.156 .0258576
750.878 .0258484
751.599 .0258397
752.321 .0258317
753.042 .0258238
753.763 .0258165
754.484 .0258097
755.205 .0258034
755.925 .0257980
756.645 .0257932
757.365 .0257886
758.085 .0257837
758.804 .0257780
759.523 .0257707
760.242 .0257613
760.961 .0257494
761.679 .0257351
762.397 .0257179
763.115 .0256985
763.833 .0256766
764.551 .0256531
765.268 .0256284
765.985 .0256031
766.702 .0255774
767.418 .0255519
768.134 .0255265
768.850 .0255015
769.566 .0254771
770.282 .0254535
770.997 .0254307
771.712 .0254092
772.427 .0253888
773.142 .0253699
773.856 .0253526
774.570 .0253373
775.284 .0253232
775.998 .0253110
776.711 .0253001
777.424 .0252895
778.137 .0252791
778.849 .0252684
779.562 .0252571
780.274 .0252454
780.986 .0252339
781.697 .0252224
782.409 .0252117
783.120 .0252021
783.831 .0251933
784.541 .0251854
785.252 .0251781
785.962 .0251710
786.671 .0251632
787.381 .0251553
788.090 .0251468
788.799 .0251382
789.508 .0251304
790.217 .0251231
790.925 .0251166
791.633 .0251110
792.341 .0251055
793.048 .0250996
793.755 .0250932
794.462 .0250858
795.169 .0250772
795.875 .0250681
796.581 .0250589
797.287 .0250497
797.993 .0250414
798.698 .0250344
799.403 .0250283
800.108 .0250231
800.812 .0250180
801.517 .0250123
802.221 .0250060
802.924 .0249993
803.628 .0249924
804.331 .0249860
805.034 .0249810
805.736 .0249774
806.439 .0249752
807.141 .0249747
807.843 .0249750
808.544 .0249752
809.245 .0249749
809.946 .0249735
810.647 .0249703
811.347 .0249661
812.047 .0249614
812.747 .0249565
813.447 .0249524
814.146 .0249491
814.845 .0249461
815.543 .0249431
816.242 .0249398
816.940 .0249349
817.638 .0249282
818.335 .0249200
819.032 .0249103
819.729 .0248994
820.426 .0248883
821.122 .0248776
821.818 .0248675
822.514 .0248586
823.209 .0248505
823.905 .0248428
824.599 .0248357
825.294 .0248288
825.988 .0248213
826.682 .0248143
827.376 .0248074
828.069 .0248004
828.762 .0247935
829.455 .0247866
830.147 .0247793
830.840 .0247719
831.531 .0247639
832.223 .0247556
832.914 .0247469
833.605 .0247380
834.296 .0247290
834.986 .0247202
835.676 .0247115
836.366 .0247029
837.055 .0246940
837.744 .0246851
838.433 .0246752
839.121 .0246652
839.809 .0246545
840.497 .0246435
841.185 .0246331
841.872 .0246230
842.559 .0246134
843.245 .0246051
843.932 .0245975
844.617 .0245908
845.303 .0245839
845.988 .0245769
846.673 .0245687
847.358 .0245599
848.042 .0245501
848.726 .0245393
849.410 .0245280
850.093 .0245167
850.776 .0245051
851.459 .0244939
852.141 .0244831
852.823 .0244725
853.505 .0244621
854.186 .0244515
854.867 .0244405
855.548 .0244292
856.228 .0244175
856.908 .0244061
857.588 .0243946
858.267 .0243835
858.946 .0243722
859.625 .0243608
860.303 .0243496
860.981 .0243381
861.659 .0243263
862.336 .0243140
863.013 .0243011
863.690 .0242876
864.366 .0242731
865.042 .0242581
865.718 .0242425
866.393 .0242263
867.068 .0242096
867.743 .0241927
868.417 .0241757
869.091 .0241587
869.765 .0241418
870.438 .0241252
871.111 .0241087
871.783 .0240924
872.456 .0240761
873.127 .0240598
873.799 .0240436
874.470 .0240276
875.141 .0240115
875.811 .0239957
876.481 .0239798
877.151 .0239635
877.820 .0239470
878.489 .0239301
879.158 .0239122
879.826 .0238938
880.494 .0238752
881.162 .0238562
881.829 .0238374
882.496 .0238187
883.163 .0238004
883.829 .0237827
884.495 .0237655
885.160 .0237483
885.825 .0237312
886.490 .0237150
887.154 .0236990
887.818 .0236838
888.482 .0236696
889.145 .0236564
889.808 .0236445
890.471 .0236340
891.133 .0236244
891.795 .0236153
892.456 .0236067
893.117 .0235987
893.778 .0235905
894.439 .0235824
895.099 .0235743
895.758 .0235661
896.417 .0235579
897.076 .0235494
897.735 .0235407
898.393 .0235319
899.051 .0235233
899.708 .0235144
900.365 .0235054
901.022 .0234965
901.678 .0234876
902.334 .0234782
902.990 .0234690
903.645 .0234598
904.300 .0234502
904.954 .0234407
905.608 .0234310
906.262 .0234216
906.915 .0234123
907.568 .0234030
908.221 .0233940
908.873 .0233852
909.525 .0233767
910.176 .0233681
910.828 .0233596
911.478 .0233514
912.129 .0233428
912.778 .0233345
913.428 .0233267
914.077 .0233187
914.726 .0233110
915.375 .0233037
916.023 .0232970
916.670 .0232910
917.318 .0232857
917.964 .0232813
918.611 .0232780
919.257 .0232754
919.903 .0232735
920.548 .0232717
921.193 .0232706
921.838 .0232696
922.482 .0232682
923.126 .0232666
923.770 .0232647
924.413 .0232625
925.056 .0232607
925.698 .0232593
926.340 .0232586
926.982 .0232585
927.623 .0232592
928.264 .0232606
928.904 .0232622
929.544 .0232641
930.184 .0232661
930.823 .0232679
931.462 .0232692
932.101 .0232695
932.739 .0232690
933.377 .0232677
934.014 .0232654
934.651 .0232625
935.288 .0232588
935.924 .0232543
936.560 .0232491
937.196 .0232433
937.831 .0232368
938.466 .0232293
939.100 .0232210
939.734 .0232120
940.368 .0232023
941.001 .0231926
941.634 .0231827
942.266 .0231733
942.899 .0231646
943.530 .0231564
944.162 .0231485
944.793 .0231416
945.423 .0231346
946.053 .0231279
946.683 .0231210
947.313 .0231145
947.942 .0231078
948.571 .0231014
949.199 .0230953
949.827 .0230891
950.455 .0230826
951.082 .0230759
951.709 .0230684
952.335 .0230604
952.961 .0230515
953.587 .0230420
954.212 .0230321
954.837 .0230224
955.462 .0230128
956.086 .0230043
956.710 .0229968
957.334 .0229903
957.957 .0229842
958.579 .0229786
959.202 .0229731
959.824 .0229673
960.445 .0229614
961.067 .0229555
961.688 .0229492
962.308 .0229431
962.928 .0229366
963.548 .0229302
964.168 .0229236
964.787 .0229169
965.406 .0229100
966.024 .0229033
966.642 .0228964
967.260 .0228898
967.877 .0228833
968.494 .0228772
969.110 .0228708
969.727 .0228644
970.342 .0228578
970.958 .0228514
971.573 .0228454
972.188 .0228404
972.802 .0228370
973.416 .0228360
974.030 .0228368
974.643 .0228397
975.256 .0228441
975.869 .0228498
976.481 .0228554
977.093 .0228616
977.705 .0228679
978.316 .0228743
978.927 .0228807
979.538 .0228875
980.148 .0228944
980.758 .0229006
981.367 .0229056
981.977 .0229087
982.586 .0229100
983.194 .0229091
983.802 .0229062
984.410 .0229016
985.018 .0228963
985.625 .0228903
986.232 .0228841
986.838 .0228784
987.445 .0228726
988.050 .0228662
988.656 .0228592
989.261 .0228510
989.866 .0228417
990.471 .0228314
991.075 .0228208
991.679 .0228104
992.282 .0228007
992.886 .0227917
993.489 .0227838
994.091 .0227770
994.694 .0227710
995.296 .0227654
995.897 .0227598
996.499 .0227541
997.100 .0227478
997.701 .0227410
998.301 .0227342
998.901 .0227279
999.501 .0227226
1000.101 .0227181
1000.700 .0227150
1001.299 .0227128
1001.898 .0227109
1002.496 .0227096
1003.094 .0227079
1003.692 .0227056
1004.289 .0227026
1004.887 .0226988
1005.484 .0226942
1006.080 .0226891
1006.677 .0226834
1007.273 .0226772
1007.868 .0226706
1008.464 .0226633
1009.059 .0226553
1009.654 .0226469
1010.249 .0226381
1010.843 .0226292
1011.437 .0226203
1012.031 .0226121
1012.625 .0226049
1013.218 .0225988
1013.811 .0225936
1014.404 .0225897
1014.997 .0225874
1015.589 .0225860
1016.181 .0225854
1016.773 .0225847
1017.365 .0225839
1017.956 .0225825
1018.547 .0225804
1019.138 .0225773
1019.728 .0225735
1020.319 .0225693
1020.909 .0225651
1021.499 .0225604
1022.088 .0225558
1022.678 .0225499
1023.267 .0225431
1023.856 .0225340
1024.445 .0225232
1025.033 .0225100
1025.621 .0224948
1026.209 .0224783
1026.797 .0224615
1027.385 .0224444
1027.972 .0224284
1028.560 .0224134
1029.147 .0223995
1029.734 .0223864
1030.320 .0223734
1030.907 .0223597
1031.493 .0223463
1032.079 .0223329
1032.665 .0223205
1033.250 .0223090
1033.836 .0223000
1034.421 .0222923
1035.006 .0222866
1035.591 .0222818
1036.176 .0222769
1036.761 .0222718
1037.345 .0222657
1037.929 .0222576
1038.514 .0222488
1039.097 .0222393
1039.681 .0222301
1040.265 .0222218
1040.848 .0222154
1041.432 .0222093
1042.015 .0222037
1042.598 .0221981
1043.181 .0221918
1043.764 .0221842
1044.346 .0221760
1044.929 .0221660
1045.511 .0221564
1046.094 .0221467
1046.676 .0221377
1047.258 .0221294
1047.840 .0221223
1048.422 .0221151
1049.003 .0221078
1049.585 .0220993
1050.166 .0220900
1050.748 .0220782
1051.329 .0220651
1051.910 .0220502
1052.491 .0220344
1053.072 .0220173
1053.653 .0220006
1054.234 .0219840
1054.815 .0219678
1055.396 .0219517
1055.976 .0219365
1056.557 .0219209
1057.138 .0219060
1057.718 .0218908
1058.298 .0218764
1058.879 .0218620
1059.459 .0218489
1060.039 .0218366
1060.620 .0218253
1061.200 .0218154
1061.780 .0218067
1062.360 .0217981
1062.940 .0217903
1063.520 .0217822
1064.101 .0217742
1064.681 .0217669
1065.261 .0217598
1065.841 .0217525
1066.421 .0217460
1067.001 .0217400
1067.581 .0217338
1068.161 .0217271
1068.741 .0217213
1069.321 .0217148
1069.901 .0217076
1070.482 .0217004
1071.062 .0216931
1071.642 .0216868
1072.222 .0216801
1072.803 .0216738
1073.383 .0216680
1073.963 .0216630
1074.544 .0216583
1075.124 .0216540
1075.705 .0216508
1076.286 .0216484
1076.866 .0216463
1077.447 .0216449
1078.028 .0216435
1078.609 .0216433
1079.190 .0216440
1079.771 .0216457
1080.352 .0216485
1080.934 .0216518
1081.515 .0216541
1082.097 .0216565
1082.679 .0216572
1083.260 .0216553
1083.842 .0216516
1084.424 .0216468
1085.007 .0216402
1085.589 .0216318
1086.172 .0216238
1086.754 .0216157
1087.337 .0216089
1087.920 .0216038
1088.503 .0215990
1089.087 .0215955
1089.670 .0215931
1090.254 .0215898
1090.838 .0215875
1091.422 .0215877
1092.006 .0215907
1092.590 .0215970
1093.175 .0216091
1093.760 .0216241
1094.345 .0216429
1094.930 .0216652
1095.516 .0216889
1096.102 .0217112
1096.688 .0217322
1097.274 .0217490
1097.860 .0217610
1098.447 .0217696
1099.034 .0217743
1099.622 .0217740
1100.209 .0217723
1100.797 .0217681
1101.385 .0217597
1101.973 .0217502
1102.562 .0217397
1103.151 .0217281
1103.740 .0217176
1104.330 .0217076
1104.920 .0216994
1105.510 .0216956
1106.101 .0216982
1106.691 .0217045
1107.283 .0217147
1107.874 .0217294
1108.466 .0217454
1109.058 .0217610
1109.651 .0217778
1110.244 .0217925
1110.837 .0218072
1111.431 .0218204
1112.025 .0218315
1112.620 .0218401
1113.215 .0218450
1113.810 .0218442
1114.406 .0218366
1115.002 .0218214
1115.599 .0218004
1116.196 .0217712
1116.793 .0217410
1117.391 .0217116
1117.989 .0216855
1118.588 .0216642
1119.187 .0216494
1119.787 .0216412
1120.387 .0216387
1120.988 .0216391
1121.589 .0216427
1122.190 .0216478
1122.793 .0216573
1123.395 .0216710
1123.998 .0216910
1124.602 .0217200
1125.206 .0217579
1125.811 .0218035
1126.416 .0218560
1127.022 .0219089
1127.628 .0219599
1128.235 .0220060
1128.843 .0220468
1129.451 .0220840
1130.059 .0221158
1130.669 .0221461
1131.278 .0221767
1131.889 .0222094
1132.500 .0222438
1133.112 .0222789
1133.724 .0223171
1134.337 .0223550
1134.950 .0223893
1135.564 .0224213
1136.179 .0224456
1136.795 .0224686
1137.411 .0224888
1138.028 .0225075
1138.645 .0225260
1139.263 .0225473
1139.882 .0225723
1140.502 .0226051
1141.122 .0226310
1141.743 .0226586
1142.365 .0226910
1142.987 .0227447
1143.611 .0229118
1144.235 .0225581
1144.859 .0227018
1145.485 .0229883
