Measurement Sequence started on: 10-20-44-796
Integration time: 35
Scans to Average: 2 
>>>>>Begin Spectral Data<<<<<
432.953 .0363230
433.882 .0421205
434.810 .0432238
435.737 .0379602
436.662 .0373325
437.586 .0377537
438.509 .0373076
439.431 .0367380
440.351 .0362181
441.269 .0358712
442.187 .0355421
443.103 .0352572
444.018 .0349862
444.932 .0347709
445.844 .0346160
446.756 .0344822
447.666 .0343851
448.575 .0342819
449.482 .0341863
450.388 .0340940
451.294 .0340129
452.198 .0339632
453.100 .0339523
454.002 .0339862
454.902 .0340532
455.801 .0341341
456.699 .0342282
457.596 .0343054
458.492 .0343576
459.387 .0343784
460.280 .0343807
461.172 .0343645
462.064 .0343388
462.954 .0343119
463.843 .0342956
464.730 .0342768
465.617 .0342581
466.503 .0342338
467.387 .0341922
468.271 .0341383
469.153 .0340740
470.035 .0339977
470.915 .0339158
471.794 .0338320
472.673 .0337548
473.550 .0336863
474.426 .0336310
475.301 .0335786
476.175 .0335297
477.048 .0334869
477.920 .0334447
478.791 .0334017
479.661 .0333663
480.530 .0333402
481.398 .0333183
482.266 .0333012
483.132 .0332841
483.997 .0332647
484.861 .0332429
485.724 .0332140
486.587 .0331779
487.448 .0331317
488.308 .0330742
489.168 .0330081
490.026 .0329377
490.884 .0328654
491.741 .0327915
492.597 .0327208
493.452 .0326483
494.306 .0325792
495.159 .0325101
496.011 .0324410
496.862 .0323751
497.713 .0323116
498.562 .0322474
499.411 .0321821
500.259 .0321232
501.106 .0320698
501.952 .0320263
502.798 .0319979
503.642 .0319818
504.486 .0319795
505.329 .0319862
506.171 .0319916
507.012 .0319901
507.852 .0319800
508.692 .0319526
509.531 .0319061
510.369 .0318453
511.206 .0317709
512.043 .0316898
512.878 .0316041
513.713 .0315222
514.547 .0314379
515.381 .0313559
516.213 .0312679
517.045 .0311708
517.876 .0310617
518.706 .0309419
519.536 .0308144
520.365 .0306874
521.193 .0305582
522.020 .0304285
522.847 .0302971
523.673 .0301679
524.498 .0300311
525.323 .0298838
526.146 .0297340
526.969 .0295830
527.792 .0294253
528.614 .0292678
529.435 .0291068
530.255 .0289575
531.075 .0288101
531.894 .0286591
532.712 .0285015
533.530 .0283344
534.347 .0281615
535.163 .0279807
535.979 .0278145
536.794 .0276664
537.608 .0275406
538.422 .0274511
539.235 .0273980
540.048 .0273725
540.860 .0273677
541.671 .0273785
542.481 .0274056
543.292 .0274360
544.101 .0274615
544.910 .0274901
545.718 .0275385
546.526 .0275980
547.333 .0276654
548.139 .0277383
548.945 .0278219
549.750 .0278981
550.555 .0279608
551.359 .0280061
552.162 .0280424
552.965 .0280736
553.768 .0280955
554.569 .0281165
555.371 .0281513
556.171 .0281926
556.972 .0282382
557.771 .0282903
558.570 .0283478
559.369 .0284027
560.167 .0284595
560.964 .0285232
561.761 .0285930
562.558 .0286728
563.354 .0287627
564.149 .0288576
564.944 .0289581
565.738 .0290558
566.532 .0291460
567.325 .0292278
568.118 .0293022
568.910 .0293682
569.702 .0294298
570.494 .0294991
571.285 .0295708
572.075 .0296460
572.865 .0297244
573.654 .0297980
574.443 .0298665
575.232 .0299269
576.020 .0299800
576.807 .0300273
577.594 .0300719
578.381 .0301169
579.167 .0301627
579.952 .0302118
580.738 .0302633
581.522 .0303179
582.307 .0303739
583.091 .0304261
583.874 .0304735
584.657 .0305161
585.440 .0305565
586.222 .0305940
587.004 .0306299
587.785 .0306637
588.566 .0306978
589.346 .0307328
590.126 .0307661
590.906 .0307983
591.685 .0308291
592.464 .0308580
593.242 .0308859
594.020 .0309116
594.797 .0309340
595.575 .0309545
596.351 .0309728
597.128 .0309881
597.904 .0310004
598.679 .0310100
599.454 .0310159
600.229 .0310193
601.004 .0310197
601.778 .0310165
602.551 .0310090
603.325 .0309989
604.097 .0309850
604.870 .0309685
605.642 .0309499
606.414 .0309284
607.185 .0309065
607.956 .0308848
608.727 .0308619
609.497 .0308404
610.267 .0308196
611.037 .0307998
611.806 .0307808
612.575 .0307635
613.344 .0307468
614.112 .0307317
614.880 .0307177
615.647 .0307051
616.414 .0306939
617.181 .0306851
617.948 .0306765
618.714 .0306683
619.480 .0306603
620.245 .0306508
621.011 .0306394
621.775 .0306268
622.540 .0306122
623.304 .0305968
624.068 .0305812
624.832 .0305661
625.595 .0305513
626.358 .0305376
627.120 .0305237
627.883 .0305097
628.645 .0304944
629.406 .0304783
630.168 .0304605
630.929 .0304427
631.689 .0304252
632.450 .0304090
633.210 .0303935
633.970 .0303797
634.729 .0303667
635.489 .0303538
636.248 .0303397
637.006 .0303243
637.765 .0303060
638.523 .0302853
639.280 .0302628
640.038 .0302396
640.795 .0302160
641.552 .0301940
642.309 .0301733
643.065 .0301538
643.821 .0301360
644.577 .0301187
645.332 .0301012
646.088 .0300843
646.843 .0300673
647.597 .0300500
648.352 .0300334
649.106 .0300186
649.860 .0300048
650.613 .0299927
651.367 .0299823
652.120 .0299718
652.872 .0299616
653.625 .0299515
654.377 .0299404
655.129 .0299285
655.881 .0299152
656.632 .0299001
657.384 .0298834
658.135 .0298652
658.885 .0298458
659.636 .0298257
660.386 .0298058
661.136 .0297866
661.885 .0297687
662.635 .0297531
663.384 .0297393
664.133 .0297278
664.881 .0297187
665.630 .0297111
666.378 .0297043
667.126 .0296976
667.874 .0296901
668.621 .0296818
669.368 .0296728
670.115 .0296628
670.862 .0296517
671.608 .0296405
672.354 .0296289
673.100 .0296170
673.846 .0296043
674.591 .0295911
675.337 .0295769
676.082 .0295626
676.826 .0295479
677.571 .0295333
678.315 .0295192
679.059 .0295062
679.803 .0294944
680.547 .0294839
681.290 .0294747
682.033 .0294660
682.776 .0294574
683.518 .0294488
684.261 .0294393
685.003 .0294292
685.745 .0294184
686.487 .0294070
687.228 .0293946
687.969 .0293807
688.710 .0293648
689.451 .0293469
690.192 .0293270
690.932 .0293052
691.672 .0292819
692.412 .0292579
693.152 .0292339
693.891 .0292107
694.630 .0291896
695.369 .0291709
696.108 .0291549
696.846 .0291408
697.585 .0291276
698.323 .0291148
699.061 .0291026
699.798 .0290897
700.536 .0290767
701.273 .0290641
702.010 .0290519
702.746 .0290396
703.483 .0290279
704.219 .0290163
704.955 .0290047
705.691 .0289927
706.427 .0289791
707.162 .0289636
707.897 .0289471
708.632 .0289295
709.367 .0289115
710.101 .0288935
710.835 .0288757
711.569 .0288570
712.303 .0288384
713.037 .0288196
713.770 .0288002
714.503 .0287809
715.236 .0287616
715.969 .0287424
716.702 .0287235
717.434 .0287051
718.166 .0286871
718.898 .0286698
719.629 .0286526
720.361 .0286338
721.092 .0286139
721.823 .0285930
722.554 .0285710
723.284 .0285487
724.014 .0285266
724.744 .0285045
725.474 .0284825
726.204 .0284613
726.933 .0284399
727.662 .0284177
728.391 .0283955
729.120 .0283718
729.849 .0283472
730.577 .0283219
731.305 .0282962
732.033 .0282706
732.760 .0282460
733.488 .0282220
734.215 .0281985
734.942 .0281759
735.669 .0281540
736.395 .0281321
737.122 .0281103
737.848 .0280880
738.573 .0280646
739.299 .0280401
740.024 .0280155
740.750 .0279894
741.474 .0279633
742.199 .0279372
742.924 .0279118
743.648 .0278874
744.372 .0278649
745.096 .0278448
745.819 .0278271
746.543 .0278117
747.266 .0277979
747.989 .0277851
748.711 .0277742
749.434 .0277642
750.156 .0277550
750.878 .0277466
751.599 .0277395
752.321 .0277323
753.042 .0277259
753.763 .0277196
754.484 .0277131
755.205 .0277060
755.925 .0276982
756.645 .0276890
757.365 .0276780
758.085 .0276654
758.804 .0276512
759.523 .0276346
760.242 .0276157
760.961 .0275943
761.679 .0275708
762.397 .0275457
763.115 .0275202
763.833 .0274942
764.551 .0274690
765.268 .0274453
765.985 .0274228
766.702 .0274009
767.418 .0273794
768.134 .0273577
768.850 .0273347
769.566 .0273109
770.282 .0272863
770.997 .0272610
771.712 .0272366
772.427 .0272136
773.142 .0271923
773.856 .0271733
774.570 .0271564
775.284 .0271411
775.998 .0271266
776.711 .0271129
777.424 .0270988
778.137 .0270849
778.849 .0270707
779.562 .0270568
780.274 .0270434
780.986 .0270310
781.697 .0270194
782.409 .0270094
783.120 .0270010
783.831 .0269935
784.541 .0269869
785.252 .0269813
785.962 .0269761
786.671 .0269711
787.381 .0269660
788.090 .0269605
788.799 .0269548
789.508 .0269486
790.217 .0269414
790.925 .0269340
791.633 .0269268
792.341 .0269190
793.048 .0269113
793.755 .0269033
794.462 .0268946
795.169 .0268858
795.875 .0268771
796.581 .0268681
797.287 .0268591
797.993 .0268494
798.698 .0268392
799.403 .0268286
800.108 .0268181
800.812 .0268077
801.517 .0267977
802.221 .0267884
802.924 .0267794
803.628 .0267706
804.331 .0267624
805.034 .0267546
805.736 .0267474
806.439 .0267398
807.141 .0267311
807.843 .0267217
808.544 .0267114
809.245 .0267001
809.946 .0266885
810.647 .0266759
811.347 .0266627
812.047 .0266491
812.747 .0266354
813.447 .0266217
814.146 .0266087
814.845 .0265970
815.543 .0265862
816.242 .0265767
816.940 .0265685
817.638 .0265610
818.335 .0265550
819.032 .0265499
819.729 .0265447
820.426 .0265392
821.122 .0265332
821.818 .0265262
822.514 .0265181
823.209 .0265092
823.905 .0264998
824.599 .0264896
825.294 .0264788
825.988 .0264667
826.682 .0264540
827.376 .0264403
828.069 .0264257
828.762 .0264092
829.455 .0263912
830.147 .0263712
830.840 .0263498
831.531 .0263274
832.223 .0263046
832.914 .0262826
833.605 .0262616
834.296 .0262423
834.986 .0262253
835.676 .0262095
836.366 .0261953
837.055 .0261816
837.744 .0261680
838.433 .0261534
839.121 .0261382
839.809 .0261226
840.497 .0261067
841.185 .0260915
841.872 .0260768
842.559 .0260631
843.245 .0260508
843.932 .0260394
844.617 .0260286
845.303 .0260186
845.988 .0260087
846.673 .0259983
847.358 .0259875
848.042 .0259764
848.726 .0259648
849.410 .0259529
850.093 .0259403
850.776 .0259272
851.459 .0259127
852.141 .0258973
852.823 .0258809
853.505 .0258636
854.186 .0258453
854.867 .0258261
855.548 .0258059
856.228 .0257845
856.908 .0257620
857.588 .0257388
858.267 .0257146
858.946 .0256893
859.625 .0256631
860.303 .0256360
860.981 .0256097
861.659 .0255843
862.336 .0255603
863.013 .0255380
863.690 .0255177
864.366 .0254985
865.042 .0254808
865.718 .0254643
866.393 .0254490
867.068 .0254343
867.743 .0254207
868.417 .0254076
869.091 .0253953
869.765 .0253836
870.438 .0253732
871.111 .0253630
871.783 .0253531
872.456 .0253419
873.127 .0253299
873.799 .0253164
874.470 .0253017
875.141 .0252858
875.811 .0252691
876.481 .0252511
877.151 .0252324
877.820 .0252128
878.489 .0251938
879.158 .0251742
879.826 .0251550
880.494 .0251358
881.162 .0251177
881.829 .0250999
882.496 .0250822
883.163 .0250652
883.829 .0250489
884.495 .0250325
885.160 .0250163
885.825 .0249999
886.490 .0249845
887.154 .0249694
887.818 .0249553
888.482 .0249417
889.145 .0249299
889.808 .0249188
890.471 .0249084
891.133 .0248986
891.795 .0248894
892.456 .0248795
893.117 .0248698
893.778 .0248600
894.439 .0248500
895.099 .0248398
895.758 .0248302
896.417 .0248205
897.076 .0248114
897.735 .0248022
898.393 .0247928
899.051 .0247835
899.708 .0247741
900.365 .0247628
901.022 .0247513
901.678 .0247395
902.334 .0247269
902.990 .0247136
903.645 .0247006
904.300 .0246873
904.954 .0246746
905.608 .0246625
906.262 .0246512
906.915 .0246408
907.568 .0246320
908.221 .0246234
908.873 .0246153
909.525 .0246079
910.176 .0246004
910.828 .0245922
911.478 .0245839
912.129 .0245742
912.778 .0245634
913.428 .0245523
914.077 .0245414
914.726 .0245305
915.375 .0245199
916.023 .0245102
916.670 .0245008
917.318 .0244918
917.964 .0244825
918.611 .0244725
919.257 .0244623
919.903 .0244520
920.548 .0244410
921.193 .0244304
921.838 .0244210
922.482 .0244127
923.126 .0244053
923.770 .0243994
924.413 .0243939
925.056 .0243892
925.698 .0243850
926.340 .0243813
926.982 .0243779
927.623 .0243753
928.264 .0243728
928.904 .0243707
929.544 .0243690
930.184 .0243667
930.823 .0243635
931.462 .0243604
932.101 .0243565
932.739 .0243525
933.377 .0243481
934.014 .0243442
934.651 .0243409
935.288 .0243379
935.924 .0243345
936.560 .0243310
937.196 .0243273
937.831 .0243230
938.466 .0243175
939.100 .0243118
939.734 .0243052
940.368 .0242987
941.001 .0242924
941.634 .0242860
942.266 .0242796
942.899 .0242730
943.530 .0242650
944.162 .0242560
944.793 .0242452
945.423 .0242327
946.053 .0242187
946.683 .0242036
947.313 .0241872
947.942 .0241707
948.571 .0241540
949.199 .0241377
949.827 .0241213
950.455 .0241048
951.082 .0240878
951.709 .0240707
952.335 .0240530
952.961 .0240350
953.587 .0240171
954.212 .0240002
954.837 .0239841
955.462 .0239695
956.086 .0239557
956.710 .0239434
957.334 .0239318
957.957 .0239205
958.579 .0239089
959.202 .0238974
959.824 .0238855
960.445 .0238734
961.067 .0238619
961.688 .0238508
962.308 .0238411
962.928 .0238340
963.548 .0238279
964.168 .0238235
964.787 .0238202
965.406 .0238182
966.024 .0238166
966.642 .0238163
967.260 .0238166
967.877 .0238176
968.494 .0238197
969.110 .0238220
969.727 .0238243
970.342 .0238266
970.958 .0238286
971.573 .0238301
972.188 .0238309
972.802 .0238313
973.416 .0238305
974.030 .0238293
974.643 .0238275
975.256 .0238247
975.869 .0238203
976.481 .0238148
977.093 .0238077
977.705 .0237998
978.316 .0237918
978.927 .0237842
979.538 .0237773
980.148 .0237711
980.758 .0237661
981.367 .0237611
981.977 .0237566
982.586 .0237522
983.194 .0237480
983.802 .0237445
984.410 .0237414
985.018 .0237388
985.625 .0237378
986.232 .0237390
986.838 .0237421
987.445 .0237466
988.050 .0237517
988.656 .0237569
989.261 .0237614
989.866 .0237645
990.471 .0237665
991.075 .0237669
991.679 .0237668
992.282 .0237658
992.886 .0237643
993.489 .0237625
994.091 .0237603
994.694 .0237589
995.296 .0237570
995.897 .0237550
996.499 .0237517
997.100 .0237479
997.701 .0237438
998.301 .0237386
998.901 .0237331
999.501 .0237275
1000.101 .0237217
1000.700 .0237162
1001.299 .0237111
1001.898 .0237081
1002.496 .0237060
1003.094 .0237062
1003.692 .0237073
1004.289 .0237091
1004.887 .0237114
1005.484 .0237134
1006.080 .0237148
1006.677 .0237158
1007.273 .0237155
1007.868 .0237142
1008.464 .0237121
1009.059 .0237100
1009.654 .0237068
1010.249 .0237034
1010.843 .0237001
1011.437 .0236962
1012.031 .0236912
1012.625 .0236866
1013.218 .0236807
1013.811 .0236746
1014.404 .0236680
1014.997 .0236605
1015.589 .0236527
1016.181 .0236447
1016.773 .0236367
1017.365 .0236282
1017.956 .0236206
1018.547 .0236144
1019.138 .0236083
1019.728 .0236041
1020.319 .0236009
1020.909 .0235981
1021.499 .0235967
1022.088 .0235964
1022.678 .0235965
1023.267 .0235972
1023.856 .0235988
1024.445 .0236010
1025.033 .0236032
1025.621 .0236054
1026.209 .0236065
1026.797 .0236064
1027.385 .0236065
1027.972 .0236050
1028.560 .0236026
1029.147 .0236007
1029.734 .0235990
1030.320 .0235988
1030.907 .0235984
1031.493 .0235980
1032.079 .0235962
1032.665 .0235920
1033.250 .0235850
1033.836 .0235741
1034.421 .0235612
1035.006 .0235472
1035.591 .0235336
1036.176 .0235212
1036.761 .0235103
1037.345 .0235017
1037.929 .0234949
1038.514 .0234886
1039.097 .0234819
1039.681 .0234738
1040.265 .0234626
1040.848 .0234496
1041.432 .0234345
1042.015 .0234182
1042.598 .0234022
1043.181 .0233864
1043.764 .0233718
1044.346 .0233581
1044.929 .0233450
1045.511 .0233318
1046.094 .0233188
1046.676 .0233070
1047.258 .0232947
1047.840 .0232828
1048.422 .0232708
1049.003 .0232601
1049.585 .0232502
1050.166 .0232413
1050.748 .0232349
1051.329 .0232309
1051.910 .0232300
1052.491 .0232324
1053.072 .0232380
1053.653 .0232466
1054.234 .0232557
1054.815 .0232654
1055.396 .0232731
1055.976 .0232779
1056.557 .0232781
1057.138 .0232744
1057.718 .0232677
1058.298 .0232600
1058.879 .0232506
1059.459 .0232414
1060.039 .0232342
1060.620 .0232275
1061.200 .0232203
1061.780 .0232120
1062.360 .0232019
1062.940 .0231901
1063.520 .0231740
1064.101 .0231570
1064.681 .0231379
1065.261 .0231197
1065.841 .0231038
1066.421 .0230909
1067.001 .0230815
1067.581 .0230750
1068.161 .0230697
1068.741 .0230651
1069.321 .0230593
1069.901 .0230514
1070.482 .0230405
1071.062 .0230273
1071.642 .0230134
1072.222 .0229997
1072.803 .0229872
1073.383 .0229800
1073.963 .0229749
1074.544 .0229725
1075.124 .0229699
1075.705 .0229676
1076.286 .0229648
1076.866 .0229606
1077.447 .0229565
1078.028 .0229523
1078.609 .0229478
1079.190 .0229454
1079.771 .0229430
1080.352 .0229412
1080.934 .0229380
1081.515 .0229326
1082.097 .0229213
1082.679 .0229071
1083.260 .0228869
1083.842 .0228644
1084.424 .0228412
1085.007 .0228206
1085.589 .0228014
1086.172 .0227845
1086.754 .0227702
1087.337 .0227554
1087.920 .0227397
1088.503 .0227232
1089.087 .0227035
1089.670 .0226835
1090.254 .0226630
1090.838 .0226450
1091.422 .0226291
1092.006 .0226184
1092.590 .0226092
1093.175 .0226031
1093.760 .0225973
1094.345 .0225900
1094.930 .0225810
1095.516 .0225701
1096.102 .0225605
1096.688 .0225517
1097.274 .0225463
1097.860 .0225447
1098.447 .0225463
1099.034 .0225522
1099.622 .0225586
1100.209 .0225686
1100.797 .0225806
1101.385 .0225930
1101.973 .0226069
1102.562 .0226215
1103.151 .0226363
1103.740 .0226523
1104.330 .0226720
1104.920 .0226926
1105.510 .0227149
1106.101 .0227355
1106.691 .0227508
1107.283 .0227605
1107.874 .0227643
1108.466 .0227596
1109.058 .0227486
1109.651 .0227353
1110.244 .0227162
1110.837 .0226922
1111.431 .0226697
1112.025 .0226472
1112.620 .0226275
1113.215 .0226117
1113.810 .0225982
1114.406 .0225849
1115.002 .0225742
1115.599 .0225625
1116.196 .0225498
1116.793 .0225430
1117.391 .0225389
1117.989 .0225382
1118.588 .0225461
1119.187 .0225622
1119.787 .0225856
1120.387 .0226179
1120.988 .0226551
1121.589 .0226935
1122.190 .0227299
1122.793 .0227646
1123.395 .0227943
1123.998 .0228241
1124.602 .0228545
1125.206 .0228823
1125.811 .0229118
1126.416 .0229396
1127.022 .0229628
1127.628 .0229811
1128.235 .0229911
1128.843 .0229933
1129.451 .0229821
1130.059 .0229599
1130.669 .0229281
1131.278 .0228970
1131.889 .0228684
1132.500 .0228461
1133.112 .0228347
1133.724 .0228388
1134.337 .0228577
1134.950 .0228856
1135.564 .0229252
1136.179 .0229711
1136.795 .0230214
1137.411 .0230759
1138.028 .0231306
1138.645 .0231928
1139.263 .0232658
1139.882 .0233441
1140.502 .0234339
1141.122 .0235282
1141.743 .0236199
1142.365 .0237110
1142.987 .0237726
1143.611 .0240685
1144.235 .0240163
1144.859 .0238213
1145.485 .0241023
