Measurement Sequence started on: 10-20-44-796
Integration time: 35
Scans to Average: 2 
>>>>>Begin Spectral Data<<<<<
432.953 .0383809
433.882 .0369740
434.810 .0390628
435.737 .0380539
436.662 .0342905
437.586 .0353002
438.509 .0347059
439.431 .0342035
440.351 .0337223
441.269 .0333595
442.187 .0331262
443.103 .0329109
444.018 .0327396
444.932 .0325748
445.844 .0324308
446.756 .0322992
447.666 .0321761
448.575 .0320532
449.482 .0319451
450.388 .0318619
451.294 .0317955
452.198 .0317596
453.100 .0317331
454.002 .0317294
454.902 .0317336
455.801 .0317253
456.699 .0317010
457.596 .0316695
458.492 .0316268
459.387 .0315735
460.280 .0315198
461.172 .0314686
462.064 .0314276
462.954 .0313906
463.843 .0313672
464.730 .0313511
465.617 .0313425
466.503 .0313357
467.387 .0313356
468.271 .0313384
469.153 .0313407
470.035 .0313452
470.915 .0313586
471.794 .0313701
472.673 .0313809
473.550 .0313885
474.426 .0313985
475.301 .0314105
476.175 .0314234
477.048 .0314301
477.920 .0314419
478.791 .0314520
479.661 .0314610
480.530 .0314658
481.398 .0314709
482.266 .0314735
483.132 .0314800
483.997 .0314901
484.861 .0315008
485.724 .0315146
486.587 .0315307
487.448 .0315423
488.308 .0315546
489.168 .0315588
490.026 .0315580
490.884 .0315516
491.741 .0315448
492.597 .0315320
493.452 .0315152
494.306 .0314938
495.159 .0314655
496.011 .0314280
496.862 .0313791
497.713 .0313116
498.562 .0312320
499.411 .0311432
500.259 .0310468
501.106 .0309470
501.952 .0308527
502.798 .0307598
503.642 .0306759
504.486 .0305981
505.329 .0305265
506.171 .0304542
507.012 .0303812
507.852 .0303074
508.692 .0302292
509.531 .0301493
510.369 .0300696
511.206 .0299921
512.043 .0299252
512.878 .0298592
513.713 .0297924
514.547 .0297213
515.381 .0296436
516.213 .0295516
517.045 .0294458
517.876 .0293225
518.706 .0291771
519.536 .0290184
520.365 .0288524
521.193 .0286807
522.020 .0285022
522.847 .0283191
523.673 .0281319
524.498 .0279318
525.323 .0277152
526.146 .0274792
526.969 .0272393
527.792 .0270044
528.614 .0267729
529.435 .0265598
530.255 .0263781
531.075 .0262212
531.894 .0261012
532.712 .0260057
533.530 .0259244
534.347 .0258515
535.163 .0257820
535.979 .0257180
536.794 .0256634
537.608 .0256238
538.422 .0256011
539.235 .0255958
540.048 .0256091
540.860 .0256248
541.671 .0256437
542.481 .0256668
543.292 .0256807
544.101 .0256832
544.910 .0256762
545.718 .0256551
546.526 .0256313
547.333 .0256021
548.139 .0255763
548.945 .0255528
549.750 .0255230
550.555 .0254965
551.359 .0254736
552.162 .0254587
552.965 .0254544
553.768 .0254646
554.569 .0254873
555.371 .0255167
556.171 .0255562
556.972 .0256013
557.771 .0256577
558.570 .0257257
559.369 .0258062
560.167 .0258972
560.964 .0260001
561.761 .0261132
562.558 .0262306
563.354 .0263572
564.149 .0264728
564.944 .0265766
565.738 .0266641
566.532 .0267377
567.325 .0267988
568.118 .0268534
568.910 .0269106
569.702 .0269711
570.494 .0270409
571.285 .0271180
572.075 .0272036
572.865 .0272969
573.654 .0273905
574.443 .0274839
575.232 .0275703
576.020 .0276528
576.807 .0277309
577.594 .0278089
578.381 .0278884
579.167 .0279699
579.952 .0280559
580.738 .0281424
581.522 .0282296
582.307 .0283126
583.091 .0283891
583.874 .0284585
584.657 .0285181
585.440 .0285671
586.222 .0286074
587.004 .0286427
587.785 .0286734
588.566 .0287012
589.346 .0287274
590.126 .0287539
590.906 .0287809
591.685 .0288077
592.464 .0288354
593.242 .0288606
594.020 .0288827
594.797 .0289008
595.575 .0289140
596.351 .0289240
597.128 .0289298
597.904 .0289346
598.679 .0289386
599.454 .0289420
600.229 .0289456
601.004 .0289492
601.778 .0289527
602.551 .0289540
603.325 .0289521
604.097 .0289480
604.870 .0289412
605.642 .0289336
606.414 .0289246
607.185 .0289147
607.956 .0289056
608.727 .0288967
609.497 .0288868
610.267 .0288774
611.037 .0288657
611.806 .0288508
612.575 .0288336
613.344 .0288137
614.112 .0287918
614.880 .0287692
615.647 .0287472
616.414 .0287264
617.181 .0287066
617.948 .0286882
618.714 .0286699
619.480 .0286530
620.245 .0286371
621.011 .0286202
621.775 .0286035
622.540 .0285870
623.304 .0285700
624.068 .0285545
624.832 .0285400
625.595 .0285263
626.358 .0285142
627.120 .0285030
627.883 .0284925
628.645 .0284823
629.406 .0284718
630.168 .0284610
630.929 .0284498
631.689 .0284369
632.450 .0284227
633.210 .0284077
633.970 .0283920
634.729 .0283759
635.489 .0283591
636.248 .0283420
637.006 .0283241
637.765 .0283058
638.523 .0282862
639.280 .0282652
640.038 .0282435
640.795 .0282195
641.552 .0281951
642.309 .0281711
643.065 .0281470
643.821 .0281239
644.577 .0281023
645.332 .0280818
646.088 .0280619
646.843 .0280431
647.597 .0280248
648.352 .0280080
649.106 .0279935
649.860 .0279798
650.613 .0279683
651.367 .0279594
652.120 .0279517
652.872 .0279441
653.625 .0279381
654.377 .0279318
655.129 .0279239
655.881 .0279152
656.632 .0279050
657.384 .0278937
658.135 .0278820
658.885 .0278691
659.636 .0278551
660.386 .0278415
661.136 .0278280
661.885 .0278139
662.635 .0278014
663.384 .0277902
664.133 .0277793
664.881 .0277691
665.630 .0277588
666.378 .0277481
667.126 .0277366
667.874 .0277239
668.621 .0277096
669.368 .0276943
670.115 .0276785
670.862 .0276620
671.608 .0276466
672.354 .0276328
673.100 .0276190
673.846 .0276058
674.591 .0275928
675.337 .0275797
676.082 .0275662
676.826 .0275529
677.571 .0275399
678.315 .0275280
679.059 .0275173
679.803 .0275084
680.547 .0275016
681.290 .0274968
682.033 .0274922
682.776 .0274871
683.518 .0274808
684.261 .0274733
685.003 .0274640
685.745 .0274540
686.487 .0274434
687.228 .0274324
687.969 .0274206
688.710 .0274083
689.451 .0273950
690.192 .0273812
690.932 .0273665
691.672 .0273508
692.412 .0273342
693.152 .0273176
693.891 .0273006
694.630 .0272846
695.369 .0272697
696.108 .0272566
696.846 .0272440
697.585 .0272317
698.323 .0272195
699.061 .0272069
699.798 .0271939
700.536 .0271800
701.273 .0271648
702.010 .0271489
702.746 .0271319
703.483 .0271139
704.219 .0270950
704.955 .0270759
705.691 .0270567
706.427 .0270373
707.162 .0270179
707.897 .0269985
708.632 .0269787
709.367 .0269593
710.101 .0269400
710.835 .0269201
711.569 .0269001
712.303 .0268797
713.037 .0268591
713.770 .0268388
714.503 .0268188
715.236 .0267993
715.969 .0267808
716.702 .0267638
717.434 .0267474
718.166 .0267316
718.898 .0267164
719.629 .0267010
720.361 .0266860
721.092 .0266709
721.823 .0266547
722.554 .0266377
723.284 .0266202
724.014 .0266010
724.744 .0265811
725.474 .0265607
726.204 .0265400
726.933 .0265196
727.662 .0264992
728.391 .0264790
729.120 .0264588
729.849 .0264388
730.577 .0264189
731.305 .0263988
732.033 .0263794
732.760 .0263594
733.488 .0263395
734.215 .0263204
734.942 .0263024
735.669 .0262850
736.395 .0262687
737.122 .0262530
737.848 .0262373
738.573 .0262216
739.299 .0262051
740.024 .0261881
740.750 .0261705
741.474 .0261524
742.199 .0261341
742.924 .0261154
743.648 .0260973
744.372 .0260792
745.096 .0260621
745.819 .0260453
746.543 .0260286
747.266 .0260124
747.989 .0259967
748.711 .0259820
749.434 .0259685
750.156 .0259568
750.878 .0259469
751.599 .0259390
752.321 .0259325
753.042 .0259273
753.763 .0259230
754.484 .0259187
755.205 .0259150
755.925 .0259111
756.645 .0259077
757.365 .0259042
758.085 .0259006
758.804 .0258970
759.523 .0258925
760.242 .0258870
760.961 .0258801
761.679 .0258712
762.397 .0258598
763.115 .0258460
763.833 .0258307
764.551 .0258138
765.268 .0257959
765.985 .0257771
766.702 .0257580
767.418 .0257386
768.134 .0257186
768.850 .0256982
769.566 .0256782
770.282 .0256584
770.997 .0256392
771.712 .0256213
772.427 .0256052
773.142 .0255912
773.856 .0255790
774.570 .0255686
775.284 .0255596
775.998 .0255513
776.711 .0255439
777.424 .0255369
778.137 .0255306
778.849 .0255239
779.562 .0255164
780.274 .0255083
780.986 .0254986
781.697 .0254875
782.409 .0254752
783.120 .0254622
783.831 .0254490
784.541 .0254362
785.252 .0254244
785.962 .0254142
786.671 .0254055
787.381 .0253982
788.090 .0253914
788.799 .0253851
789.508 .0253783
790.217 .0253710
790.925 .0253634
791.633 .0253555
792.341 .0253475
793.048 .0253396
793.755 .0253315
794.462 .0253236
795.169 .0253153
795.875 .0253067
796.581 .0252970
797.287 .0252860
797.993 .0252738
798.698 .0252611
799.403 .0252478
800.108 .0252347
800.812 .0252220
801.517 .0252101
802.221 .0251986
802.924 .0251879
803.628 .0251782
804.331 .0251695
805.034 .0251620
805.736 .0251556
806.439 .0251506
807.141 .0251474
807.843 .0251451
808.544 .0251439
809.245 .0251431
809.946 .0251416
810.647 .0251390
811.347 .0251352
812.047 .0251299
812.747 .0251234
813.447 .0251157
814.146 .0251075
814.845 .0250992
815.543 .0250909
816.242 .0250829
816.940 .0250749
817.638 .0250667
818.335 .0250571
819.032 .0250452
819.729 .0250315
820.426 .0250154
821.122 .0249975
821.818 .0249781
822.514 .0249584
823.209 .0249386
823.905 .0249193
824.599 .0249005
825.294 .0248825
825.988 .0248649
826.682 .0248478
827.376 .0248299
828.069 .0248118
828.762 .0247930
829.455 .0247737
830.147 .0247543
830.840 .0247351
831.531 .0247157
832.223 .0246974
832.914 .0246800
833.605 .0246637
834.296 .0246482
834.986 .0246341
835.676 .0246208
836.366 .0246078
837.055 .0245944
837.744 .0245802
838.433 .0245649
839.121 .0245489
839.809 .0245312
840.497 .0245132
841.185 .0244956
841.872 .0244791
842.559 .0244643
843.245 .0244514
843.932 .0244406
844.617 .0244310
845.303 .0244224
845.988 .0244136
846.673 .0244037
847.358 .0243925
848.042 .0243801
848.726 .0243671
849.410 .0243543
850.093 .0243416
850.776 .0243300
851.459 .0243199
852.141 .0243109
852.823 .0243021
853.505 .0242934
854.186 .0242842
854.867 .0242743
855.548 .0242629
856.228 .0242507
856.908 .0242378
857.588 .0242255
858.267 .0242140
858.946 .0242034
859.625 .0241937
860.303 .0241847
860.981 .0241758
861.659 .0241662
862.336 .0241559
863.013 .0241450
863.690 .0241333
864.366 .0241215
865.042 .0241098
865.718 .0240984
866.393 .0240878
867.068 .0240781
867.743 .0240686
868.417 .0240587
869.091 .0240482
869.765 .0240363
870.438 .0240233
871.111 .0240094
871.783 .0239948
872.456 .0239798
873.127 .0239652
873.799 .0239504
874.470 .0239355
875.141 .0239208
875.811 .0239058
876.481 .0238901
877.151 .0238746
877.820 .0238583
878.489 .0238418
879.158 .0238253
879.826 .0238099
880.494 .0237947
881.162 .0237806
881.829 .0237680
882.496 .0237564
883.163 .0237458
883.829 .0237366
884.495 .0237286
885.160 .0237228
885.825 .0237187
886.490 .0237159
887.154 .0237140
887.818 .0237131
888.482 .0237121
889.145 .0237107
889.808 .0237093
890.471 .0237074
891.133 .0237048
891.795 .0237019
892.456 .0236990
893.117 .0236962
893.778 .0236938
894.439 .0236915
895.099 .0236888
895.758 .0236857
896.417 .0236813
897.076 .0236753
897.735 .0236683
898.393 .0236609
899.051 .0236532
899.708 .0236451
900.365 .0236376
901.022 .0236304
901.678 .0236242
902.334 .0236187
902.990 .0236141
903.645 .0236099
904.300 .0236059
904.954 .0236019
905.608 .0235977
906.262 .0235931
906.915 .0235882
907.568 .0235819
908.221 .0235745
908.873 .0235661
909.525 .0235561
910.176 .0235449
910.828 .0235336
911.478 .0235229
912.129 .0235120
912.778 .0235019
913.428 .0234921
914.077 .0234828
914.726 .0234735
915.375 .0234638
916.023 .0234540
916.670 .0234448
917.318 .0234363
917.964 .0234282
918.611 .0234217
919.257 .0234172
919.903 .0234137
920.548 .0234117
921.193 .0234099
921.838 .0234086
922.482 .0234062
923.126 .0234035
923.770 .0233998
924.413 .0233954
925.056 .0233903
925.698 .0233854
926.340 .0233810
926.982 .0233773
927.623 .0233741
928.264 .0233716
928.904 .0233691
929.544 .0233668
930.184 .0233635
930.823 .0233597
931.462 .0233547
932.101 .0233497
932.739 .0233431
933.377 .0233362
934.014 .0233289
934.651 .0233215
935.288 .0233139
935.924 .0233059
936.560 .0232969
937.196 .0232877
937.831 .0232780
938.466 .0232676
939.100 .0232562
939.734 .0232447
940.368 .0232325
941.001 .0232203
941.634 .0232077
942.266 .0231959
942.899 .0231845
943.530 .0231744
944.162 .0231646
944.793 .0231552
945.423 .0231458
946.053 .0231362
946.683 .0231258
947.313 .0231146
947.942 .0231016
948.571 .0230868
949.199 .0230702
949.827 .0230529
950.455 .0230348
951.082 .0230170
951.709 .0229996
952.335 .0229833
952.961 .0229670
953.587 .0229509
954.212 .0229349
954.837 .0229186
955.462 .0229021
956.086 .0228851
956.710 .0228677
957.334 .0228508
957.957 .0228350
958.579 .0228201
959.202 .0228058
959.824 .0227923
960.445 .0227789
961.067 .0227654
961.688 .0227519
962.308 .0227385
962.928 .0227250
963.548 .0227114
964.168 .0226980
964.787 .0226849
965.406 .0226726
966.024 .0226611
966.642 .0226509
967.260 .0226417
967.877 .0226342
968.494 .0226278
969.110 .0226224
969.727 .0226177
970.342 .0226132
970.958 .0226088
971.573 .0226041
972.188 .0225993
972.802 .0225944
973.416 .0225899
974.030 .0225864
974.643 .0225832
975.256 .0225798
975.869 .0225767
976.481 .0225733
977.093 .0225696
977.705 .0225659
978.316 .0225618
978.927 .0225574
979.538 .0225536
980.148 .0225506
980.758 .0225478
981.367 .0225458
981.977 .0225445
982.586 .0225429
983.194 .0225415
983.802 .0225388
984.410 .0225347
985.018 .0225301
985.625 .0225246
986.232 .0225175
986.838 .0225096
987.445 .0225018
988.050 .0224937
988.656 .0224858
989.261 .0224783
989.866 .0224704
990.471 .0224631
991.075 .0224561
991.679 .0224485
992.282 .0224411
992.886 .0224342
993.489 .0224278
994.091 .0224226
994.694 .0224184
995.296 .0224155
995.897 .0224139
996.499 .0224137
997.100 .0224139
997.701 .0224141
998.301 .0224143
998.901 .0224138
999.501 .0224128
1000.101 .0224114
1000.700 .0224097
1001.299 .0224081
1001.898 .0224070
1002.496 .0224060
1003.094 .0224052
1003.692 .0224049
1004.289 .0224042
1004.887 .0224037
1005.484 .0224027
1006.080 .0224008
1006.677 .0223982
1007.273 .0223946
1007.868 .0223897
1008.464 .0223834
1009.059 .0223765
1009.654 .0223689
1010.249 .0223617
1010.843 .0223557
1011.437 .0223513
1012.031 .0223485
1012.625 .0223483
1013.218 .0223492
1013.811 .0223505
1014.404 .0223522
1014.997 .0223535
1015.589 .0223540
1016.181 .0223545
1016.773 .0223544
1017.365 .0223549
1017.956 .0223557
1018.547 .0223569
1019.138 .0223579
1019.728 .0223586
1020.319 .0223585
1020.909 .0223566
1021.499 .0223520
1022.088 .0223453
1022.678 .0223357
1023.267 .0223245
1023.856 .0223119
1024.445 .0222994
1025.033 .0222869
1025.621 .0222753
1026.209 .0222646
1026.797 .0222548
1027.385 .0222449
1027.972 .0222358
1028.560 .0222265
1029.147 .0222171
1029.734 .0222079
1030.320 .0221978
1030.907 .0221877
1031.493 .0221785
1032.079 .0221707
1032.665 .0221642
1033.250 .0221590
1033.836 .0221564
1034.421 .0221557
1035.006 .0221577
1035.591 .0221610
1036.176 .0221650
1036.761 .0221703
1037.345 .0221767
1037.929 .0221830
1038.514 .0221888
1039.097 .0221952
1039.681 .0222019
1040.265 .0222088
1040.848 .0222149
1041.432 .0222200
1042.015 .0222236
1042.598 .0222252
1043.181 .0222245
1043.764 .0222200
1044.346 .0222121
1044.929 .0222006
1045.511 .0221870
1046.094 .0221705
1046.676 .0221519
1047.258 .0221322
1047.840 .0221119
1048.422 .0220921
1049.003 .0220728
1049.585 .0220550
1050.166 .0220393
1050.748 .0220268
1051.329 .0220176
1051.910 .0220110
1052.491 .0220084
1053.072 .0220090
1053.653 .0220127
1054.234 .0220190
1054.815 .0220260
1055.396 .0220328
1055.976 .0220401
1056.557 .0220476
1057.138 .0220546
1057.718 .0220609
1058.298 .0220669
1058.879 .0220716
1059.459 .0220748
1060.039 .0220765
1060.620 .0220764
1061.200 .0220748
1061.780 .0220722
1062.360 .0220665
1062.940 .0220594
1063.520 .0220519
1064.101 .0220439
1064.681 .0220362
1065.261 .0220299
1065.841 .0220261
1066.421 .0220248
1067.001 .0220268
1067.581 .0220332
1068.161 .0220420
1068.741 .0220545
1069.321 .0220676
1069.901 .0220803
1070.482 .0220926
1071.062 .0221045
1071.642 .0221153
1072.222 .0221258
1072.803 .0221365
1073.383 .0221454
1073.963 .0221534
1074.544 .0221605
1075.124 .0221641
1075.705 .0221626
1076.286 .0221563
1076.866 .0221456
1077.447 .0221306
1078.028 .0221123
1078.609 .0220912
1079.190 .0220699
1079.771 .0220496
1080.352 .0220282
1080.934 .0220077
1081.515 .0219883
1082.097 .0219718
1082.679 .0219562
1083.260 .0219432
1083.842 .0219325
1084.424 .0219250
1085.007 .0219202
1085.589 .0219176
1086.172 .0219176
1086.754 .0219193
1087.337 .0219217
1087.920 .0219274
1088.503 .0219344
1089.087 .0219417
1089.670 .0219466
1090.254 .0219500
1090.838 .0219465
1091.422 .0219376
1092.006 .0219206
1092.590 .0218985
1093.175 .0218732
1093.760 .0218470
1094.345 .0218196
1094.930 .0217940
1095.516 .0217717
1096.102 .0217509
1096.688 .0217304
1097.274 .0217125
1097.860 .0216927
1098.447 .0216739
1099.034 .0216557
1099.622 .0216422
1100.209 .0216334
1100.797 .0216339
1101.385 .0216394
1101.973 .0216515
1102.562 .0216679
1103.151 .0216867
1103.740 .0217044
1104.330 .0217217
1104.920 .0217356
1105.510 .0217492
1106.101 .0217612
1106.691 .0217728
1107.283 .0217817
1107.874 .0217934
1108.466 .0218039
1109.058 .0218143
1109.651 .0218216
1110.244 .0218267
1110.837 .0218269
1111.431 .0218255
1112.025 .0218189
1112.620 .0218089
1113.215 .0217972
1113.810 .0217863
1114.406 .0217748
1115.002 .0217687
1115.599 .0217633
1116.196 .0217630
1116.793 .0217661
1117.391 .0217695
1117.989 .0217725
1118.588 .0217767
1119.187 .0217802
1119.787 .0217854
1120.387 .0217949
1120.988 .0218108
1121.589 .0218326
1122.190 .0218629
1122.793 .0218988
1123.395 .0219357
1123.998 .0219756
1124.602 .0220164
1125.206 .0220540
1125.811 .0220934
1126.416 .0221302
1127.022 .0221624
1127.628 .0221935
1128.235 .0222176
1128.843 .0222335
1129.451 .0222403
1130.059 .0222418
1130.669 .0222304
1131.278 .0222103
1131.889 .0221891
1132.500 .0221688
1133.112 .0221538
1133.724 .0221485
1134.337 .0221455
1134.950 .0221459
1135.564 .0221511
1136.179 .0221526
1136.795 .0221546
1137.411 .0221663
1138.028 .0221843
1138.645 .0222163
1139.263 .0222640
1139.882 .0223324
1140.502 .0224128
1141.122 .0225068
1141.743 .0226302
1142.365 .0228027
1142.987 .0228886
1143.611 .0228592
1144.235 .0229502
1144.859 .0236927
1145.485 .0248427
