Measurement Sequence started on: 10-20-44-796
Integration time: 35
Scans to Average: 2 
>>>>>Begin Spectral Data<<<<<
432.953 .0335118
433.882 .0424388
434.810 .0393006
435.737 .0345856
436.662 .0343543
437.586 .0364543
438.509 .0364243
439.431 .0362314
440.351 .0361927
441.269 .0362795
442.187 .0363326
443.103 .0363396
444.018 .0363467
444.932 .0363614
445.844 .0363818
446.756 .0363765
447.666 .0363447
448.575 .0362880
449.482 .0361993
450.388 .0360880
451.294 .0359678
452.198 .0358632
453.100 .0357744
454.002 .0357201
454.902 .0356836
455.801 .0356468
456.699 .0356086
457.596 .0355629
458.492 .0355049
459.387 .0354353
460.280 .0353653
461.172 .0352799
462.064 .0351972
462.954 .0351177
463.843 .0350384
464.730 .0349738
465.617 .0349220
466.503 .0348830
467.387 .0348587
468.271 .0348477
469.153 .0348447
470.035 .0348456
470.915 .0348570
471.794 .0348717
472.673 .0348894
473.550 .0349113
474.426 .0349389
475.301 .0349742
476.175 .0350160
477.048 .0350616
477.920 .0351063
478.791 .0351492
479.661 .0351815
480.530 .0351951
481.398 .0351920
482.266 .0351744
483.132 .0351475
483.997 .0351151
484.861 .0350850
485.724 .0350588
486.587 .0350336
487.448 .0350151
488.308 .0349975
489.168 .0349803
490.026 .0349617
490.884 .0349419
491.741 .0349194
492.597 .0348951
493.452 .0348659
494.306 .0348317
495.159 .0348025
496.011 .0347704
496.862 .0347278
497.713 .0346761
498.562 .0346117
499.411 .0345369
500.259 .0344521
501.106 .0343622
501.952 .0342634
502.798 .0341618
503.642 .0340580
504.486 .0339477
505.329 .0338368
506.171 .0337225
507.012 .0336037
507.852 .0334884
508.692 .0333741
509.531 .0332587
510.369 .0331491
511.206 .0330548
512.043 .0329707
512.878 .0328980
513.713 .0328347
514.547 .0327786
515.381 .0327278
516.213 .0326719
517.045 .0326045
517.876 .0325280
518.706 .0324362
519.536 .0323309
520.365 .0322152
521.193 .0320983
522.020 .0319784
522.847 .0318605
523.673 .0317387
524.498 .0316046
525.323 .0314533
526.146 .0312781
526.969 .0310804
527.792 .0308673
528.614 .0306358
529.435 .0304031
530.255 .0301868
531.075 .0299931
531.894 .0298157
532.712 .0296687
533.530 .0295418
534.347 .0294286
535.163 .0293244
535.979 .0292265
536.794 .0291363
537.608 .0290618
538.422 .0290021
539.235 .0289576
540.048 .0289301
540.860 .0289212
541.671 .0289132
542.481 .0289115
543.292 .0289067
544.101 .0288885
544.910 .0288623
545.718 .0288283
546.526 .0287848
547.333 .0287414
548.139 .0287067
548.945 .0286923
549.750 .0286976
550.555 .0287245
551.359 .0287681
552.162 .0288263
552.965 .0289006
553.768 .0289749
554.569 .0290466
555.371 .0291100
556.171 .0291618
556.972 .0292054
557.771 .0292406
558.570 .0292706
559.369 .0293036
560.167 .0293395
560.964 .0293819
561.761 .0294282
562.558 .0294777
563.354 .0295323
564.149 .0295887
564.944 .0296435
565.738 .0296975
566.532 .0297456
567.325 .0297954
568.118 .0298445
568.910 .0298993
569.702 .0299577
570.494 .0300189
571.285 .0300896
572.075 .0301643
572.865 .0302413
573.654 .0303171
574.443 .0303862
575.232 .0304517
576.020 .0305071
576.807 .0305540
577.594 .0305924
578.381 .0306231
579.167 .0306512
579.952 .0306774
580.738 .0307065
581.522 .0307421
582.307 .0307830
583.091 .0308292
583.874 .0308796
584.657 .0309292
585.440 .0309774
586.222 .0310221
587.004 .0310663
587.785 .0311064
588.566 .0311433
589.346 .0311785
590.126 .0312115
590.906 .0312423
591.685 .0312715
592.464 .0312942
593.242 .0313118
594.020 .0313223
594.797 .0313273
595.575 .0313262
596.351 .0313223
597.128 .0313147
597.904 .0313046
598.679 .0312935
599.454 .0312814
600.229 .0312666
601.004 .0312521
601.778 .0312362
602.551 .0312187
603.325 .0311997
604.097 .0311810
604.870 .0311624
605.642 .0311453
606.414 .0311294
607.185 .0311140
607.956 .0310993
608.727 .0310857
609.497 .0310715
610.267 .0310572
611.037 .0310422
611.806 .0310270
612.575 .0310112
613.344 .0309950
614.112 .0309793
614.880 .0309632
615.647 .0309478
616.414 .0309314
617.181 .0309138
617.948 .0308957
618.714 .0308762
619.480 .0308566
620.245 .0308355
621.011 .0308128
621.775 .0307889
622.540 .0307635
623.304 .0307383
624.068 .0307124
624.832 .0306859
625.595 .0306586
626.358 .0306317
627.120 .0306044
627.883 .0305772
628.645 .0305497
629.406 .0305234
630.168 .0304973
630.929 .0304707
631.689 .0304441
632.450 .0304161
633.210 .0303884
633.970 .0303602
634.729 .0303310
635.489 .0303011
636.248 .0302696
637.006 .0302387
637.765 .0302070
638.523 .0301746
639.280 .0301416
640.038 .0301081
640.795 .0300751
641.552 .0300423
642.309 .0300105
643.065 .0299806
643.821 .0299535
644.577 .0299281
645.332 .0299044
646.088 .0298828
646.843 .0298635
647.597 .0298463
648.352 .0298314
649.106 .0298194
649.860 .0298088
650.613 .0297999
651.367 .0297931
652.120 .0297871
652.872 .0297819
653.625 .0297757
654.377 .0297687
655.129 .0297607
655.881 .0297517
656.632 .0297409
657.384 .0297298
658.135 .0297192
658.885 .0297079
659.636 .0296960
660.386 .0296838
661.136 .0296710
661.885 .0296577
662.635 .0296444
663.384 .0296312
664.133 .0296182
664.881 .0296065
665.630 .0295947
666.378 .0295834
667.126 .0295722
667.874 .0295601
668.621 .0295471
669.368 .0295333
670.115 .0295189
670.862 .0295040
671.608 .0294906
672.354 .0294785
673.100 .0294673
673.846 .0294580
674.591 .0294491
675.337 .0294396
676.082 .0294291
676.826 .0294171
677.571 .0294033
678.315 .0293882
679.059 .0293723
679.803 .0293557
680.547 .0293394
681.290 .0293226
682.033 .0293048
682.776 .0292869
683.518 .0292685
684.261 .0292485
685.003 .0292274
685.745 .0292052
686.487 .0291820
687.228 .0291584
687.969 .0291354
688.710 .0291134
689.451 .0290933
690.192 .0290744
690.932 .0290566
691.672 .0290400
692.412 .0290249
693.152 .0290106
693.891 .0289972
694.630 .0289847
695.369 .0289721
696.108 .0289593
696.846 .0289460
697.585 .0289327
698.323 .0289196
699.061 .0289066
699.798 .0288934
700.536 .0288798
701.273 .0288659
702.010 .0288507
702.746 .0288346
703.483 .0288178
704.219 .0287993
704.955 .0287791
705.691 .0287572
706.427 .0287340
707.162 .0287103
707.897 .0286871
708.632 .0286641
709.367 .0286422
710.101 .0286206
710.835 .0285982
711.569 .0285748
712.303 .0285499
713.037 .0285234
713.770 .0284952
714.503 .0284665
715.236 .0284372
715.969 .0284087
716.702 .0283821
717.434 .0283579
718.166 .0283361
718.898 .0283159
719.629 .0282967
720.361 .0282777
721.092 .0282584
721.823 .0282379
722.554 .0282167
723.284 .0281958
724.014 .0281744
724.744 .0281533
725.474 .0281325
726.204 .0281129
726.933 .0280939
727.662 .0280751
728.391 .0280562
729.120 .0280366
729.849 .0280162
730.577 .0279947
731.305 .0279725
732.033 .0279488
732.760 .0279235
733.488 .0278972
734.215 .0278701
734.942 .0278428
735.669 .0278153
736.395 .0277887
737.122 .0277630
737.848 .0277384
738.573 .0277142
739.299 .0276907
740.024 .0276680
740.750 .0276452
741.474 .0276223
742.199 .0275999
742.924 .0275787
743.648 .0275588
744.372 .0275418
745.096 .0275284
745.819 .0275175
746.543 .0275094
747.266 .0275035
747.989 .0274990
748.711 .0274952
749.434 .0274913
750.156 .0274865
750.878 .0274814
751.599 .0274762
752.321 .0274709
753.042 .0274667
753.763 .0274639
754.484 .0274615
755.205 .0274586
755.925 .0274556
756.645 .0274507
757.365 .0274426
758.085 .0274323
758.804 .0274185
759.523 .0274022
760.242 .0273844
760.961 .0273662
761.679 .0273483
762.397 .0273317
763.115 .0273159
763.833 .0273002
764.551 .0272844
765.268 .0272677
765.985 .0272494
766.702 .0272301
767.418 .0272102
768.134 .0271899
768.850 .0271707
769.566 .0271541
770.282 .0271392
770.997 .0271276
771.712 .0271181
772.427 .0271092
773.142 .0270997
773.856 .0270898
774.570 .0270793
775.284 .0270675
775.998 .0270551
776.711 .0270431
777.424 .0270322
778.137 .0270231
778.849 .0270146
779.562 .0270071
780.274 .0270006
780.986 .0269938
781.697 .0269851
782.409 .0269754
783.120 .0269650
783.831 .0269543
784.541 .0269441
785.252 .0269357
785.962 .0269287
786.671 .0269233
787.381 .0269199
788.090 .0269176
788.799 .0269155
789.508 .0269125
790.217 .0269077
790.925 .0269013
791.633 .0268936
792.341 .0268840
793.048 .0268738
793.755 .0268642
794.462 .0268550
795.169 .0268458
795.875 .0268369
796.581 .0268285
797.287 .0268201
797.993 .0268113
798.698 .0268018
799.403 .0267912
800.108 .0267800
800.812 .0267682
801.517 .0267570
802.221 .0267462
802.924 .0267367
803.628 .0267284
804.331 .0267214
805.034 .0267156
805.736 .0267102
806.439 .0267051
807.141 .0266999
807.843 .0266941
808.544 .0266878
809.245 .0266806
809.946 .0266735
810.647 .0266662
811.347 .0266590
812.047 .0266517
812.747 .0266444
813.447 .0266358
814.146 .0266265
814.845 .0266161
815.543 .0266045
816.242 .0265920
816.940 .0265789
817.638 .0265657
818.335 .0265524
819.032 .0265391
819.729 .0265261
820.426 .0265126
821.122 .0264988
821.818 .0264837
822.514 .0264680
823.209 .0264517
823.905 .0264350
824.599 .0264182
825.294 .0264019
825.988 .0263860
826.682 .0263710
827.376 .0263561
828.069 .0263418
828.762 .0263271
829.455 .0263117
830.147 .0262962
830.840 .0262807
831.531 .0262645
832.223 .0262483
832.914 .0262315
833.605 .0262143
834.296 .0261963
834.986 .0261777
835.676 .0261589
836.366 .0261401
837.055 .0261210
837.744 .0261020
838.433 .0260831
839.121 .0260652
839.809 .0260470
840.497 .0260288
841.185 .0260105
841.872 .0259916
842.559 .0259722
843.245 .0259529
843.932 .0259337
844.617 .0259153
845.303 .0258972
845.988 .0258803
846.673 .0258638
847.358 .0258480
848.042 .0258330
848.726 .0258188
849.410 .0258055
850.093 .0257926
850.776 .0257798
851.459 .0257676
852.141 .0257555
852.823 .0257429
853.505 .0257298
854.186 .0257158
854.867 .0257009
855.548 .0256854
856.228 .0256694
856.908 .0256533
857.588 .0256377
858.267 .0256225
858.946 .0256072
859.625 .0255915
860.303 .0255752
860.981 .0255574
861.659 .0255386
862.336 .0255189
863.013 .0254983
863.690 .0254773
864.366 .0254566
865.042 .0254364
865.718 .0254172
866.393 .0253990
867.068 .0253814
867.743 .0253641
868.417 .0253473
869.091 .0253301
869.765 .0253125
870.438 .0252947
871.111 .0252772
871.783 .0252597
872.456 .0252423
873.127 .0252253
873.799 .0252082
874.470 .0251912
875.141 .0251750
875.811 .0251591
876.481 .0251438
877.151 .0251290
877.820 .0251148
878.489 .0251011
879.158 .0250880
879.826 .0250754
880.494 .0250629
881.162 .0250504
881.829 .0250379
882.496 .0250246
883.163 .0250114
883.829 .0249989
884.495 .0249865
885.160 .0249753
885.825 .0249655
886.490 .0249565
887.154 .0249492
887.818 .0249430
888.482 .0249375
889.145 .0249321
889.808 .0249270
890.471 .0249214
891.133 .0249152
891.795 .0249088
892.456 .0249019
893.117 .0248947
893.778 .0248878
894.439 .0248807
895.099 .0248732
895.758 .0248661
896.417 .0248580
897.076 .0248489
897.735 .0248394
898.393 .0248285
899.051 .0248174
899.708 .0248054
900.365 .0247933
901.022 .0247814
901.678 .0247699
902.334 .0247590
902.990 .0247490
903.645 .0247407
904.300 .0247336
904.954 .0247275
905.608 .0247227
906.262 .0247187
906.915 .0247155
907.568 .0247128
908.221 .0247100
908.873 .0247074
909.525 .0247055
910.176 .0247029
910.828 .0247008
911.478 .0246994
912.129 .0246986
912.778 .0246979
913.428 .0246974
914.077 .0246965
914.726 .0246946
915.375 .0246924
916.023 .0246896
916.670 .0246866
917.318 .0246839
917.964 .0246814
918.611 .0246795
919.257 .0246783
919.903 .0246775
920.548 .0246764
921.193 .0246756
921.838 .0246745
922.482 .0246729
923.126 .0246711
923.770 .0246691
924.413 .0246675
925.056 .0246665
925.698 .0246660
926.340 .0246659
926.982 .0246661
927.623 .0246665
928.264 .0246668
928.904 .0246667
929.544 .0246662
930.184 .0246653
930.823 .0246635
931.462 .0246610
932.101 .0246573
932.739 .0246525
933.377 .0246464
934.014 .0246387
934.651 .0246303
935.288 .0246211
935.924 .0246116
936.560 .0246026
937.196 .0245943
937.831 .0245873
938.466 .0245805
939.100 .0245740
939.734 .0245672
940.368 .0245599
941.001 .0245514
941.634 .0245420
942.266 .0245328
942.899 .0245241
943.530 .0245157
944.162 .0245084
944.793 .0245020
945.423 .0244963
946.053 .0244902
946.683 .0244834
947.313 .0244753
947.942 .0244656
948.571 .0244534
949.199 .0244390
949.827 .0244230
950.455 .0244063
951.082 .0243893
951.709 .0243727
952.335 .0243575
952.961 .0243436
953.587 .0243313
954.212 .0243208
954.837 .0243109
955.462 .0243012
956.086 .0242914
956.710 .0242815
957.334 .0242707
957.957 .0242597
958.579 .0242487
959.202 .0242382
959.824 .0242290
960.445 .0242207
961.067 .0242134
961.688 .0242081
962.308 .0242042
962.928 .0242010
963.548 .0241982
964.168 .0241958
964.787 .0241935
965.406 .0241910
966.024 .0241891
966.642 .0241877
967.260 .0241872
967.877 .0241883
968.494 .0241902
969.110 .0241926
969.727 .0241947
970.342 .0241959
970.958 .0241959
971.573 .0241938
972.188 .0241895
972.802 .0241839
973.416 .0241767
974.030 .0241684
974.643 .0241592
975.256 .0241496
975.869 .0241405
976.481 .0241315
977.093 .0241232
977.705 .0241156
978.316 .0241091
978.927 .0241040
979.538 .0240995
980.148 .0240962
980.758 .0240941
981.367 .0240920
981.977 .0240905
982.586 .0240883
983.194 .0240854
983.802 .0240824
984.410 .0240786
985.018 .0240738
985.625 .0240681
986.232 .0240609
986.838 .0240530
987.445 .0240436
988.050 .0240340
988.656 .0240234
989.261 .0240127
989.866 .0240024
990.471 .0239925
991.075 .0239836
991.679 .0239769
992.282 .0239716
992.886 .0239685
993.489 .0239670
994.091 .0239664
994.694 .0239666
995.296 .0239672
995.897 .0239686
996.499 .0239701
997.100 .0239707
997.701 .0239710
998.301 .0239699
998.901 .0239680
999.501 .0239645
1000.101 .0239589
1000.700 .0239515
1001.299 .0239424
1001.898 .0239320
1002.496 .0239206
1003.094 .0239091
1003.692 .0238974
1004.289 .0238855
1004.887 .0238735
1005.484 .0238609
1006.080 .0238472
1006.677 .0238334
1007.273 .0238192
1007.868 .0238050
1008.464 .0237908
1009.059 .0237770
1009.654 .0237646
1010.249 .0237534
1010.843 .0237433
1011.437 .0237333
1012.031 .0237238
1012.625 .0237146
1013.218 .0237051
1013.811 .0236962
1014.404 .0236881
1014.997 .0236810
1015.589 .0236752
1016.181 .0236701
1016.773 .0236657
1017.365 .0236620
1017.956 .0236584
1018.547 .0236545
1019.138 .0236500
1019.728 .0236446
1020.319 .0236388
1020.909 .0236325
1021.499 .0236268
1022.088 .0236209
1022.678 .0236147
1023.267 .0236078
1023.856 .0235997
1024.445 .0235905
1025.033 .0235808
1025.621 .0235708
1026.209 .0235604
1026.797 .0235499
1027.385 .0235400
1027.972 .0235311
1028.560 .0235227
1029.147 .0235155
1029.734 .0235094
1030.320 .0235046
1030.907 .0235010
1031.493 .0234978
1032.079 .0234950
1032.665 .0234933
1033.250 .0234914
1033.836 .0234892
1034.421 .0234869
1035.006 .0234839
1035.591 .0234796
1036.176 .0234746
1036.761 .0234688
1037.345 .0234617
1037.929 .0234536
1038.514 .0234453
1039.097 .0234356
1039.681 .0234249
1040.265 .0234127
1040.848 .0233988
1041.432 .0233846
1042.015 .0233699
1042.598 .0233540
1043.181 .0233382
1043.764 .0233235
1044.346 .0233093
1044.929 .0232965
1045.511 .0232852
1046.094 .0232740
1046.676 .0232631
1047.258 .0232519
1047.840 .0232409
1048.422 .0232309
1049.003 .0232219
1049.585 .0232152
1050.166 .0232095
1050.748 .0232051
1051.329 .0232000
1051.910 .0231939
1052.491 .0231864
1053.072 .0231759
1053.653 .0231626
1054.234 .0231463
1054.815 .0231285
1055.396 .0231090
1055.976 .0230891
1056.557 .0230702
1057.138 .0230524
1057.718 .0230338
1058.298 .0230139
1058.879 .0229945
1059.459 .0229737
1060.039 .0229529
1060.620 .0229313
1061.200 .0229097
1061.780 .0228909
1062.360 .0228739
1062.940 .0228610
1063.520 .0228510
1064.101 .0228455
1064.681 .0228432
1065.261 .0228444
1065.841 .0228490
1066.421 .0228550
1067.001 .0228624
1067.581 .0228710
1068.161 .0228787
1068.741 .0228846
1069.321 .0228890
1069.901 .0228932
1070.482 .0228980
1071.062 .0229037
1071.642 .0229079
1072.222 .0229125
1072.803 .0229174
1073.383 .0229236
1073.963 .0229266
1074.544 .0229270
1075.124 .0229249
1075.705 .0229200
1076.286 .0229135
1076.866 .0229058
1077.447 .0228968
1078.028 .0228892
1078.609 .0228813
1079.190 .0228707
1079.771 .0228560
1080.352 .0228394
1080.934 .0228207
1081.515 .0227992
1082.097 .0227784
1082.679 .0227577
1083.260 .0227390
1083.842 .0227263
1084.424 .0227168
1085.007 .0227098
1085.589 .0227056
1086.172 .0227019
1086.754 .0226971
1087.337 .0226920
1087.920 .0226860
1088.503 .0226785
1089.087 .0226718
1089.670 .0226650
1090.254 .0226552
1090.838 .0226460
1091.422 .0226382
1092.006 .0226297
1092.590 .0226229
1093.175 .0226168
1093.760 .0226112
1094.345 .0226087
1094.930 .0226058
1095.516 .0226029
1096.102 .0226015
1096.688 .0226016
1097.274 .0226005
1097.860 .0226002
1098.447 .0226035
1099.034 .0226102
1099.622 .0226224
1100.209 .0226422
1100.797 .0226647
1101.385 .0226909
1101.973 .0227189
1102.562 .0227451
1103.151 .0227700
1103.740 .0227912
1104.330 .0228103
1104.920 .0228300
1105.510 .0228498
1106.101 .0228707
1106.691 .0228922
1107.283 .0229168
1107.874 .0229426
1108.466 .0229652
1109.058 .0229877
1109.651 .0230089
1110.244 .0230272
1110.837 .0230443
1111.431 .0230591
1112.025 .0230723
1112.620 .0230832
1113.215 .0230896
1113.810 .0230929
1114.406 .0230889
1115.002 .0230797
1115.599 .0230657
1116.196 .0230450
1116.793 .0230197
1117.391 .0229895
1117.989 .0229541
1118.588 .0229187
1119.187 .0228825
1119.787 .0228473
1120.387 .0228163
1120.988 .0227919
1121.589 .0227769
1122.190 .0227667
1122.793 .0227668
1123.395 .0227737
1123.998 .0227865
1124.602 .0228061
1125.206 .0228290
1125.811 .0228544
1126.416 .0228866
1127.022 .0229241
1127.628 .0229696
1128.235 .0230245
1128.843 .0230925
1129.451 .0231692
1130.059 .0232532
1130.669 .0233368
1131.278 .0234205
1131.889 .0234974
1132.500 .0235677
1133.112 .0236245
1133.724 .0236765
1134.337 .0237213
1134.950 .0237623
1135.564 .0238058
1136.179 .0238560
1136.795 .0239170
1137.411 .0239921
1138.028 .0240766
1138.645 .0241689
1139.263 .0242685
1139.882 .0243733
1140.502 .0244812
1141.122 .0246006
1141.743 .0247409
1142.365 .0249097
1142.987 .0248908
1143.611 .0251560
1144.235 .0254228
1144.859 .0259252
1145.485 .0263495
