Measurement Sequence started on: 10-20-44-796
Integration time: 35
Scans to Average: 2 
>>>>>Begin Spectral Data<<<<<
432.953 .0395997
433.882 .0414026
434.810 .0420789
435.737 .0423599
436.662 .0396881
437.586 .0402508
438.509 .0400211
439.431 .0397551
440.351 .0395113
441.269 .0392946
442.187 .0391685
443.103 .0390288
444.018 .0389065
444.932 .0387923
445.844 .0386856
446.756 .0385894
447.666 .0385183
448.575 .0384477
449.482 .0383909
450.388 .0383385
451.294 .0382884
452.198 .0382231
453.100 .0381512
454.002 .0380800
454.902 .0380193
455.801 .0379626
456.699 .0379124
457.596 .0378593
458.492 .0378104
459.387 .0377610
460.280 .0377095
461.172 .0376535
462.064 .0375966
462.954 .0375403
463.843 .0374826
464.730 .0374268
465.617 .0373849
466.503 .0373452
467.387 .0373133
468.271 .0372824
469.153 .0372522
470.035 .0372193
470.915 .0371880
471.794 .0371537
472.673 .0371200
473.550 .0370874
474.426 .0370540
475.301 .0370203
476.175 .0369907
477.048 .0369593
477.920 .0369228
478.791 .0368849
479.661 .0368458
480.530 .0368003
481.398 .0367566
482.266 .0367147
483.132 .0366768
483.997 .0366398
484.861 .0366045
485.724 .0365726
486.587 .0365433
487.448 .0365148
488.308 .0364826
489.168 .0364511
490.026 .0364207
490.884 .0363921
491.741 .0363634
492.597 .0363383
493.452 .0363152
494.306 .0362903
495.159 .0362635
496.011 .0362344
496.862 .0362002
497.713 .0361600
498.562 .0361125
499.411 .0360581
500.259 .0359956
501.106 .0359314
501.952 .0358626
502.798 .0357956
503.642 .0357275
504.486 .0356575
505.329 .0355781
506.171 .0354960
507.012 .0354048
507.852 .0353080
508.692 .0352078
509.531 .0351018
510.369 .0349917
511.206 .0348822
512.043 .0347714
512.878 .0346605
513.713 .0345469
514.547 .0344305
515.381 .0343007
516.213 .0341642
517.045 .0340188
517.876 .0338648
518.706 .0337099
519.536 .0335600
520.365 .0334135
521.193 .0332727
522.020 .0331310
522.847 .0329801
523.673 .0328142
524.498 .0326248
525.323 .0324035
526.146 .0321595
526.969 .0319001
527.792 .0316339
528.614 .0313662
529.435 .0311200
530.255 .0308984
531.075 .0306984
531.894 .0305240
532.712 .0303614
533.530 .0302127
534.347 .0300791
535.163 .0299522
535.979 .0298450
536.794 .0297660
537.608 .0297320
538.422 .0297352
539.235 .0297770
540.048 .0298501
540.860 .0299419
541.671 .0300403
542.481 .0301266
543.292 .0301893
544.101 .0302285
544.910 .0302455
545.718 .0302408
546.526 .0302215
547.333 .0302046
548.139 .0301904
548.945 .0301895
549.750 .0301909
550.555 .0302011
551.359 .0302097
552.162 .0302182
552.965 .0302260
553.768 .0302285
554.569 .0302333
555.371 .0302378
556.171 .0302533
556.972 .0302857
557.771 .0303325
558.570 .0303977
559.369 .0304818
560.167 .0305826
560.964 .0306902
561.761 .0308027
562.558 .0309132
563.354 .0310220
564.149 .0311257
564.944 .0312210
565.738 .0313145
566.532 .0314049
567.325 .0314934
568.118 .0315765
568.910 .0316601
569.702 .0317412
570.494 .0318187
571.285 .0318934
572.075 .0319604
572.865 .0320207
573.654 .0320718
574.443 .0321118
575.232 .0321433
576.020 .0321680
576.807 .0321878
577.594 .0322037
578.381 .0322202
579.167 .0322354
579.952 .0322545
580.738 .0322770
581.522 .0323043
582.307 .0323333
583.091 .0323658
583.874 .0323987
584.657 .0324327
585.440 .0324658
586.222 .0324985
587.004 .0325301
587.785 .0325623
588.566 .0325914
589.346 .0326183
590.126 .0326422
590.906 .0326622
591.685 .0326769
592.464 .0326878
593.242 .0326947
594.020 .0326994
594.797 .0327013
595.575 .0327011
596.351 .0326981
597.128 .0326934
597.904 .0326853
598.679 .0326751
599.454 .0326627
600.229 .0326495
601.004 .0326363
601.778 .0326242
602.551 .0326137
603.325 .0326049
604.097 .0325967
604.870 .0325881
605.642 .0325776
606.414 .0325641
607.185 .0325468
607.956 .0325272
608.727 .0325068
609.497 .0324865
610.267 .0324669
611.037 .0324489
611.806 .0324325
612.575 .0324165
613.344 .0324001
614.112 .0323816
614.880 .0323606
615.647 .0323369
616.414 .0323111
617.181 .0322843
617.948 .0322588
618.714 .0322355
619.480 .0322142
620.245 .0321951
621.011 .0321778
621.775 .0321595
622.540 .0321405
623.304 .0321197
624.068 .0320967
624.832 .0320717
625.595 .0320454
626.358 .0320185
627.120 .0319925
627.883 .0319673
628.645 .0319429
629.406 .0319184
630.168 .0318938
630.929 .0318672
631.689 .0318389
632.450 .0318093
633.210 .0317785
633.970 .0317466
634.729 .0317153
635.489 .0316840
636.248 .0316537
637.006 .0316244
637.765 .0315955
638.523 .0315666
639.280 .0315373
640.038 .0315070
640.795 .0314764
641.552 .0314465
642.309 .0314182
643.065 .0313916
643.821 .0313685
644.577 .0313478
645.332 .0313292
646.088 .0313121
646.843 .0312956
647.597 .0312784
648.352 .0312606
649.106 .0312415
649.860 .0312210
650.613 .0311999
651.367 .0311788
652.120 .0311578
652.872 .0311372
653.625 .0311171
654.377 .0310967
655.129 .0310760
655.881 .0310548
656.632 .0310330
657.384 .0310116
658.135 .0309913
658.885 .0309722
659.636 .0309546
660.386 .0309388
661.136 .0309246
661.885 .0309109
662.635 .0308980
663.384 .0308847
664.133 .0308711
664.881 .0308565
665.630 .0308421
666.378 .0308276
667.126 .0308131
667.874 .0307988
668.621 .0307845
669.368 .0307695
670.115 .0307533
670.862 .0307353
671.608 .0307164
672.354 .0306969
673.100 .0306770
673.846 .0306569
674.591 .0306378
675.337 .0306199
676.082 .0306036
676.826 .0305882
677.571 .0305745
678.315 .0305615
679.059 .0305490
679.803 .0305369
680.547 .0305250
681.290 .0305135
682.033 .0305020
682.776 .0304900
683.518 .0304773
684.261 .0304633
685.003 .0304480
685.745 .0304313
686.487 .0304143
687.228 .0303967
687.969 .0303789
688.710 .0303610
689.451 .0303434
690.192 .0303259
690.932 .0303076
691.672 .0302882
692.412 .0302675
693.152 .0302453
693.891 .0302217
694.630 .0301971
695.369 .0301728
696.108 .0301489
696.846 .0301259
697.585 .0301033
698.323 .0300814
699.061 .0300603
699.798 .0300394
700.536 .0300186
701.273 .0299979
702.010 .0299774
702.746 .0299566
703.483 .0299360
704.219 .0299156
704.955 .0298955
705.691 .0298757
706.427 .0298557
707.162 .0298361
707.897 .0298165
708.632 .0297969
709.367 .0297773
710.101 .0297576
710.835 .0297376
711.569 .0297168
712.303 .0296951
713.037 .0296727
713.770 .0296497
714.503 .0296263
715.236 .0296027
715.969 .0295794
716.702 .0295568
717.434 .0295352
718.166 .0295142
718.898 .0294936
719.629 .0294727
720.361 .0294518
721.092 .0294300
721.823 .0294077
722.554 .0293846
723.284 .0293605
724.014 .0293355
724.744 .0293101
725.474 .0292836
726.204 .0292566
726.933 .0292297
727.662 .0292029
728.391 .0291767
729.120 .0291512
729.849 .0291267
730.577 .0291038
731.305 .0290820
732.033 .0290616
732.760 .0290411
733.488 .0290216
734.215 .0290024
734.942 .0289839
735.669 .0289662
736.395 .0289497
737.122 .0289342
737.848 .0289196
738.573 .0289053
739.299 .0288909
740.024 .0288760
740.750 .0288602
741.474 .0288431
742.199 .0288248
742.924 .0288052
743.648 .0287855
744.372 .0287657
745.096 .0287470
745.819 .0287292
746.543 .0287121
747.266 .0286958
747.989 .0286804
748.711 .0286653
749.434 .0286506
750.156 .0286369
750.878 .0286246
751.599 .0286134
752.321 .0286038
753.042 .0285961
753.763 .0285901
754.484 .0285855
755.205 .0285809
755.925 .0285759
756.645 .0285706
757.365 .0285640
758.085 .0285559
758.804 .0285467
759.523 .0285366
760.242 .0285254
760.961 .0285127
761.679 .0284993
762.397 .0284844
763.115 .0284683
763.833 .0284508
764.551 .0284317
765.268 .0284109
765.985 .0283889
766.702 .0283659
767.418 .0283430
768.134 .0283204
768.850 .0282984
769.566 .0282768
770.282 .0282567
770.997 .0282373
771.712 .0282188
772.427 .0282010
773.142 .0281841
773.856 .0281672
774.570 .0281508
775.284 .0281344
775.998 .0281181
776.711 .0281024
777.424 .0280875
778.137 .0280730
778.849 .0280592
779.562 .0280457
780.274 .0280326
780.986 .0280197
781.697 .0280077
782.409 .0279960
783.120 .0279856
783.831 .0279769
784.541 .0279697
785.252 .0279645
785.962 .0279616
786.671 .0279601
787.381 .0279597
788.090 .0279597
788.799 .0279593
789.508 .0279577
790.217 .0279556
790.925 .0279523
791.633 .0279484
792.341 .0279437
793.048 .0279378
793.755 .0279307
794.462 .0279220
795.169 .0279114
795.875 .0278985
796.581 .0278837
797.287 .0278675
797.993 .0278501
798.698 .0278329
799.403 .0278162
800.108 .0278006
800.812 .0277863
801.517 .0277730
802.221 .0277604
802.924 .0277480
803.628 .0277360
804.331 .0277244
805.034 .0277137
805.736 .0277040
806.439 .0276958
807.141 .0276893
807.843 .0276842
808.544 .0276797
809.245 .0276754
809.946 .0276701
810.647 .0276635
811.347 .0276550
812.047 .0276454
812.747 .0276351
813.447 .0276248
814.146 .0276143
814.845 .0276043
815.543 .0275946
816.242 .0275850
816.940 .0275750
817.638 .0275650
818.335 .0275545
819.032 .0275433
819.729 .0275316
820.426 .0275196
821.122 .0275073
821.818 .0274949
822.514 .0274822
823.209 .0274694
823.905 .0274560
824.599 .0274421
825.294 .0274271
825.988 .0274119
826.682 .0273961
827.376 .0273795
828.069 .0273626
828.762 .0273448
829.455 .0273258
830.147 .0273061
830.840 .0272860
831.531 .0272659
832.223 .0272463
832.914 .0272275
833.605 .0272098
834.296 .0271940
834.986 .0271799
835.676 .0271669
836.366 .0271552
837.055 .0271446
837.744 .0271340
838.433 .0271232
839.121 .0271122
839.809 .0271008
840.497 .0270896
841.185 .0270781
841.872 .0270665
842.559 .0270551
843.245 .0270441
843.932 .0270332
844.617 .0270224
845.303 .0270114
845.988 .0270001
846.673 .0269884
847.358 .0269763
848.042 .0269633
848.726 .0269496
849.410 .0269356
850.093 .0269218
850.776 .0269087
851.459 .0268961
852.141 .0268841
852.823 .0268731
853.505 .0268628
854.186 .0268524
854.867 .0268415
855.548 .0268301
856.228 .0268178
856.908 .0268046
857.588 .0267903
858.267 .0267750
858.946 .0267592
859.625 .0267435
860.303 .0267280
860.981 .0267129
861.659 .0266985
862.336 .0266843
863.013 .0266706
863.690 .0266568
864.366 .0266423
865.042 .0266272
865.718 .0266117
866.393 .0265959
867.068 .0265799
867.743 .0265642
868.417 .0265491
869.091 .0265348
869.765 .0265213
870.438 .0265079
871.111 .0264942
871.783 .0264802
872.456 .0264653
873.127 .0264493
873.799 .0264323
874.470 .0264146
875.141 .0263970
875.811 .0263796
876.481 .0263626
877.151 .0263468
877.820 .0263319
878.489 .0263181
879.158 .0263052
879.826 .0262929
880.494 .0262811
881.162 .0262696
881.829 .0262586
882.496 .0262479
883.163 .0262376
883.829 .0262280
884.495 .0262187
885.160 .0262103
885.825 .0262026
886.490 .0261954
887.154 .0261888
887.818 .0261822
888.482 .0261751
889.145 .0261678
889.808 .0261601
890.471 .0261522
891.133 .0261440
891.795 .0261359
892.456 .0261277
893.117 .0261196
893.778 .0261117
894.439 .0261038
895.099 .0260959
895.758 .0260882
896.417 .0260801
897.076 .0260720
897.735 .0260642
898.393 .0260571
899.051 .0260506
899.708 .0260448
900.365 .0260391
901.022 .0260330
901.678 .0260264
902.334 .0260187
902.990 .0260099
903.645 .0259999
904.300 .0259891
904.954 .0259774
905.608 .0259647
906.262 .0259514
906.915 .0259379
907.568 .0259240
908.221 .0259100
908.873 .0258955
909.525 .0258804
910.176 .0258652
910.828 .0258496
911.478 .0258338
912.129 .0258180
912.778 .0258018
913.428 .0257857
914.077 .0257693
914.726 .0257534
915.375 .0257381
916.023 .0257240
916.670 .0257115
917.318 .0257001
917.964 .0256898
918.611 .0256802
919.257 .0256707
919.903 .0256614
920.548 .0256517
921.193 .0256418
921.838 .0256317
922.482 .0256219
923.126 .0256128
923.770 .0256044
924.413 .0255969
925.056 .0255906
925.698 .0255849
926.340 .0255793
926.982 .0255735
927.623 .0255674
928.264 .0255605
928.904 .0255525
929.544 .0255432
930.184 .0255329
930.823 .0255217
931.462 .0255103
932.101 .0254988
932.739 .0254879
933.377 .0254778
934.014 .0254680
934.651 .0254591
935.288 .0254509
935.924 .0254425
936.560 .0254336
937.196 .0254242
937.831 .0254138
938.466 .0254022
939.100 .0253898
939.734 .0253771
940.368 .0253644
941.001 .0253524
941.634 .0253397
942.266 .0253267
942.899 .0253131
943.530 .0252983
944.162 .0252816
944.793 .0252633
945.423 .0252432
946.053 .0252212
946.683 .0251981
947.313 .0251749
947.942 .0251515
948.571 .0251292
949.199 .0251081
949.827 .0250878
950.455 .0250685
951.082 .0250506
951.709 .0250337
952.335 .0250185
952.961 .0250047
953.587 .0249920
954.212 .0249798
954.837 .0249685
955.462 .0249575
956.086 .0249467
956.710 .0249368
957.334 .0249271
957.957 .0249176
958.579 .0249087
959.202 .0248997
959.824 .0248905
960.445 .0248816
961.067 .0248724
961.688 .0248623
962.308 .0248514
962.928 .0248400
963.548 .0248278
964.168 .0248154
964.787 .0248032
965.406 .0247906
966.024 .0247781
966.642 .0247655
967.260 .0247523
967.877 .0247393
968.494 .0247263
969.110 .0247133
969.727 .0247000
970.342 .0246874
970.958 .0246753
971.573 .0246640
972.188 .0246542
972.802 .0246459
973.416 .0246383
974.030 .0246318
974.643 .0246255
975.256 .0246197
975.869 .0246142
976.481 .0246092
977.093 .0246048
977.705 .0246013
978.316 .0245990
978.927 .0245974
979.538 .0245960
980.148 .0245953
980.758 .0245941
981.367 .0245923
981.977 .0245901
982.586 .0245873
983.194 .0245845
983.802 .0245822
984.410 .0245805
985.018 .0245796
985.625 .0245798
986.232 .0245810
986.838 .0245822
987.445 .0245835
988.050 .0245843
988.656 .0245840
989.261 .0245829
989.866 .0245804
990.471 .0245762
991.075 .0245711
991.679 .0245647
992.282 .0245571
992.886 .0245494
993.489 .0245413
994.091 .0245333
994.694 .0245254
995.296 .0245181
995.897 .0245110
996.499 .0245042
997.100 .0244977
997.701 .0244919
998.301 .0244871
998.901 .0244835
999.501 .0244811
1000.101 .0244814
1000.700 .0244846
1001.299 .0244905
1001.898 .0244990
1002.496 .0245091
1003.094 .0245201
1003.692 .0245302
1004.289 .0245388
1004.887 .0245457
1005.484 .0245505
1006.080 .0245534
1006.677 .0245552
1007.273 .0245565
1007.868 .0245580
1008.464 .0245601
1009.059 .0245634
1009.654 .0245679
1010.249 .0245729
1010.843 .0245775
1011.437 .0245807
1012.031 .0245826
1012.625 .0245836
1013.218 .0245826
1013.811 .0245813
1014.404 .0245798
1014.997 .0245785
1015.589 .0245777
1016.181 .0245775
1016.773 .0245780
1017.365 .0245786
1017.956 .0245788
1018.547 .0245771
1019.138 .0245732
1019.728 .0245680
1020.319 .0245604
1020.909 .0245520
1021.499 .0245433
1022.088 .0245347
1022.678 .0245261
1023.267 .0245184
1023.856 .0245120
1024.445 .0245073
1025.033 .0245044
1025.621 .0245030
1026.209 .0245032
1026.797 .0245040
1027.385 .0245056
1027.972 .0245078
1028.560 .0245114
1029.147 .0245155
1029.734 .0245203
1030.320 .0245261
1030.907 .0245323
1031.493 .0245395
1032.079 .0245480
1032.665 .0245570
1033.250 .0245664
1033.836 .0245743
1034.421 .0245804
1035.006 .0245839
1035.591 .0245854
1036.176 .0245846
1036.761 .0245828
1037.345 .0245802
1037.929 .0245770
1038.514 .0245733
1039.097 .0245695
1039.681 .0245654
1040.265 .0245613
1040.848 .0245568
1041.432 .0245519
1042.015 .0245466
1042.598 .0245410
1043.181 .0245354
1043.764 .0245311
1044.346 .0245273
1044.929 .0245239
1045.511 .0245207
1046.094 .0245172
1046.676 .0245136
1047.258 .0245102
1047.840 .0245071
1048.422 .0245045
1049.003 .0245024
1049.585 .0244999
1050.166 .0244974
1050.748 .0244955
1051.329 .0244937
1051.910 .0244921
1052.491 .0244912
1053.072 .0244906
1053.653 .0244909
1054.234 .0244932
1054.815 .0244966
1055.396 .0245017
1055.976 .0245078
1056.557 .0245130
1057.138 .0245165
1057.718 .0245185
1058.298 .0245181
1058.879 .0245153
1059.459 .0245108
1060.039 .0245047
1060.620 .0244964
1061.200 .0244869
1061.780 .0244750
1062.360 .0244620
1062.940 .0244475
1063.520 .0244314
1064.101 .0244141
1064.681 .0243972
1065.261 .0243799
1065.841 .0243628
1066.421 .0243464
1067.001 .0243308
1067.581 .0243149
1068.161 .0242993
1068.741 .0242850
1069.321 .0242736
1069.901 .0242656
1070.482 .0242611
1071.062 .0242600
1071.642 .0242626
1072.222 .0242664
1072.803 .0242704
1073.383 .0242730
1073.963 .0242738
1074.544 .0242723
1075.124 .0242690
1075.705 .0242645
1076.286 .0242588
1076.866 .0242525
1077.447 .0242462
1078.028 .0242386
1078.609 .0242294
1079.190 .0242173
1079.771 .0242003
1080.352 .0241802
1080.934 .0241573
1081.515 .0241326
1082.097 .0241088
1082.679 .0240883
1083.260 .0240714
1083.842 .0240580
1084.424 .0240492
1085.007 .0240445
1085.589 .0240426
1086.172 .0240464
1086.754 .0240529
1087.337 .0240619
1087.920 .0240749
1088.503 .0240901
1089.087 .0241067
1089.670 .0241257
1090.254 .0241455
1090.838 .0241623
1091.422 .0241759
1092.006 .0241852
1092.590 .0241894
1093.175 .0241895
1093.760 .0241865
1094.345 .0241806
1094.930 .0241740
1095.516 .0241668
1096.102 .0241575
1096.688 .0241465
1097.274 .0241349
1097.860 .0241197
1098.447 .0241027
1099.034 .0240835
1099.622 .0240647
1100.209 .0240452
1100.797 .0240273
1101.385 .0240117
1101.973 .0239985
1102.562 .0239849
1103.151 .0239707
1103.740 .0239555
1104.330 .0239380
1104.920 .0239156
1105.510 .0238916
1106.101 .0238653
1106.691 .0238404
1107.283 .0238159
1107.874 .0237960
1108.466 .0237804
1109.058 .0237724
1109.651 .0237699
1110.244 .0237730
1110.837 .0237806
1111.431 .0237915
1112.025 .0238029
1112.620 .0238189
1113.215 .0238385
1113.810 .0238590
1114.406 .0238822
1115.002 .0239098
1115.599 .0239374
1116.196 .0239636
1116.793 .0239841
1117.391 .0240017
1117.989 .0240102
1118.588 .0240123
1119.187 .0240045
1119.787 .0239883
1120.387 .0239688
1120.988 .0239451
1121.589 .0239209
1122.190 .0239011
1122.793 .0238868
1123.395 .0238794
1123.998 .0238784
1124.602 .0238884
1125.206 .0239028
1125.811 .0239245
1126.416 .0239514
1127.022 .0239828
1127.628 .0240183
1128.235 .0240611
1128.843 .0241086
1129.451 .0241621
1130.059 .0242223
1130.669 .0242860
1131.278 .0243553
1131.889 .0244267
1132.500 .0244948
1133.112 .0245581
1133.724 .0246136
1134.337 .0246623
1134.950 .0246981
1135.564 .0247286
1136.179 .0247573
1136.795 .0247916
1137.411 .0248366
1138.028 .0248896
1138.645 .0249560
1139.263 .0250358
1139.882 .0251151
1140.502 .0252029
1141.122 .0252959
1141.743 .0254032
1142.365 .0255143
1142.987 .0253474
1143.611 .0257416
1144.235 .0259515
1144.859 .0262400
1145.485 .0261695
