Measurement Sequence started on: 10-20-44-796
Integration time: 35
Scans to Average: 2 
>>>>>Begin Spectral Data<<<<<
432.953 .0530451
433.882 .0415823
434.810 .0373348
435.737 .0349027
436.662 .0345817
437.586 .0356504
438.509 .0345582
439.431 .0340114
440.351 .0336685
441.269 .0334431
442.187 .0332748
443.103 .0331435
444.018 .0330822
444.932 .0330622
445.844 .0330493
446.756 .0330397
447.666 .0330104
448.575 .0329414
449.482 .0328460
450.388 .0327273
451.294 .0325835
452.198 .0324390
453.100 .0323153
454.002 .0322063
454.902 .0321199
455.801 .0320592
456.699 .0320168
457.596 .0319863
458.492 .0319729
459.387 .0319688
460.280 .0319662
461.172 .0319669
462.064 .0319652
462.954 .0319613
463.843 .0319673
464.730 .0319748
465.617 .0319860
466.503 .0319956
467.387 .0320049
468.271 .0320059
469.153 .0319979
470.035 .0319787
470.915 .0319490
471.794 .0319072
472.673 .0318574
473.550 .0317997
474.426 .0317420
475.301 .0316881
476.175 .0316399
477.048 .0315962
477.920 .0315592
478.791 .0315249
479.661 .0314944
480.530 .0314656
481.398 .0314396
482.266 .0314148
483.132 .0313948
483.997 .0313783
484.861 .0313639
485.724 .0313572
486.587 .0313550
487.448 .0313546
488.308 .0313545
489.168 .0313532
490.026 .0313465
490.884 .0313341
491.741 .0313146
492.597 .0312862
493.452 .0312490
494.306 .0312082
495.159 .0311626
496.011 .0311173
496.862 .0310718
497.713 .0310241
498.562 .0309741
499.411 .0309255
500.259 .0308701
501.106 .0308063
501.952 .0307321
502.798 .0306535
503.642 .0305648
504.486 .0304731
505.329 .0303800
506.171 .0302909
507.012 .0302082
507.852 .0301330
508.692 .0300587
509.531 .0299872
510.369 .0299146
511.206 .0298416
512.043 .0297590
512.878 .0296709
513.713 .0295705
514.547 .0294634
515.381 .0293530
516.213 .0292391
517.045 .0291153
517.876 .0289874
518.706 .0288526
519.536 .0287132
520.365 .0285627
521.193 .0284095
522.020 .0282518
522.847 .0280960
523.673 .0279409
524.498 .0277873
525.323 .0276362
526.146 .0274974
526.969 .0273670
527.792 .0272482
528.614 .0271338
529.435 .0270314
530.255 .0269424
531.075 .0268658
531.894 .0267986
532.712 .0267386
533.530 .0266757
534.347 .0266129
535.163 .0265328
535.979 .0264381
536.794 .0263339
537.608 .0262203
538.422 .0261078
539.235 .0259961
540.048 .0258973
540.860 .0258155
541.671 .0257523
542.481 .0257118
543.292 .0256795
544.101 .0256568
544.910 .0256398
545.718 .0256207
546.526 .0256070
547.333 .0255969
548.139 .0255967
548.945 .0256091
549.750 .0256308
550.555 .0256596
551.359 .0256970
552.162 .0257379
552.965 .0257795
553.768 .0258146
554.569 .0258469
555.371 .0258773
556.171 .0259050
556.972 .0259410
557.771 .0259847
558.570 .0260389
559.369 .0261051
560.167 .0261793
560.964 .0262610
561.761 .0263459
562.558 .0264350
563.354 .0265307
564.149 .0266283
564.944 .0267253
565.738 .0268238
566.532 .0269225
567.325 .0270209
568.118 .0271149
568.910 .0272040
569.702 .0272903
570.494 .0273738
571.285 .0274547
572.075 .0275323
572.865 .0276105
573.654 .0276883
574.443 .0277627
575.232 .0278357
576.020 .0279073
576.807 .0279772
577.594 .0280467
578.381 .0281183
579.167 .0281887
579.952 .0282590
580.738 .0283292
581.522 .0283978
582.307 .0284624
583.091 .0285225
583.874 .0285768
584.657 .0286255
585.440 .0286689
586.222 .0287070
587.004 .0287402
587.785 .0287710
588.566 .0287980
589.346 .0288206
590.126 .0288390
590.906 .0288532
591.685 .0288625
592.464 .0288701
593.242 .0288750
594.020 .0288779
594.797 .0288798
595.575 .0288815
596.351 .0288825
597.128 .0288831
597.904 .0288829
598.679 .0288817
599.454 .0288798
600.229 .0288782
601.004 .0288767
601.778 .0288750
602.551 .0288731
603.325 .0288708
604.097 .0288678
604.870 .0288634
605.642 .0288569
606.414 .0288487
607.185 .0288391
607.956 .0288294
608.727 .0288196
609.497 .0288106
610.267 .0288029
611.037 .0287960
611.806 .0287892
612.575 .0287821
613.344 .0287736
614.112 .0287632
614.880 .0287510
615.647 .0287369
616.414 .0287204
617.181 .0287024
617.948 .0286834
618.714 .0286638
619.480 .0286440
620.245 .0286236
621.011 .0286021
621.775 .0285804
622.540 .0285580
623.304 .0285349
624.068 .0285120
624.832 .0284898
625.595 .0284684
626.358 .0284476
627.120 .0284276
627.883 .0284081
628.645 .0283903
629.406 .0283739
630.168 .0283590
630.929 .0283458
631.689 .0283344
632.450 .0283242
633.210 .0283152
633.970 .0283074
634.729 .0283000
635.489 .0282921
636.248 .0282834
637.006 .0282731
637.765 .0282610
638.523 .0282469
639.280 .0282318
640.038 .0282156
640.795 .0281991
641.552 .0281816
642.309 .0281642
643.065 .0281469
643.821 .0281301
644.577 .0281126
645.332 .0280952
646.088 .0280780
646.843 .0280604
647.597 .0280422
648.352 .0280242
649.106 .0280072
649.860 .0279913
650.613 .0279767
651.367 .0279639
652.120 .0279523
652.872 .0279423
653.625 .0279335
654.377 .0279255
655.129 .0279183
655.881 .0279110
656.632 .0279033
657.384 .0278951
658.135 .0278869
658.885 .0278783
659.636 .0278696
660.386 .0278606
661.136 .0278512
661.885 .0278406
662.635 .0278288
663.384 .0278158
664.133 .0278020
664.881 .0277873
665.630 .0277727
666.378 .0277584
667.126 .0277452
667.874 .0277329
668.621 .0277221
669.368 .0277123
670.115 .0277029
670.862 .0276929
671.608 .0276822
672.354 .0276706
673.100 .0276584
673.846 .0276460
674.591 .0276339
675.337 .0276224
676.082 .0276116
676.826 .0276007
677.571 .0275896
678.315 .0275777
679.059 .0275647
679.803 .0275503
680.547 .0275349
681.290 .0275183
682.033 .0275014
682.776 .0274846
683.518 .0274682
684.261 .0274522
685.003 .0274366
685.745 .0274210
686.487 .0274050
687.228 .0273885
687.969 .0273717
688.710 .0273540
689.451 .0273359
690.192 .0273175
690.932 .0272992
691.672 .0272807
692.412 .0272621
693.152 .0272436
693.891 .0272249
694.630 .0272061
695.369 .0271873
696.108 .0271681
696.846 .0271489
697.585 .0271299
698.323 .0271107
699.061 .0270916
699.798 .0270730
700.536 .0270544
701.273 .0270358
702.010 .0270178
702.746 .0270001
703.483 .0269827
704.219 .0269661
704.955 .0269502
705.691 .0269344
706.427 .0269192
707.162 .0269042
707.897 .0268891
708.632 .0268743
709.367 .0268596
710.101 .0268448
710.835 .0268306
711.569 .0268167
712.303 .0268026
713.037 .0267885
713.770 .0267751
714.503 .0267610
715.236 .0267465
715.969 .0267313
716.702 .0267155
717.434 .0266987
718.166 .0266810
718.898 .0266623
719.629 .0266429
720.361 .0266235
721.092 .0266035
721.823 .0265834
722.554 .0265635
723.284 .0265438
724.014 .0265240
724.744 .0265039
725.474 .0264838
726.204 .0264632
726.933 .0264425
727.662 .0264215
728.391 .0264007
729.120 .0263800
729.849 .0263599
730.577 .0263406
731.305 .0263217
732.033 .0263036
732.760 .0262857
733.488 .0262681
734.215 .0262506
734.942 .0262325
735.669 .0262136
736.395 .0261942
737.122 .0261750
737.848 .0261556
738.573 .0261371
739.299 .0261195
740.024 .0261032
740.750 .0260887
741.474 .0260756
742.199 .0260636
742.924 .0260528
743.648 .0260428
744.372 .0260331
745.096 .0260238
745.819 .0260150
746.543 .0260063
747.266 .0259985
747.989 .0259913
748.711 .0259848
749.434 .0259794
750.156 .0259749
750.878 .0259715
751.599 .0259695
752.321 .0259688
753.042 .0259687
753.763 .0259693
754.484 .0259704
755.205 .0259713
755.925 .0259716
756.645 .0259709
757.365 .0259693
758.085 .0259664
758.804 .0259622
759.523 .0259564
760.242 .0259493
760.961 .0259408
761.679 .0259311
762.397 .0259198
763.115 .0259068
763.833 .0258920
764.551 .0258757
765.268 .0258577
765.985 .0258384
766.702 .0258177
767.418 .0257964
768.134 .0257747
768.850 .0257536
769.566 .0257330
770.282 .0257137
770.997 .0256961
771.712 .0256809
772.427 .0256678
773.142 .0256570
773.856 .0256476
774.570 .0256394
775.284 .0256320
775.998 .0256249
776.711 .0256177
777.424 .0256104
778.137 .0256030
778.849 .0255957
779.562 .0255886
780.274 .0255816
780.986 .0255747
781.697 .0255680
782.409 .0255610
783.120 .0255534
783.831 .0255451
784.541 .0255365
785.252 .0255279
785.962 .0255192
786.671 .0255111
787.381 .0255033
788.090 .0254958
788.799 .0254886
789.508 .0254810
790.217 .0254723
790.925 .0254626
791.633 .0254515
792.341 .0254390
793.048 .0254251
793.755 .0254102
794.462 .0253943
795.169 .0253779
795.875 .0253620
796.581 .0253459
797.287 .0253300
797.993 .0253149
798.698 .0253004
799.403 .0252866
800.108 .0252733
800.812 .0252605
801.517 .0252479
802.221 .0252357
802.924 .0252235
803.628 .0252116
804.331 .0252004
805.034 .0251900
805.736 .0251802
806.439 .0251712
807.141 .0251628
807.843 .0251543
808.544 .0251456
809.245 .0251359
809.946 .0251246
810.647 .0251121
811.347 .0250980
812.047 .0250831
812.747 .0250681
813.447 .0250532
814.146 .0250386
814.845 .0250251
815.543 .0250122
816.242 .0250000
816.940 .0249884
817.638 .0249769
818.335 .0249653
819.032 .0249535
819.729 .0249416
820.426 .0249295
821.122 .0249172
821.818 .0249046
822.514 .0248912
823.209 .0248776
823.905 .0248634
824.599 .0248482
825.294 .0248326
825.988 .0248161
826.682 .0247989
827.376 .0247811
828.069 .0247629
828.762 .0247440
829.455 .0247249
830.147 .0247059
830.840 .0246871
831.531 .0246683
832.223 .0246500
832.914 .0246321
833.605 .0246147
834.296 .0245977
834.986 .0245809
835.676 .0245639
836.366 .0245471
837.055 .0245299
837.744 .0245129
838.433 .0244957
839.121 .0244791
839.809 .0244624
840.497 .0244461
841.185 .0244302
841.872 .0244142
842.559 .0243984
843.245 .0243830
843.932 .0243675
844.617 .0243526
845.303 .0243379
845.988 .0243238
846.673 .0243101
847.358 .0242971
848.042 .0242848
848.726 .0242733
849.410 .0242628
850.093 .0242530
850.776 .0242441
851.459 .0242361
852.141 .0242283
852.823 .0242207
853.505 .0242130
854.186 .0242044
854.867 .0241951
855.548 .0241848
856.228 .0241739
856.908 .0241629
857.588 .0241524
858.267 .0241426
858.946 .0241334
859.625 .0241249
860.303 .0241171
860.981 .0241096
861.659 .0241022
862.336 .0240940
863.013 .0240853
863.690 .0240763
864.366 .0240669
865.042 .0240572
865.718 .0240476
866.393 .0240379
867.068 .0240285
867.743 .0240187
868.417 .0240082
869.091 .0239968
869.765 .0239846
870.438 .0239718
871.111 .0239582
871.783 .0239441
872.456 .0239297
873.127 .0239150
873.799 .0239006
874.470 .0238857
875.141 .0238712
875.811 .0238571
876.481 .0238434
877.151 .0238305
877.820 .0238184
878.489 .0238079
879.158 .0237985
879.826 .0237910
880.494 .0237847
881.162 .0237792
881.829 .0237745
882.496 .0237699
883.163 .0237654
883.829 .0237611
884.495 .0237571
885.160 .0237537
885.825 .0237514
886.490 .0237501
887.154 .0237494
887.818 .0237500
888.482 .0237515
889.145 .0237535
889.808 .0237555
890.471 .0237575
891.133 .0237588
891.795 .0237594
892.456 .0237596
893.117 .0237589
893.778 .0237581
894.439 .0237572
895.099 .0237557
895.758 .0237540
896.417 .0237525
897.076 .0237507
897.735 .0237483
898.393 .0237462
899.051 .0237438
899.708 .0237411
900.365 .0237385
901.022 .0237356
901.678 .0237327
902.334 .0237298
902.990 .0237272
903.645 .0237244
904.300 .0237224
904.954 .0237214
905.608 .0237211
906.262 .0237223
906.915 .0237248
907.568 .0237275
908.221 .0237304
908.873 .0237328
909.525 .0237338
910.176 .0237333
910.828 .0237315
911.478 .0237284
912.129 .0237243
912.778 .0237195
913.428 .0237148
914.077 .0237101
914.726 .0237058
915.375 .0237013
916.023 .0236962
916.670 .0236905
917.318 .0236834
917.964 .0236749
918.611 .0236652
919.257 .0236549
919.903 .0236443
920.548 .0236344
921.193 .0236259
921.838 .0236191
922.482 .0236141
923.126 .0236106
923.770 .0236082
924.413 .0236058
925.056 .0236034
925.698 .0236008
926.340 .0235979
926.982 .0235952
927.623 .0235923
928.264 .0235898
928.904 .0235878
929.544 .0235864
930.184 .0235851
930.823 .0235838
931.462 .0235818
932.101 .0235789
932.739 .0235743
933.377 .0235683
934.014 .0235608
934.651 .0235521
935.288 .0235424
935.924 .0235318
936.560 .0235211
937.196 .0235103
937.831 .0234993
938.466 .0234886
939.100 .0234776
939.734 .0234667
940.368 .0234559
941.001 .0234451
941.634 .0234348
942.266 .0234251
942.899 .0234159
943.530 .0234070
944.162 .0233981
944.793 .0233893
945.423 .0233802
946.053 .0233709
946.683 .0233611
947.313 .0233505
947.942 .0233392
948.571 .0233270
949.199 .0233140
949.827 .0232998
950.455 .0232843
951.082 .0232678
951.709 .0232503
952.335 .0232319
952.961 .0232131
953.587 .0231938
954.212 .0231747
954.837 .0231553
955.462 .0231358
956.086 .0231166
956.710 .0230978
957.334 .0230796
957.957 .0230615
958.579 .0230440
959.202 .0230272
959.824 .0230109
960.445 .0229957
961.067 .0229813
961.688 .0229680
962.308 .0229561
962.928 .0229452
963.548 .0229354
964.168 .0229262
964.787 .0229174
965.406 .0229091
966.024 .0229009
966.642 .0228931
967.260 .0228850
967.877 .0228770
968.494 .0228693
969.110 .0228616
969.727 .0228537
970.342 .0228451
970.958 .0228364
971.573 .0228277
972.188 .0228183
972.802 .0228087
973.416 .0227989
974.030 .0227890
974.643 .0227796
975.256 .0227703
975.869 .0227609
976.481 .0227519
977.093 .0227433
977.705 .0227349
978.316 .0227271
978.927 .0227197
979.538 .0227121
980.148 .0227045
980.758 .0226968
981.367 .0226881
981.977 .0226787
982.586 .0226694
983.194 .0226597
983.802 .0226501
984.410 .0226400
985.018 .0226299
985.625 .0226198
986.232 .0226102
986.838 .0226005
987.445 .0225901
988.050 .0225794
988.656 .0225684
989.261 .0225569
989.866 .0225453
990.471 .0225334
991.075 .0225217
991.679 .0225105
992.282 .0224999
992.886 .0224898
993.489 .0224808
994.091 .0224725
994.694 .0224649
995.296 .0224576
995.897 .0224505
996.499 .0224435
997.100 .0224364
997.701 .0224298
998.301 .0224242
998.901 .0224195
999.501 .0224154
1000.101 .0224127
1000.700 .0224115
1001.299 .0224109
1001.898 .0224106
1002.496 .0224104
1003.094 .0224097
1003.692 .0224080
1004.289 .0224055
1004.887 .0224021
1005.484 .0223981
1006.080 .0223933
1006.677 .0223878
1007.273 .0223816
1007.868 .0223750
1008.464 .0223668
1009.059 .0223578
1009.654 .0223482
1010.249 .0223381
1010.843 .0223268
1011.437 .0223154
1012.031 .0223044
1012.625 .0222942
1013.218 .0222844
1013.811 .0222753
1014.404 .0222670
1014.997 .0222595
1015.589 .0222524
1016.181 .0222460
1016.773 .0222402
1017.365 .0222346
1017.956 .0222293
1018.547 .0222245
1019.138 .0222194
1019.728 .0222149
1020.319 .0222108
1020.909 .0222075
1021.499 .0222046
1022.088 .0222019
1022.678 .0221981
1023.267 .0221939
1023.856 .0221889
1024.445 .0221828
1025.033 .0221755
1025.621 .0221681
1026.209 .0221599
1026.797 .0221512
1027.385 .0221432
1027.972 .0221354
1028.560 .0221271
1029.147 .0221185
1029.734 .0221092
1030.320 .0220988
1030.907 .0220882
1031.493 .0220784
1032.079 .0220699
1032.665 .0220639
1033.250 .0220597
1033.836 .0220570
1034.421 .0220554
1035.006 .0220551
1035.591 .0220542
1036.176 .0220528
1036.761 .0220516
1037.345 .0220493
1037.929 .0220471
1038.514 .0220460
1039.097 .0220466
1039.681 .0220491
1040.265 .0220528
1040.848 .0220573
1041.432 .0220609
1042.015 .0220634
1042.598 .0220636
1043.181 .0220622
1043.764 .0220601
1044.346 .0220575
1044.929 .0220545
1045.511 .0220519
1046.094 .0220496
1046.676 .0220481
1047.258 .0220462
1047.840 .0220444
1048.422 .0220418
1049.003 .0220383
1049.585 .0220339
1050.166 .0220305
1050.748 .0220277
1051.329 .0220267
1051.910 .0220272
1052.491 .0220288
1053.072 .0220313
1053.653 .0220343
1054.234 .0220357
1054.815 .0220353
1055.396 .0220333
1055.976 .0220303
1056.557 .0220247
1057.138 .0220189
1057.718 .0220118
1058.298 .0220056
1058.879 .0220002
1059.459 .0219942
1060.039 .0219873
1060.620 .0219790
1061.200 .0219685
1061.780 .0219543
1062.360 .0219376
1062.940 .0219197
1063.520 .0219002
1064.101 .0218827
1064.681 .0218673
1065.261 .0218553
1065.841 .0218464
1066.421 .0218417
1067.001 .0218407
1067.581 .0218422
1068.161 .0218455
1068.741 .0218500
1069.321 .0218556
1069.901 .0218628
1070.482 .0218701
1071.062 .0218788
1071.642 .0218896
1072.222 .0219031
1072.803 .0219171
1073.383 .0219328
1073.963 .0219489
1074.544 .0219659
1075.124 .0219815
1075.705 .0219942
1076.286 .0220030
1076.866 .0220083
1077.447 .0220091
1078.028 .0220058
1078.609 .0219980
1079.190 .0219886
1079.771 .0219759
1080.352 .0219623
1080.934 .0219462
1081.515 .0219299
1082.097 .0219141
1082.679 .0218987
1083.260 .0218842
1083.842 .0218710
1084.424 .0218593
1085.007 .0218508
1085.589 .0218447
1086.172 .0218404
1086.754 .0218366
1087.337 .0218349
1087.920 .0218342
1088.503 .0218369
1089.087 .0218396
1089.670 .0218445
1090.254 .0218510
1090.838 .0218583
1091.422 .0218647
1092.006 .0218686
1092.590 .0218710
1093.175 .0218696
1093.760 .0218645
1094.345 .0218561
1094.930 .0218439
1095.516 .0218336
1096.102 .0218253
1096.688 .0218217
1097.274 .0218223
1097.860 .0218266
1098.447 .0218327
1099.034 .0218431
1099.622 .0218539
1100.209 .0218646
1100.797 .0218771
1101.385 .0218893
1101.973 .0219013
1102.562 .0219121
1103.151 .0219218
1103.740 .0219312
1104.330 .0219390
1104.920 .0219460
1105.510 .0219499
1106.101 .0219548
1106.691 .0219577
1107.283 .0219603
1107.874 .0219637
1108.466 .0219658
1109.058 .0219642
1109.651 .0219602
1110.244 .0219528
1110.837 .0219445
1111.431 .0219376
1112.025 .0219334
1112.620 .0219358
1113.215 .0219472
1113.810 .0219644
1114.406 .0219905
1115.002 .0220219
1115.599 .0220556
1116.196 .0220850
1116.793 .0221106
1117.391 .0221276
1117.989 .0221369
1118.588 .0221429
1119.187 .0221462
1119.787 .0221504
1120.387 .0221572
1120.988 .0221622
1121.589 .0221672
1122.190 .0221700
1122.793 .0221682
1123.395 .0221583
1123.998 .0221466
1124.602 .0221318
1125.206 .0221180
1125.811 .0221120
1126.416 .0221143
1127.022 .0221262
1127.628 .0221488
1128.235 .0221774
1128.843 .0222099
1129.451 .0222435
1130.059 .0222763
1130.669 .0223068
1131.278 .0223382
1131.889 .0223676
1132.500 .0223948
1133.112 .0224217
1133.724 .0224490
1134.337 .0224729
1134.950 .0224919
1135.564 .0225070
1136.179 .0225162
1136.795 .0225254
1137.411 .0225355
1138.028 .0225493
1138.645 .0225696
1139.263 .0226002
1139.882 .0226394
1140.502 .0226901
1141.122 .0227570
1141.743 .0228425
1142.365 .0229631
1142.987 .0229082
1143.611 .0231240
1144.235 .0233542
1144.859 .0235834
1145.485 .0242236
