Measurement Sequence started on: 10-20-44-796
Integration time: 35
Scans to Average: 2 
>>>>>Begin Spectral Data<<<<<
432.953 .0339181
433.882 .0325883
434.810 .0342214
435.737 .0344955
436.662 .0348481
437.586 .0353054
438.509 .0356168
439.431 .0359018
440.351 .0360833
441.269 .0362178
442.187 .0363173
443.103 .0363788
444.018 .0364179
444.932 .0364402
445.844 .0364733
446.756 .0364982
447.666 .0365071
448.575 .0364885
449.482 .0364629
450.388 .0364346
451.294 .0364091
452.198 .0363908
453.100 .0363833
454.002 .0363894
454.902 .0363971
455.801 .0364128
456.699 .0364323
457.596 .0364502
458.492 .0364663
459.387 .0364726
460.280 .0364656
461.172 .0364474
462.064 .0364227
462.954 .0363972
463.843 .0363651
464.730 .0363295
465.617 .0362899
466.503 .0362412
467.387 .0361892
468.271 .0361320
469.153 .0360695
470.035 .0360107
470.915 .0359515
471.794 .0358939
472.673 .0358359
473.550 .0357819
474.426 .0357333
475.301 .0356846
476.175 .0356414
477.048 .0355971
477.920 .0355515
478.791 .0355044
479.661 .0354548
480.530 .0354052
481.398 .0353563
482.266 .0353074
483.132 .0352585
483.997 .0352124
484.861 .0351692
485.724 .0351280
486.587 .0350889
487.448 .0350515
488.308 .0350113
489.168 .0349682
490.026 .0349238
490.884 .0348757
491.741 .0348288
492.597 .0347836
493.452 .0347436
494.306 .0347099
495.159 .0346812
496.011 .0346559
496.862 .0346328
497.713 .0346066
498.562 .0345711
499.411 .0345248
500.259 .0344659
501.106 .0343958
501.952 .0343167
502.798 .0342350
503.642 .0341528
504.486 .0340726
505.329 .0339908
506.171 .0339058
507.012 .0338185
507.852 .0337246
508.692 .0336211
509.531 .0335110
510.369 .0333955
511.206 .0332789
512.043 .0331633
512.878 .0330490
513.713 .0329370
514.547 .0328329
515.381 .0327285
516.213 .0326262
517.045 .0325253
517.876 .0324259
518.706 .0323276
519.536 .0322408
520.365 .0321609
521.193 .0320852
522.020 .0320165
522.847 .0319505
523.673 .0318749
524.498 .0317920
525.323 .0316912
526.146 .0315780
526.969 .0314616
527.792 .0313370
528.614 .0312014
529.435 .0310704
530.255 .0309444
531.075 .0308091
531.894 .0306677
532.712 .0305297
533.530 .0303795
534.347 .0302268
535.163 .0300687
535.979 .0299092
536.794 .0297612
537.608 .0296315
538.422 .0295174
539.235 .0294239
540.048 .0293635
540.860 .0293243
541.671 .0293015
542.481 .0293074
543.292 .0293229
544.101 .0293425
544.910 .0293598
545.718 .0293728
546.526 .0293732
547.333 .0293707
548.139 .0293672
548.945 .0293636
549.750 .0293647
550.555 .0293698
551.359 .0293726
552.162 .0293779
552.965 .0293856
553.768 .0293895
554.569 .0293934
555.371 .0294017
556.171 .0294089
556.972 .0294228
557.771 .0294427
558.570 .0294738
559.369 .0295139
560.167 .0295621
560.964 .0296178
561.761 .0296752
562.558 .0297368
563.354 .0298022
564.149 .0298676
564.944 .0299377
565.738 .0300079
566.532 .0300792
567.325 .0301484
568.118 .0302150
568.910 .0302815
569.702 .0303470
570.494 .0304146
571.285 .0304819
572.075 .0305465
572.865 .0306143
573.654 .0306827
574.443 .0307517
575.232 .0308236
576.020 .0308976
576.807 .0309731
577.594 .0310479
578.381 .0311225
579.167 .0311983
579.952 .0312768
580.738 .0313566
581.522 .0314370
582.307 .0315146
583.091 .0315909
583.874 .0316620
584.657 .0317275
585.440 .0317864
586.222 .0318370
587.004 .0318795
587.785 .0319153
588.566 .0319445
589.346 .0319700
590.126 .0319899
590.906 .0320071
591.685 .0320202
592.464 .0320282
593.242 .0320312
594.020 .0320302
594.797 .0320256
595.575 .0320193
596.351 .0320111
597.128 .0320020
597.904 .0319926
598.679 .0319847
599.454 .0319756
600.229 .0319659
601.004 .0319556
601.778 .0319437
602.551 .0319295
603.325 .0319137
604.097 .0318973
604.870 .0318806
605.642 .0318644
606.414 .0318485
607.185 .0318321
607.956 .0318156
608.727 .0317983
609.497 .0317790
610.267 .0317577
611.037 .0317340
611.806 .0317086
612.575 .0316815
613.344 .0316539
614.112 .0316263
614.880 .0315989
615.647 .0315716
616.414 .0315451
617.181 .0315196
617.948 .0314958
618.714 .0314733
619.480 .0314525
620.245 .0314341
621.011 .0314177
621.775 .0314026
622.540 .0313887
623.304 .0313761
624.068 .0313655
624.832 .0313551
625.595 .0313453
626.358 .0313364
627.120 .0313279
627.883 .0313192
628.645 .0313101
629.406 .0313003
630.168 .0312892
630.929 .0312761
631.689 .0312615
632.450 .0312447
633.210 .0312258
633.970 .0312047
634.729 .0311821
635.489 .0311585
636.248 .0311339
637.006 .0311081
637.765 .0310820
638.523 .0310558
639.280 .0310294
640.038 .0310025
640.795 .0309764
641.552 .0309513
642.309 .0309277
643.065 .0309049
643.821 .0308838
644.577 .0308637
645.332 .0308452
646.088 .0308271
646.843 .0308097
647.597 .0307925
648.352 .0307755
649.106 .0307585
649.860 .0307415
650.613 .0307240
651.367 .0307076
652.120 .0306907
652.872 .0306739
653.625 .0306567
654.377 .0306397
655.129 .0306221
655.881 .0306041
656.632 .0305848
657.384 .0305643
658.135 .0305431
658.885 .0305216
659.636 .0304993
660.386 .0304779
661.136 .0304577
661.885 .0304392
662.635 .0304228
663.384 .0304086
664.133 .0303946
664.881 .0303814
665.630 .0303685
666.378 .0303549
667.126 .0303397
667.874 .0303236
668.621 .0303068
669.368 .0302900
670.115 .0302740
670.862 .0302586
671.608 .0302449
672.354 .0302331
673.100 .0302223
673.846 .0302116
674.591 .0302005
675.337 .0301887
676.082 .0301759
676.826 .0301625
677.571 .0301487
678.315 .0301348
679.059 .0301223
679.803 .0301112
680.547 .0301013
681.290 .0300922
682.033 .0300831
682.776 .0300730
683.518 .0300613
684.261 .0300469
685.003 .0300298
685.745 .0300107
686.487 .0299906
687.228 .0299700
687.969 .0299489
688.710 .0299282
689.451 .0299073
690.192 .0298859
690.932 .0298632
691.672 .0298389
692.412 .0298131
693.152 .0297864
693.891 .0297594
694.630 .0297334
695.369 .0297090
696.108 .0296867
696.846 .0296667
697.585 .0296486
698.323 .0296316
699.061 .0296146
699.798 .0295970
700.536 .0295791
701.273 .0295603
702.010 .0295415
702.746 .0295226
703.483 .0295042
704.219 .0294865
704.955 .0294687
705.691 .0294506
706.427 .0294321
707.162 .0294123
707.897 .0293906
708.632 .0293673
709.367 .0293427
710.101 .0293168
710.835 .0292903
711.569 .0292642
712.303 .0292384
713.037 .0292135
713.770 .0291897
714.503 .0291670
715.236 .0291461
715.969 .0291266
716.702 .0291078
717.434 .0290902
718.166 .0290732
718.898 .0290564
719.629 .0290394
720.361 .0290234
721.092 .0290075
721.823 .0289917
722.554 .0289765
723.284 .0289617
724.014 .0289469
724.744 .0289321
725.474 .0289161
726.204 .0288996
726.933 .0288816
727.662 .0288620
728.391 .0288415
729.120 .0288211
729.849 .0288006
730.577 .0287809
731.305 .0287616
732.033 .0287433
732.760 .0287249
733.488 .0287069
734.215 .0286886
734.942 .0286701
735.669 .0286512
736.395 .0286320
737.122 .0286127
737.848 .0285939
738.573 .0285749
739.299 .0285565
740.024 .0285384
740.750 .0285200
741.474 .0285014
742.199 .0284830
742.924 .0284645
743.648 .0284462
744.372 .0284280
745.096 .0284105
745.819 .0283934
746.543 .0283771
747.266 .0283608
747.989 .0283450
748.711 .0283297
749.434 .0283144
750.156 .0282993
750.878 .0282851
751.599 .0282720
752.321 .0282604
753.042 .0282503
753.763 .0282416
754.484 .0282335
755.205 .0282259
755.925 .0282183
756.645 .0282101
757.365 .0282008
758.085 .0281907
758.804 .0281794
759.523 .0281672
760.242 .0281541
760.961 .0281403
761.679 .0281263
762.397 .0281113
763.115 .0280953
763.833 .0280781
764.551 .0280598
765.268 .0280406
765.985 .0280201
766.702 .0279991
767.418 .0279774
768.134 .0279555
768.850 .0279337
769.566 .0279126
770.282 .0278923
770.997 .0278731
771.712 .0278553
772.427 .0278385
773.142 .0278223
773.856 .0278071
774.570 .0277929
775.284 .0277788
775.998 .0277650
776.711 .0277516
777.424 .0277383
778.137 .0277261
778.849 .0277144
779.562 .0277038
780.274 .0276946
780.986 .0276868
781.697 .0276802
782.409 .0276748
783.120 .0276709
783.831 .0276681
784.541 .0276662
785.252 .0276653
785.962 .0276646
786.671 .0276640
787.381 .0276634
788.090 .0276621
788.799 .0276598
789.508 .0276556
790.217 .0276495
790.925 .0276415
791.633 .0276314
792.341 .0276191
793.048 .0276050
793.755 .0275890
794.462 .0275710
795.169 .0275512
795.875 .0275303
796.581 .0275090
797.287 .0274880
797.993 .0274673
798.698 .0274481
799.403 .0274303
800.108 .0274146
800.812 .0274004
801.517 .0273878
802.221 .0273768
802.924 .0273666
803.628 .0273574
804.331 .0273489
805.034 .0273412
805.736 .0273343
806.439 .0273281
807.141 .0273223
807.843 .0273165
808.544 .0273099
809.245 .0273024
809.946 .0272935
810.647 .0272830
811.347 .0272710
812.047 .0272576
812.747 .0272435
813.447 .0272291
814.146 .0272143
814.845 .0272004
815.543 .0271873
816.242 .0271753
816.940 .0271641
817.638 .0271536
818.335 .0271442
819.032 .0271352
819.729 .0271269
820.426 .0271183
821.122 .0271092
821.818 .0270994
822.514 .0270881
823.209 .0270755
823.905 .0270618
824.599 .0270469
825.294 .0270313
825.988 .0270148
826.682 .0269976
827.376 .0269794
828.069 .0269605
828.762 .0269406
829.455 .0269196
830.147 .0268975
830.840 .0268748
831.531 .0268523
832.223 .0268310
832.914 .0268109
833.605 .0267930
834.296 .0267775
834.986 .0267643
835.676 .0267527
836.366 .0267424
837.055 .0267328
837.744 .0267237
838.433 .0267141
839.121 .0267042
839.809 .0266940
840.497 .0266840
841.185 .0266742
841.872 .0266647
842.559 .0266557
843.245 .0266468
843.932 .0266374
844.617 .0266274
845.303 .0266167
845.988 .0266055
846.673 .0265931
847.358 .0265801
848.042 .0265671
848.726 .0265538
849.410 .0265405
850.093 .0265278
850.776 .0265157
851.459 .0265044
852.141 .0264933
852.823 .0264824
853.505 .0264717
854.186 .0264608
854.867 .0264497
855.548 .0264379
856.228 .0264260
856.908 .0264137
857.588 .0264010
858.267 .0263882
858.946 .0263755
859.625 .0263630
860.303 .0263506
860.981 .0263383
861.659 .0263257
862.336 .0263125
863.013 .0262985
863.690 .0262838
864.366 .0262682
865.042 .0262524
865.718 .0262363
866.393 .0262202
867.068 .0262048
867.743 .0261904
868.417 .0261765
869.091 .0261632
869.765 .0261505
870.438 .0261377
871.111 .0261247
871.783 .0261118
872.456 .0260988
873.127 .0260863
873.799 .0260741
874.470 .0260623
875.141 .0260512
875.811 .0260406
876.481 .0260298
877.151 .0260189
877.820 .0260079
878.489 .0259964
879.158 .0259841
879.826 .0259719
880.494 .0259594
881.162 .0259469
881.829 .0259347
882.496 .0259225
883.163 .0259105
883.829 .0258984
884.495 .0258860
885.160 .0258738
885.825 .0258618
886.490 .0258502
887.154 .0258389
887.818 .0258285
888.482 .0258188
889.145 .0258097
889.808 .0258018
890.471 .0257949
891.133 .0257887
891.795 .0257836
892.456 .0257795
893.117 .0257762
893.778 .0257739
894.439 .0257720
895.099 .0257705
895.758 .0257690
896.417 .0257675
897.076 .0257655
897.735 .0257633
898.393 .0257611
899.051 .0257585
899.708 .0257550
900.365 .0257508
901.022 .0257454
901.678 .0257386
902.334 .0257307
902.990 .0257218
903.645 .0257124
904.300 .0257031
904.954 .0256937
905.608 .0256840
906.262 .0256742
906.915 .0256650
907.568 .0256553
908.221 .0256454
908.873 .0256356
909.525 .0256259
910.176 .0256168
910.828 .0256087
911.478 .0256016
912.129 .0255953
912.778 .0255900
913.428 .0255845
914.077 .0255785
914.726 .0255721
915.375 .0255643
916.023 .0255556
916.670 .0255467
917.318 .0255377
917.964 .0255283
918.611 .0255194
919.257 .0255104
919.903 .0255011
920.548 .0254911
921.193 .0254804
921.838 .0254691
922.482 .0254577
923.126 .0254465
923.770 .0254355
924.413 .0254255
925.056 .0254167
925.698 .0254083
926.340 .0254005
926.982 .0253923
927.623 .0253837
928.264 .0253745
928.904 .0253647
929.544 .0253544
930.184 .0253440
930.823 .0253338
931.462 .0253236
932.101 .0253133
932.739 .0253020
933.377 .0252895
934.014 .0252754
934.651 .0252597
935.288 .0252426
935.924 .0252247
936.560 .0252069
937.196 .0251895
937.831 .0251738
938.466 .0251596
939.100 .0251470
939.734 .0251358
940.368 .0251250
941.001 .0251143
941.634 .0251028
942.266 .0250909
942.899 .0250781
943.530 .0250652
944.162 .0250518
944.793 .0250380
945.423 .0250236
946.053 .0250081
946.683 .0249913
947.313 .0249733
947.942 .0249540
948.571 .0249333
949.199 .0249112
949.827 .0248883
950.455 .0248649
951.082 .0248424
951.709 .0248207
952.335 .0248002
952.961 .0247811
953.587 .0247634
954.212 .0247467
954.837 .0247312
955.462 .0247171
956.086 .0247047
956.710 .0246937
957.334 .0246840
957.957 .0246751
958.579 .0246671
959.202 .0246603
959.824 .0246537
960.445 .0246471
961.067 .0246400
961.688 .0246324
962.308 .0246241
962.928 .0246149
963.548 .0246052
964.168 .0245950
964.787 .0245845
965.406 .0245741
966.024 .0245634
966.642 .0245529
967.260 .0245432
967.877 .0245345
968.494 .0245265
969.110 .0245191
969.727 .0245117
970.342 .0245044
970.958 .0244966
971.573 .0244884
972.188 .0244793
972.802 .0244699
973.416 .0244611
974.030 .0244513
974.643 .0244419
975.256 .0244333
975.869 .0244250
976.481 .0244174
977.093 .0244098
977.705 .0244024
978.316 .0243948
978.927 .0243868
979.538 .0243781
980.148 .0243685
980.758 .0243593
981.367 .0243497
981.977 .0243407
982.586 .0243326
983.194 .0243253
983.802 .0243191
984.410 .0243144
985.018 .0243103
985.625 .0243062
986.232 .0243022
986.838 .0242980
987.445 .0242931
988.050 .0242874
988.656 .0242810
989.261 .0242743
989.866 .0242670
990.471 .0242598
991.075 .0242522
991.679 .0242451
992.282 .0242388
992.886 .0242328
993.489 .0242277
994.091 .0242231
994.694 .0242189
995.296 .0242148
995.897 .0242110
996.499 .0242072
997.100 .0242029
997.701 .0241988
998.301 .0241954
998.901 .0241924
999.501 .0241904
1000.101 .0241894
1000.700 .0241888
1001.299 .0241886
1001.898 .0241883
1002.496 .0241873
1003.094 .0241858
1003.692 .0241840
1004.289 .0241817
1004.887 .0241795
1005.484 .0241778
1006.080 .0241768
1006.677 .0241761
1007.273 .0241760
1007.868 .0241757
1008.464 .0241750
1009.059 .0241735
1009.654 .0241722
1010.249 .0241714
1010.843 .0241719
1011.437 .0241733
1012.031 .0241760
1012.625 .0241794
1013.218 .0241833
1013.811 .0241867
1014.404 .0241890
1014.997 .0241902
1015.589 .0241904
1016.181 .0241893
1016.773 .0241880
1017.365 .0241867
1017.956 .0241856
1018.547 .0241846
1019.138 .0241839
1019.728 .0241819
1020.319 .0241791
1020.909 .0241758
1021.499 .0241720
1022.088 .0241680
1022.678 .0241641
1023.267 .0241604
1023.856 .0241576
1024.445 .0241559
1025.033 .0241547
1025.621 .0241534
1026.209 .0241528
1026.797 .0241512
1027.385 .0241490
1027.972 .0241468
1028.560 .0241446
1029.147 .0241421
1029.734 .0241403
1030.320 .0241383
1030.907 .0241351
1031.493 .0241317
1032.079 .0241283
1032.665 .0241244
1033.250 .0241206
1033.836 .0241160
1034.421 .0241110
1035.006 .0241064
1035.591 .0241027
1036.176 .0240988
1036.761 .0240952
1037.345 .0240926
1037.929 .0240898
1038.514 .0240865
1039.097 .0240841
1039.681 .0240819
1040.265 .0240797
1040.848 .0240781
1041.432 .0240768
1042.015 .0240751
1042.598 .0240738
1043.181 .0240729
1043.764 .0240718
1044.346 .0240705
1044.929 .0240686
1045.511 .0240660
1046.094 .0240635
1046.676 .0240620
1047.258 .0240609
1047.840 .0240609
1048.422 .0240640
1049.003 .0240683
1049.585 .0240740
1050.166 .0240801
1050.748 .0240864
1051.329 .0240916
1051.910 .0240947
1052.491 .0240962
1053.072 .0240952
1053.653 .0240925
1054.234 .0240884
1054.815 .0240829
1055.396 .0240766
1055.976 .0240692
1056.557 .0240616
1057.138 .0240531
1057.718 .0240439
1058.298 .0240339
1058.879 .0240223
1059.459 .0240106
1060.039 .0239989
1060.620 .0239875
1061.200 .0239764
1061.780 .0239669
1062.360 .0239580
1062.940 .0239507
1063.520 .0239457
1064.101 .0239423
1064.681 .0239400
1065.261 .0239389
1065.841 .0239374
1066.421 .0239336
1067.001 .0239270
1067.581 .0239171
1068.161 .0239031
1068.741 .0238872
1069.321 .0238683
1069.901 .0238497
1070.482 .0238313
1071.062 .0238146
1071.642 .0238001
1072.222 .0237878
1072.803 .0237780
1073.383 .0237683
1073.963 .0237602
1074.544 .0237536
1075.124 .0237483
1075.705 .0237451
1076.286 .0237446
1076.866 .0237486
1077.447 .0237555
1078.028 .0237639
1078.609 .0237734
1079.190 .0237847
1079.771 .0237964
1080.352 .0238064
1080.934 .0238147
1081.515 .0238210
1082.097 .0238256
1082.679 .0238259
1083.260 .0238246
1083.842 .0238209
1084.424 .0238159
1085.007 .0238092
1085.589 .0238020
1086.172 .0237945
1086.754 .0237872
1087.337 .0237801
1087.920 .0237740
1088.503 .0237686
1089.087 .0237627
1089.670 .0237547
1090.254 .0237460
1090.838 .0237368
1091.422 .0237282
1092.006 .0237193
1092.590 .0237133
1093.175 .0237098
1093.760 .0237103
1094.345 .0237130
1094.930 .0237173
1095.516 .0237227
1096.102 .0237280
1096.688 .0237329
1097.274 .0237369
1097.860 .0237400
1098.447 .0237435
1099.034 .0237473
1099.622 .0237511
1100.209 .0237548
1100.797 .0237570
1101.385 .0237575
1101.973 .0237557
1102.562 .0237508
1103.151 .0237413
1103.740 .0237265
1104.330 .0237081
1104.920 .0236853
1105.510 .0236614
1106.101 .0236370
1106.691 .0236123
1107.283 .0235902
1107.874 .0235719
1108.466 .0235577
1109.058 .0235478
1109.651 .0235428
1110.244 .0235452
1110.837 .0235538
1111.431 .0235678
1112.025 .0235874
1112.620 .0236125
1113.215 .0236423
1113.810 .0236773
1114.406 .0237141
1115.002 .0237521
1115.599 .0237831
1116.196 .0238091
1116.793 .0238266
1117.391 .0238344
1117.989 .0238319
1118.588 .0238216
1119.187 .0238056
1119.787 .0237869
1120.387 .0237646
1120.988 .0237437
1121.589 .0237269
1122.190 .0237154
1122.793 .0237062
1123.395 .0237002
1123.998 .0236953
1124.602 .0236936
1125.206 .0236931
1125.811 .0237005
1126.416 .0237136
1127.022 .0237330
1127.628 .0237586
1128.235 .0237898
1128.843 .0238266
1129.451 .0238669
1130.059 .0239085
1130.669 .0239520
1131.278 .0239954
1131.889 .0240358
1132.500 .0240744
1133.112 .0241147
1133.724 .0241568
1134.337 .0242033
1134.950 .0242527
1135.564 .0243084
1136.179 .0243684
1136.795 .0244333
1137.411 .0245030
1138.028 .0245759
1138.645 .0246523
1139.263 .0247319
1139.882 .0248135
1140.502 .0248993
1141.122 .0249864
1141.743 .0250751
1142.365 .0251349
1142.987 .0252607
1143.611 .0253721
1144.235 .0254630
1144.859 .0254729
1145.485 .0247591
