Measurement Sequence started on: 10-20-44-796
Integration time: 35
Scans to Average: 2 
>>>>>Begin Spectral Data<<<<<
432.953 .0344632
433.882 .0426926
434.810 .0402644
435.737 .0391291
436.662 .0379284
437.586 .0386936
438.509 .0387130
439.431 .0385671
440.351 .0385676
441.269 .0386251
442.187 .0387066
443.103 .0387790
444.018 .0388287
444.932 .0388642
445.844 .0388913
446.756 .0389153
447.666 .0389235
448.575 .0389171
449.482 .0388914
450.388 .0388485
451.294 .0387947
452.198 .0387373
453.100 .0386685
454.002 .0385998
454.902 .0385270
455.801 .0384588
456.699 .0383987
457.596 .0383445
458.492 .0382966
459.387 .0382429
460.280 .0381889
461.172 .0381281
462.064 .0380571
462.954 .0379786
463.843 .0378905
464.730 .0378094
465.617 .0377352
466.503 .0376689
467.387 .0376155
468.271 .0375763
469.153 .0375495
470.035 .0375304
470.915 .0375156
471.794 .0375006
472.673 .0374809
473.550 .0374578
474.426 .0374338
475.301 .0374102
476.175 .0373927
477.048 .0373786
477.920 .0373726
478.791 .0373729
479.661 .0373717
480.530 .0373684
481.398 .0373595
482.266 .0373486
483.132 .0373328
483.997 .0373073
484.861 .0372788
485.724 .0372504
486.587 .0372242
487.448 .0371994
488.308 .0371798
489.168 .0371648
490.026 .0371504
490.884 .0371336
491.741 .0371126
492.597 .0370854
493.452 .0370538
494.306 .0370154
495.159 .0369739
496.011 .0369322
496.862 .0368903
497.713 .0368446
498.562 .0367987
499.411 .0367506
500.259 .0366921
501.106 .0366224
501.952 .0365420
502.798 .0364474
503.642 .0363421
504.486 .0362267
505.329 .0361101
506.171 .0359912
507.012 .0358729
507.852 .0357559
508.692 .0356412
509.531 .0355270
510.369 .0354147
511.206 .0353018
512.043 .0351898
512.878 .0350795
513.713 .0349699
514.547 .0348608
515.381 .0347557
516.213 .0346574
517.045 .0345632
517.876 .0344747
518.706 .0343971
519.536 .0343213
520.365 .0342565
521.193 .0341956
522.020 .0341253
522.847 .0340436
523.673 .0339407
524.498 .0338063
525.323 .0336376
526.146 .0334490
526.969 .0332393
527.792 .0330214
528.614 .0328062
529.435 .0325985
530.255 .0324075
531.075 .0322346
531.894 .0320689
532.712 .0319079
533.530 .0317475
534.347 .0315790
535.163 .0314045
535.979 .0312434
536.794 .0311021
537.608 .0309927
538.422 .0309218
539.235 .0308896
540.048 .0308868
540.860 .0309120
541.671 .0309507
542.481 .0310006
543.292 .0310499
544.101 .0310899
544.910 .0311224
545.718 .0311462
546.526 .0311616
547.333 .0311701
548.139 .0311722
548.945 .0311689
549.750 .0311555
550.555 .0311366
551.359 .0311133
552.162 .0310901
552.965 .0310720
553.768 .0310582
554.569 .0310479
555.371 .0310402
556.171 .0310313
556.972 .0310231
557.771 .0310201
558.570 .0310177
559.369 .0310182
560.167 .0310248
560.964 .0310422
561.761 .0310697
562.558 .0311059
563.354 .0311567
564.149 .0312177
564.944 .0312839
565.738 .0313527
566.532 .0314151
567.325 .0314753
568.118 .0315285
568.910 .0315737
569.702 .0316136
570.494 .0316483
571.285 .0316830
572.075 .0317176
572.865 .0317585
573.654 .0318053
574.443 .0318564
575.232 .0319153
576.020 .0319786
576.807 .0320431
577.594 .0321051
578.381 .0321655
579.167 .0322233
579.952 .0322819
580.738 .0323415
581.522 .0324052
582.307 .0324732
583.091 .0325454
583.874 .0326205
584.657 .0326942
585.440 .0327666
586.222 .0328331
587.004 .0328924
587.785 .0329447
588.566 .0329892
589.346 .0330277
590.126 .0330600
590.906 .0330891
591.685 .0331136
592.464 .0331338
593.242 .0331513
594.020 .0331647
594.797 .0331741
595.575 .0331805
596.351 .0331831
597.128 .0331823
597.904 .0331780
598.679 .0331707
599.454 .0331602
600.229 .0331469
601.004 .0331317
601.778 .0331149
602.551 .0330970
603.325 .0330779
604.097 .0330574
604.870 .0330367
605.642 .0330146
606.414 .0329902
607.185 .0329634
607.956 .0329342
608.727 .0329023
609.497 .0328689
610.267 .0328344
611.037 .0328001
611.806 .0327667
612.575 .0327342
613.344 .0327025
614.112 .0326712
614.880 .0326388
615.647 .0326040
616.414 .0325676
617.181 .0325300
617.948 .0324905
618.714 .0324519
619.480 .0324144
620.245 .0323789
621.011 .0323458
621.775 .0323150
622.540 .0322851
623.304 .0322560
624.068 .0322268
624.832 .0321957
625.595 .0321632
626.358 .0321304
627.120 .0320971
627.883 .0320647
628.645 .0320337
629.406 .0320040
630.168 .0319753
630.929 .0319478
631.689 .0319202
632.450 .0318922
633.210 .0318638
633.970 .0318339
634.729 .0318035
635.489 .0317727
636.248 .0317412
637.006 .0317102
637.765 .0316800
638.523 .0316500
639.280 .0316207
640.038 .0315919
640.795 .0315644
641.552 .0315390
642.309 .0315155
643.065 .0314938
643.821 .0314740
644.577 .0314561
645.332 .0314389
646.088 .0314221
646.843 .0314065
647.597 .0313901
648.352 .0313744
649.106 .0313599
649.860 .0313458
650.613 .0313332
651.367 .0313225
652.120 .0313125
652.872 .0313033
653.625 .0312937
654.377 .0312835
655.129 .0312718
655.881 .0312585
656.632 .0312434
657.384 .0312267
658.135 .0312100
658.885 .0311935
659.636 .0311768
660.386 .0311620
661.136 .0311472
661.885 .0311333
662.635 .0311198
663.384 .0311065
664.133 .0310929
664.881 .0310786
665.630 .0310641
666.378 .0310497
667.126 .0310357
667.874 .0310228
668.621 .0310105
669.368 .0309994
670.115 .0309886
670.862 .0309776
671.608 .0309666
672.354 .0309558
673.100 .0309443
673.846 .0309330
674.591 .0309213
675.337 .0309094
676.082 .0308979
676.826 .0308871
677.571 .0308770
678.315 .0308672
679.059 .0308576
679.803 .0308476
680.547 .0308373
681.290 .0308265
682.033 .0308147
682.776 .0308024
683.518 .0307894
684.261 .0307754
685.003 .0307603
685.745 .0307439
686.487 .0307266
687.228 .0307078
687.969 .0306874
688.710 .0306651
689.451 .0306410
690.192 .0306156
690.932 .0305889
691.672 .0305614
692.412 .0305333
693.152 .0305047
693.891 .0304760
694.630 .0304468
695.369 .0304174
696.108 .0303875
696.846 .0303569
697.585 .0303255
698.323 .0302937
699.061 .0302616
699.798 .0302297
700.536 .0301985
701.273 .0301676
702.010 .0301369
702.746 .0301065
703.483 .0300762
704.219 .0300450
704.955 .0300133
705.691 .0299817
706.427 .0299495
707.162 .0299178
707.897 .0298868
708.632 .0298570
709.367 .0298283
710.101 .0298013
710.835 .0297748
711.569 .0297488
712.303 .0297234
713.037 .0296979
713.770 .0296725
714.503 .0296472
715.236 .0296217
715.969 .0295959
716.702 .0295702
717.434 .0295447
718.166 .0295182
718.898 .0294920
719.629 .0294657
720.361 .0294392
721.092 .0294128
721.823 .0293866
722.554 .0293606
723.284 .0293353
724.014 .0293104
724.744 .0292855
725.474 .0292607
726.204 .0292362
726.933 .0292118
727.662 .0291874
728.391 .0291637
729.120 .0291404
729.849 .0291181
730.577 .0290966
731.305 .0290751
732.033 .0290538
732.760 .0290322
733.488 .0290096
734.215 .0289865
734.942 .0289626
735.669 .0289386
736.395 .0289146
737.122 .0288911
737.848 .0288680
738.573 .0288455
739.299 .0288238
740.024 .0288026
740.750 .0287819
741.474 .0287621
742.199 .0287427
742.924 .0287247
743.648 .0287084
744.372 .0286936
745.096 .0286813
745.819 .0286709
746.543 .0286624
747.266 .0286555
747.989 .0286498
748.711 .0286450
749.434 .0286410
750.156 .0286378
750.878 .0286356
751.599 .0286349
752.321 .0286359
753.042 .0286386
753.763 .0286436
754.484 .0286506
755.205 .0286586
755.925 .0286674
756.645 .0286764
757.365 .0286844
758.085 .0286910
758.804 .0286954
759.523 .0286973
760.242 .0286970
760.961 .0286946
761.679 .0286904
762.397 .0286848
763.115 .0286783
763.833 .0286702
764.551 .0286608
765.268 .0286504
765.985 .0286383
766.702 .0286247
767.418 .0286107
768.134 .0285964
768.850 .0285825
769.566 .0285698
770.282 .0285592
770.997 .0285509
771.712 .0285454
772.427 .0285414
773.142 .0285386
773.856 .0285367
774.570 .0285349
775.284 .0285322
775.998 .0285286
776.711 .0285244
777.424 .0285194
778.137 .0285133
778.849 .0285063
779.562 .0284980
780.274 .0284886
780.986 .0284778
781.697 .0284661
782.409 .0284533
783.120 .0284406
783.831 .0284286
784.541 .0284179
785.252 .0284093
785.962 .0284028
786.671 .0283982
787.381 .0283952
788.090 .0283932
788.799 .0283908
789.508 .0283873
790.217 .0283828
790.925 .0283774
791.633 .0283713
792.341 .0283643
793.048 .0283568
793.755 .0283489
794.462 .0283405
795.169 .0283314
795.875 .0283208
796.581 .0283091
797.287 .0282955
797.993 .0282802
798.698 .0282637
799.403 .0282466
800.108 .0282299
800.812 .0282141
801.517 .0282000
802.221 .0281870
802.924 .0281750
803.628 .0281637
804.331 .0281532
805.034 .0281431
805.736 .0281326
806.439 .0281215
807.141 .0281096
807.843 .0280972
808.544 .0280838
809.245 .0280694
809.946 .0280539
810.647 .0280372
811.347 .0280194
812.047 .0280005
812.747 .0279813
813.447 .0279618
814.146 .0279427
814.845 .0279244
815.543 .0279064
816.242 .0278892
816.940 .0278722
817.638 .0278553
818.335 .0278387
819.032 .0278218
819.729 .0278042
820.426 .0277862
821.122 .0277675
821.818 .0277480
822.514 .0277280
823.209 .0277074
823.905 .0276862
824.599 .0276644
825.294 .0276422
825.988 .0276192
826.682 .0275954
827.376 .0275714
828.069 .0275463
828.762 .0275204
829.455 .0274941
830.147 .0274670
830.840 .0274400
831.531 .0274138
832.223 .0273888
832.914 .0273652
833.605 .0273434
834.296 .0273228
834.986 .0273031
835.676 .0272843
836.366 .0272654
837.055 .0272460
837.744 .0272263
838.433 .0272062
839.121 .0271857
839.809 .0271655
840.497 .0271462
841.185 .0271278
841.872 .0271102
842.559 .0270934
843.245 .0270770
843.932 .0270608
844.617 .0270443
845.303 .0270275
845.988 .0270104
846.673 .0269931
847.358 .0269757
848.042 .0269588
848.726 .0269424
849.410 .0269268
850.093 .0269115
850.776 .0268973
851.459 .0268835
852.141 .0268695
852.823 .0268553
853.505 .0268412
854.186 .0268266
854.867 .0268120
855.548 .0267972
856.228 .0267825
856.908 .0267681
857.588 .0267537
858.267 .0267393
858.946 .0267250
859.625 .0267104
860.303 .0266956
860.981 .0266800
861.659 .0266644
862.336 .0266479
863.013 .0266315
863.690 .0266156
864.366 .0266001
865.042 .0265849
865.718 .0265700
866.393 .0265553
867.068 .0265407
867.743 .0265257
868.417 .0265103
869.091 .0264943
869.765 .0264781
870.438 .0264614
871.111 .0264449
871.783 .0264288
872.456 .0264132
873.127 .0263981
873.799 .0263834
874.470 .0263688
875.141 .0263543
875.811 .0263398
876.481 .0263254
877.151 .0263117
877.820 .0262985
878.489 .0262864
879.158 .0262756
879.826 .0262666
880.494 .0262592
881.162 .0262528
881.829 .0262477
882.496 .0262428
883.163 .0262383
883.829 .0262339
884.495 .0262294
885.160 .0262252
885.825 .0262214
886.490 .0262180
887.154 .0262154
887.818 .0262135
888.482 .0262122
889.145 .0262110
889.808 .0262104
890.471 .0262098
891.133 .0262090
891.795 .0262085
892.456 .0262083
893.117 .0262085
893.778 .0262090
894.439 .0262097
895.099 .0262104
895.758 .0262116
896.417 .0262130
897.076 .0262142
897.735 .0262151
898.393 .0262161
899.051 .0262168
899.708 .0262173
900.365 .0262173
901.022 .0262168
901.678 .0262155
902.334 .0262137
902.990 .0262108
903.645 .0262071
904.300 .0262031
904.954 .0261998
905.608 .0261966
906.262 .0261943
906.915 .0261927
907.568 .0261915
908.221 .0261904
908.873 .0261891
909.525 .0261870
910.176 .0261842
910.828 .0261808
911.478 .0261772
912.129 .0261731
912.778 .0261699
913.428 .0261674
914.077 .0261661
914.726 .0261656
915.375 .0261655
916.023 .0261653
916.670 .0261649
917.318 .0261640
917.964 .0261619
918.611 .0261588
919.257 .0261553
919.903 .0261513
920.548 .0261471
921.193 .0261434
921.838 .0261405
922.482 .0261386
923.126 .0261376
923.770 .0261375
924.413 .0261379
925.056 .0261389
925.698 .0261408
926.340 .0261431
926.982 .0261464
927.623 .0261499
928.264 .0261533
928.904 .0261568
929.544 .0261599
930.184 .0261621
930.823 .0261638
931.462 .0261649
932.101 .0261654
932.739 .0261653
933.377 .0261646
934.014 .0261627
934.651 .0261598
935.288 .0261559
935.924 .0261503
936.560 .0261432
937.196 .0261347
937.831 .0261244
938.466 .0261134
939.100 .0261019
939.734 .0260897
940.368 .0260776
941.001 .0260657
941.634 .0260535
942.266 .0260408
942.899 .0260272
943.530 .0260128
944.162 .0259972
944.793 .0259811
945.423 .0259640
946.053 .0259460
946.683 .0259281
947.313 .0259105
947.942 .0258930
948.571 .0258760
949.199 .0258593
949.827 .0258429
950.455 .0258266
951.082 .0258108
951.709 .0257952
952.335 .0257806
952.961 .0257671
953.587 .0257547
954.212 .0257428
954.837 .0257322
955.462 .0257224
956.086 .0257135
956.710 .0257057
957.334 .0256984
957.957 .0256914
958.579 .0256850
959.202 .0256785
959.824 .0256719
960.445 .0256654
961.067 .0256587
961.688 .0256518
962.308 .0256442
962.928 .0256362
963.548 .0256273
964.168 .0256174
964.787 .0256067
965.406 .0255949
966.024 .0255823
966.642 .0255688
967.260 .0255550
967.877 .0255414
968.494 .0255275
969.110 .0255142
969.727 .0255008
970.342 .0254876
970.958 .0254745
971.573 .0254616
972.188 .0254486
972.802 .0254362
973.416 .0254241
974.030 .0254125
974.643 .0254019
975.256 .0253920
975.869 .0253826
976.481 .0253737
977.093 .0253657
977.705 .0253580
978.316 .0253504
978.927 .0253437
979.538 .0253374
980.148 .0253318
980.758 .0253262
981.367 .0253205
981.977 .0253155
982.586 .0253105
983.194 .0253055
983.802 .0253004
984.410 .0252952
985.018 .0252891
985.625 .0252825
986.232 .0252752
986.838 .0252674
987.445 .0252585
988.050 .0252485
988.656 .0252368
989.261 .0252237
989.866 .0252085
990.471 .0251916
991.075 .0251734
991.679 .0251545
992.282 .0251346
992.886 .0251152
993.489 .0250969
994.091 .0250803
994.694 .0250656
995.296 .0250527
995.897 .0250408
996.499 .0250299
997.100 .0250186
997.701 .0250076
998.301 .0249965
998.901 .0249861
999.501 .0249758
1000.101 .0249670
1000.700 .0249595
1001.299 .0249535
1001.898 .0249480
1002.496 .0249430
1003.094 .0249371
1003.692 .0249303
1004.289 .0249214
1004.887 .0249113
1005.484 .0249002
1006.080 .0248885
1006.677 .0248758
1007.273 .0248631
1007.868 .0248497
1008.464 .0248371
1009.059 .0248242
1009.654 .0248119
1010.249 .0247996
1010.843 .0247876
1011.437 .0247758
1012.031 .0247641
1012.625 .0247528
1013.218 .0247416
1013.811 .0247306
1014.404 .0247199
1014.997 .0247089
1015.589 .0246978
1016.181 .0246871
1016.773 .0246766
1017.365 .0246665
1017.956 .0246561
1018.547 .0246453
1019.138 .0246344
1019.728 .0246230
1020.319 .0246108
1020.909 .0245984
1021.499 .0245856
1022.088 .0245729
1022.678 .0245594
1023.267 .0245463
1023.856 .0245325
1024.445 .0245188
1025.033 .0245051
1025.621 .0244913
1026.209 .0244779
1026.797 .0244653
1027.385 .0244536
1027.972 .0244432
1028.560 .0244342
1029.147 .0244260
1029.734 .0244183
1030.320 .0244114
1030.907 .0244037
1031.493 .0243958
1032.079 .0243868
1032.665 .0243778
1033.250 .0243686
1033.836 .0243604
1034.421 .0243534
1035.006 .0243475
1035.591 .0243431
1036.176 .0243391
1036.761 .0243353
1037.345 .0243314
1037.929 .0243270
1038.514 .0243214
1039.097 .0243146
1039.681 .0243072
1040.265 .0242992
1040.848 .0242920
1041.432 .0242855
1042.015 .0242803
1042.598 .0242761
1043.181 .0242723
1043.764 .0242679
1044.346 .0242626
1044.929 .0242562
1045.511 .0242478
1046.094 .0242382
1046.676 .0242270
1047.258 .0242145
1047.840 .0242013
1048.422 .0241885
1049.003 .0241765
1049.585 .0241649
1050.166 .0241541
1050.748 .0241432
1051.329 .0241329
1051.910 .0241233
1052.491 .0241137
1053.072 .0241049
1053.653 .0240966
1054.234 .0240885
1054.815 .0240801
1055.396 .0240716
1055.976 .0240630
1056.557 .0240543
1057.138 .0240460
1057.718 .0240379
1058.298 .0240299
1058.879 .0240232
1059.459 .0240186
1060.039 .0240144
1060.620 .0240102
1061.200 .0240050
1061.780 .0239988
1062.360 .0239914
1062.940 .0239834
1063.520 .0239752
1064.101 .0239682
1064.681 .0239629
1065.261 .0239597
1065.841 .0239568
1066.421 .0239554
1067.001 .0239534
1067.581 .0239508
1068.161 .0239452
1068.741 .0239372
1069.321 .0239261
1069.901 .0239130
1070.482 .0238987
1071.062 .0238848
1071.642 .0238705
1072.222 .0238578
1072.803 .0238455
1073.383 .0238348
1073.963 .0238236
1074.544 .0238137
1075.124 .0238027
1075.705 .0237911
1076.286 .0237795
1076.866 .0237679
1077.447 .0237545
1078.028 .0237430
1078.609 .0237332
1079.190 .0237247
1079.771 .0237187
1080.352 .0237163
1080.934 .0237162
1081.515 .0237198
1082.097 .0237256
1082.679 .0237321
1083.260 .0237396
1083.842 .0237487
1084.424 .0237560
1085.007 .0237637
1085.589 .0237741
1086.172 .0237853
1086.754 .0237983
1087.337 .0238144
1087.920 .0238312
1088.503 .0238480
1089.087 .0238636
1089.670 .0238774
1090.254 .0238878
1090.838 .0238942
1091.422 .0238959
1092.006 .0238935
1092.590 .0238877
1093.175 .0238784
1093.760 .0238651
1094.345 .0238494
1094.930 .0238312
1095.516 .0238101
1096.102 .0237884
1096.688 .0237680
1097.274 .0237505
1097.860 .0237358
1098.447 .0237244
1099.034 .0237182
1099.622 .0237175
1100.209 .0237208
1100.797 .0237294
1101.385 .0237404
1101.973 .0237560
1102.562 .0237751
1103.151 .0237982
1103.740 .0238252
1104.330 .0238552
1104.920 .0238891
1105.510 .0239248
1106.101 .0239611
1106.691 .0239974
1107.283 .0240321
1107.874 .0240653
1108.466 .0240935
1109.058 .0241181
1109.651 .0241345
1110.244 .0241465
1110.837 .0241518
1111.431 .0241516
1112.025 .0241454
1112.620 .0241335
1113.215 .0241177
1113.810 .0241004
1114.406 .0240862
1115.002 .0240739
1115.599 .0240635
1116.196 .0240576
1116.793 .0240502
1117.391 .0240432
1117.989 .0240317
1118.588 .0240209
1119.187 .0240073
1119.787 .0239976
1120.387 .0239907
1120.988 .0239899
1121.589 .0239990
1122.190 .0240166
1122.793 .0240416
1123.395 .0240697
1123.998 .0240960
1124.602 .0241200
1125.206 .0241382
1125.811 .0241560
1126.416 .0241668
1127.022 .0241783
1127.628 .0241904
1128.235 .0242091
1128.843 .0242336
1129.451 .0242678
1130.059 .0243083
1130.669 .0243551
1131.278 .0244062
1131.889 .0244586
1132.500 .0245087
1133.112 .0245613
1133.724 .0246111
1134.337 .0246629
1134.950 .0247144
1135.564 .0247714
1136.179 .0248302
1136.795 .0248988
1137.411 .0249752
1138.028 .0250556
1138.645 .0251404
1139.263 .0252313
1139.882 .0253212
1140.502 .0254170
1141.122 .0255196
1141.743 .0256246
1142.365 .0257318
1142.987 .0257302
1143.611 .0259393
1144.235 .0262197
1144.859 .0262235
1145.485 .0262751
