Measurement Sequence started on: 10-20-44-796
Integration time: 35
Scans to Average: 2 
>>>>>Begin Spectral Data<<<<<
432.953 .0304733
433.882 .0378087
434.810 .0406492
435.737 .0410114
436.662 .0403148
437.586 .0396767
438.509 .0400112
439.431 .0400646
440.351 .0400576
441.269 .0400882
442.187 .0401692
443.103 .0402576
444.018 .0403463
444.932 .0404150
445.844 .0404326
446.756 .0404238
447.666 .0403993
448.575 .0403572
449.482 .0403136
450.388 .0402871
451.294 .0402711
452.198 .0402627
453.100 .0402568
454.002 .0402508
454.902 .0402323
455.801 .0402008
456.699 .0401450
457.596 .0400820
458.492 .0400134
459.387 .0399459
460.280 .0398904
461.172 .0398465
462.064 .0398096
462.954 .0397836
463.843 .0397558
464.730 .0397268
465.617 .0396889
466.503 .0396414
467.387 .0395881
468.271 .0395289
469.153 .0394639
470.035 .0393942
470.915 .0393269
471.794 .0392634
472.673 .0391979
473.550 .0391363
474.426 .0390776
475.301 .0390241
476.175 .0389783
477.048 .0389397
477.920 .0389024
478.791 .0388697
479.661 .0388380
480.530 .0388059
481.398 .0387714
482.266 .0387361
483.132 .0387037
483.997 .0386722
484.861 .0386452
485.724 .0386209
486.587 .0385997
487.448 .0385812
488.308 .0385618
489.168 .0385386
490.026 .0385073
490.884 .0384681
491.741 .0384197
492.597 .0383656
493.452 .0383092
494.306 .0382509
495.159 .0381946
496.011 .0381441
496.862 .0380967
497.713 .0380446
498.562 .0379929
499.411 .0379359
500.259 .0378721
501.106 .0378005
501.952 .0377206
502.798 .0376332
503.642 .0375429
504.486 .0374511
505.329 .0373590
506.171 .0372665
507.012 .0371732
507.852 .0370713
508.692 .0369592
509.531 .0368320
510.369 .0366884
511.206 .0365318
512.043 .0363669
512.878 .0361936
513.713 .0360160
514.547 .0358388
515.381 .0356636
516.213 .0354911
517.045 .0353162
517.876 .0351347
518.706 .0349462
519.536 .0347529
520.365 .0345605
521.193 .0343734
522.020 .0342009
522.847 .0340519
523.673 .0339269
524.498 .0338213
525.323 .0337299
526.146 .0336528
526.969 .0335839
527.792 .0335187
528.614 .0334464
529.435 .0333728
530.255 .0332975
531.075 .0332258
531.894 .0331609
532.712 .0331022
533.530 .0330480
534.347 .0329866
535.163 .0329170
535.979 .0328404
536.794 .0327531
537.608 .0326589
538.422 .0325578
539.235 .0324646
540.048 .0323762
540.860 .0322967
541.671 .0322334
542.481 .0321878
543.292 .0321560
544.101 .0321286
544.910 .0321052
545.718 .0320852
546.526 .0320693
547.333 .0320594
548.139 .0320527
548.945 .0320546
549.750 .0320641
550.555 .0320832
551.359 .0321076
552.162 .0321414
552.965 .0321779
553.768 .0322140
554.569 .0322504
555.371 .0322831
556.171 .0323110
556.972 .0323373
557.771 .0323635
558.570 .0323898
559.369 .0324180
560.167 .0324540
560.964 .0324894
561.761 .0325336
562.558 .0325829
563.354 .0326367
564.149 .0326958
564.944 .0327566
565.738 .0328186
566.532 .0328801
567.325 .0329418
568.118 .0329983
568.910 .0330506
569.702 .0331025
570.494 .0331483
571.285 .0331911
572.075 .0332318
572.865 .0332677
573.654 .0332983
574.443 .0333237
575.232 .0333411
576.020 .0333520
576.807 .0333585
577.594 .0333612
578.381 .0333631
579.167 .0333675
579.952 .0333753
580.738 .0333864
581.522 .0334037
582.307 .0334238
583.091 .0334456
583.874 .0334699
584.657 .0334935
585.440 .0335177
586.222 .0335420
587.004 .0335673
587.785 .0335936
588.566 .0336220
589.346 .0336507
590.126 .0336772
590.906 .0337024
591.685 .0337246
592.464 .0337417
593.242 .0337543
594.020 .0337609
594.797 .0337627
595.575 .0337602
596.351 .0337540
597.128 .0337443
597.904 .0337343
598.679 .0337229
599.454 .0337102
600.229 .0336958
601.004 .0336802
601.778 .0336624
602.551 .0336431
603.325 .0336229
604.097 .0336014
604.870 .0335786
605.642 .0335564
606.414 .0335342
607.185 .0335137
607.956 .0334946
608.727 .0334772
609.497 .0334607
610.267 .0334454
611.037 .0334290
611.806 .0334124
612.575 .0333956
613.344 .0333779
614.112 .0333591
614.880 .0333397
615.647 .0333197
616.414 .0332980
617.181 .0332751
617.948 .0332524
618.714 .0332275
619.480 .0332021
620.245 .0331754
621.011 .0331478
621.775 .0331199
622.540 .0330921
623.304 .0330646
624.068 .0330374
624.832 .0330105
625.595 .0329818
626.358 .0329513
627.120 .0329200
627.883 .0328865
628.645 .0328511
629.406 .0328155
630.168 .0327801
630.929 .0327438
631.689 .0327084
632.450 .0326732
633.210 .0326385
633.970 .0326042
634.729 .0325692
635.489 .0325333
636.248 .0324966
637.006 .0324593
637.765 .0324205
638.523 .0323821
639.280 .0323443
640.038 .0323069
640.795 .0322709
641.552 .0322357
642.309 .0322018
643.065 .0321684
643.821 .0321368
644.577 .0321061
645.332 .0320758
646.088 .0320467
646.843 .0320175
647.597 .0319888
648.352 .0319606
649.106 .0319327
649.860 .0319048
650.613 .0318773
651.367 .0318499
652.120 .0318227
652.872 .0317960
653.625 .0317701
654.377 .0317445
655.129 .0317194
655.881 .0316946
656.632 .0316691
657.384 .0316430
658.135 .0316170
658.885 .0315903
659.636 .0315642
660.386 .0315384
661.136 .0315135
661.885 .0314901
662.635 .0314689
663.384 .0314501
664.133 .0314346
664.881 .0314219
665.630 .0314108
666.378 .0314009
667.126 .0313917
667.874 .0313811
668.621 .0313690
669.368 .0313556
670.115 .0313408
670.862 .0313249
671.608 .0313090
672.354 .0312934
673.100 .0312795
673.846 .0312669
674.591 .0312551
675.337 .0312436
676.082 .0312323
676.826 .0312199
677.571 .0312066
678.315 .0311924
679.059 .0311780
679.803 .0311640
680.547 .0311513
681.290 .0311405
682.033 .0311315
682.776 .0311238
683.518 .0311169
684.261 .0311095
685.003 .0311010
685.745 .0310898
686.487 .0310763
687.228 .0310607
687.969 .0310436
688.710 .0310253
689.451 .0310061
690.192 .0309872
690.932 .0309687
691.672 .0309500
692.412 .0309310
693.152 .0309116
693.891 .0308919
694.630 .0308717
695.369 .0308515
696.108 .0308313
696.846 .0308117
697.585 .0307930
698.323 .0307749
699.061 .0307581
699.798 .0307419
700.536 .0307265
701.273 .0307112
702.010 .0306961
702.746 .0306808
703.483 .0306649
704.219 .0306487
704.955 .0306323
705.691 .0306154
706.427 .0305977
707.162 .0305790
707.897 .0305598
708.632 .0305393
709.367 .0305177
710.101 .0304948
710.835 .0304708
711.569 .0304457
712.303 .0304195
713.037 .0303921
713.770 .0303638
714.503 .0303350
715.236 .0303053
715.969 .0302755
716.702 .0302456
717.434 .0302158
718.166 .0301863
718.898 .0301574
719.629 .0301294
720.361 .0301021
721.092 .0300754
721.823 .0300493
722.554 .0300233
723.284 .0299977
724.014 .0299714
724.744 .0299448
725.474 .0299170
726.204 .0298884
726.933 .0298589
727.662 .0298289
728.391 .0297982
729.120 .0297672
729.849 .0297364
730.577 .0297057
731.305 .0296748
732.033 .0296444
732.760 .0296138
733.488 .0295840
734.215 .0295543
734.942 .0295249
735.669 .0294954
736.395 .0294670
737.122 .0294384
737.848 .0294104
738.573 .0293830
739.299 .0293558
740.024 .0293289
740.750 .0293032
741.474 .0292779
742.199 .0292530
742.924 .0292289
743.648 .0292055
744.372 .0291827
745.096 .0291611
745.819 .0291402
746.543 .0291203
747.266 .0291022
747.989 .0290853
748.711 .0290692
749.434 .0290548
750.156 .0290419
750.878 .0290302
751.599 .0290202
752.321 .0290111
753.042 .0290031
753.763 .0289964
754.484 .0289907
755.205 .0289851
755.925 .0289796
756.645 .0289729
757.365 .0289647
758.085 .0289549
758.804 .0289432
759.523 .0289296
760.242 .0289151
760.961 .0288999
761.679 .0288844
762.397 .0288686
763.115 .0288529
763.833 .0288367
764.551 .0288203
765.268 .0288022
765.985 .0287825
766.702 .0287621
767.418 .0287411
768.134 .0287202
768.850 .0287004
769.566 .0286820
770.282 .0286652
770.997 .0286502
771.712 .0286368
772.427 .0286247
773.142 .0286138
773.856 .0286035
774.570 .0285936
775.284 .0285847
775.998 .0285767
776.711 .0285694
777.424 .0285633
778.137 .0285578
778.849 .0285521
779.562 .0285468
780.274 .0285412
780.986 .0285357
781.697 .0285305
782.409 .0285254
783.120 .0285211
783.831 .0285172
784.541 .0285143
785.252 .0285120
785.962 .0285101
786.671 .0285086
787.381 .0285068
788.090 .0285050
788.799 .0285030
789.508 .0285009
790.217 .0284989
790.925 .0284968
791.633 .0284945
792.341 .0284916
793.048 .0284880
793.755 .0284836
794.462 .0284788
795.169 .0284728
795.875 .0284661
796.581 .0284586
797.287 .0284505
797.993 .0284419
798.698 .0284330
799.403 .0284240
800.108 .0284148
800.812 .0284060
801.517 .0283974
802.221 .0283895
802.924 .0283830
803.628 .0283778
804.331 .0283745
805.034 .0283724
805.736 .0283716
806.439 .0283711
807.141 .0283710
807.843 .0283708
808.544 .0283697
809.245 .0283679
809.946 .0283649
810.647 .0283614
811.347 .0283569
812.047 .0283518
812.747 .0283460
813.447 .0283395
814.146 .0283327
814.845 .0283251
815.543 .0283169
816.242 .0283082
816.940 .0282987
817.638 .0282885
818.335 .0282771
819.032 .0282648
819.729 .0282516
820.426 .0282376
821.122 .0282232
821.818 .0282086
822.514 .0281937
823.209 .0281790
823.905 .0281645
824.599 .0281498
825.294 .0281349
825.988 .0281191
826.682 .0281025
827.376 .0280852
828.069 .0280677
828.762 .0280502
829.455 .0280328
830.147 .0280164
830.840 .0280007
831.531 .0279853
832.223 .0279704
832.914 .0279553
833.605 .0279400
834.296 .0279242
834.986 .0279080
835.676 .0278917
836.366 .0278763
837.055 .0278615
837.744 .0278478
838.433 .0278346
839.121 .0278218
839.809 .0278081
840.497 .0277935
841.185 .0277776
841.872 .0277600
842.559 .0277415
843.245 .0277225
843.932 .0277036
844.617 .0276854
845.303 .0276682
845.988 .0276521
846.673 .0276367
847.358 .0276219
848.042 .0276070
848.726 .0275920
849.410 .0275763
850.093 .0275598
850.776 .0275425
851.459 .0275245
852.141 .0275064
852.823 .0274879
853.505 .0274697
854.186 .0274515
854.867 .0274338
855.548 .0274160
856.228 .0273986
856.908 .0273813
857.588 .0273635
858.267 .0273453
858.946 .0273260
859.625 .0273060
860.303 .0272851
860.981 .0272638
861.659 .0272425
862.336 .0272211
863.013 .0272004
863.690 .0271796
864.366 .0271592
865.042 .0271390
865.718 .0271186
866.393 .0270981
867.068 .0270771
867.743 .0270560
868.417 .0270347
869.091 .0270136
869.765 .0269932
870.438 .0269734
871.111 .0269542
871.783 .0269357
872.456 .0269171
873.127 .0268979
873.799 .0268780
874.470 .0268569
875.141 .0268351
875.811 .0268128
876.481 .0267902
877.151 .0267681
877.820 .0267471
878.489 .0267274
879.158 .0267086
879.826 .0266904
880.494 .0266722
881.162 .0266532
881.829 .0266337
882.496 .0266130
883.163 .0265914
883.829 .0265699
884.495 .0265487
885.160 .0265289
885.825 .0265109
886.490 .0264950
887.154 .0264815
887.818 .0264701
888.482 .0264602
889.145 .0264507
889.808 .0264416
890.471 .0264328
891.133 .0264237
891.795 .0264149
892.456 .0264063
893.117 .0263980
893.778 .0263908
894.439 .0263846
895.099 .0263796
895.758 .0263754
896.417 .0263716
897.076 .0263678
897.735 .0263633
898.393 .0263579
899.051 .0263515
899.708 .0263439
900.365 .0263352
901.022 .0263256
901.678 .0263148
902.334 .0263033
902.990 .0262914
903.645 .0262793
904.300 .0262672
904.954 .0262549
905.608 .0262424
906.262 .0262296
906.915 .0262168
907.568 .0262039
908.221 .0261905
908.873 .0261772
909.525 .0261638
910.176 .0261501
910.828 .0261364
911.478 .0261232
912.129 .0261101
912.778 .0260973
913.428 .0260850
914.077 .0260729
914.726 .0260613
915.375 .0260502
916.023 .0260398
916.670 .0260301
917.318 .0260213
917.964 .0260131
918.611 .0260051
919.257 .0259981
919.903 .0259910
920.548 .0259843
921.193 .0259785
921.838 .0259739
922.482 .0259705
923.126 .0259690
923.770 .0259696
924.413 .0259719
925.056 .0259754
925.698 .0259799
926.340 .0259843
926.982 .0259883
927.623 .0259910
928.264 .0259922
928.904 .0259922
929.544 .0259914
930.184 .0259895
930.823 .0259873
931.462 .0259845
932.101 .0259811
932.739 .0259767
933.377 .0259706
934.014 .0259626
934.651 .0259526
935.288 .0259409
935.924 .0259281
936.560 .0259149
937.196 .0259019
937.831 .0258895
938.466 .0258786
939.100 .0258693
939.734 .0258608
940.368 .0258535
941.001 .0258470
941.634 .0258413
942.266 .0258361
942.899 .0258310
943.530 .0258258
944.162 .0258211
944.793 .0258162
945.423 .0258106
946.053 .0258040
946.683 .0257967
947.313 .0257887
947.942 .0257789
948.571 .0257674
949.199 .0257544
949.827 .0257399
950.455 .0257246
951.082 .0257085
951.709 .0256925
952.335 .0256774
952.961 .0256632
953.587 .0256502
954.212 .0256384
954.837 .0256280
955.462 .0256185
956.086 .0256103
956.710 .0256036
957.334 .0255979
957.957 .0255932
958.579 .0255904
959.202 .0255884
959.824 .0255872
960.445 .0255863
961.067 .0255847
961.688 .0255825
962.308 .0255797
962.928 .0255757
963.548 .0255711
964.168 .0255663
964.787 .0255616
965.406 .0255566
966.024 .0255522
966.642 .0255480
967.260 .0255439
967.877 .0255399
968.494 .0255354
969.110 .0255303
969.727 .0255251
970.342 .0255196
970.958 .0255142
971.573 .0255101
972.188 .0255073
972.802 .0255056
973.416 .0255053
974.030 .0255060
974.643 .0255070
975.256 .0255080
975.869 .0255085
976.481 .0255084
977.093 .0255080
977.705 .0255076
978.316 .0255074
978.927 .0255078
979.538 .0255095
980.148 .0255123
980.758 .0255160
981.367 .0255203
981.977 .0255246
982.586 .0255288
983.194 .0255320
983.802 .0255345
984.410 .0255359
985.018 .0255363
985.625 .0255358
986.232 .0255346
986.838 .0255330
987.445 .0255312
988.050 .0255289
988.656 .0255261
989.261 .0255223
989.866 .0255170
990.471 .0255100
991.075 .0255019
991.679 .0254928
992.282 .0254828
992.886 .0254726
993.489 .0254630
994.091 .0254540
994.694 .0254458
995.296 .0254385
995.897 .0254320
996.499 .0254258
997.100 .0254194
997.701 .0254124
998.301 .0254053
998.901 .0253983
999.501 .0253921
1000.101 .0253874
1000.700 .0253845
1001.299 .0253828
1001.898 .0253820
1002.496 .0253823
1003.094 .0253829
1003.692 .0253831
1004.289 .0253822
1004.887 .0253807
1005.484 .0253787
1006.080 .0253763
1006.677 .0253741
1007.273 .0253726
1007.868 .0253724
1008.464 .0253730
1009.059 .0253738
1009.654 .0253747
1010.249 .0253751
1010.843 .0253751
1011.437 .0253740
1012.031 .0253718
1012.625 .0253684
1013.218 .0253639
1013.811 .0253591
1014.404 .0253543
1014.997 .0253497
1015.589 .0253456
1016.181 .0253428
1016.773 .0253410
1017.365 .0253399
1017.956 .0253384
1018.547 .0253363
1019.138 .0253336
1019.728 .0253295
1020.319 .0253232
1020.909 .0253150
1021.499 .0253055
1022.088 .0252957
1022.678 .0252855
1023.267 .0252761
1023.856 .0252670
1024.445 .0252591
1025.033 .0252514
1025.621 .0252433
1026.209 .0252343
1026.797 .0252242
1027.385 .0252130
1027.972 .0252013
1028.560 .0251898
1029.147 .0251787
1029.734 .0251689
1030.320 .0251613
1030.907 .0251550
1031.493 .0251501
1032.079 .0251460
1032.665 .0251418
1033.250 .0251365
1033.836 .0251302
1034.421 .0251219
1035.006 .0251115
1035.591 .0250994
1036.176 .0250848
1036.761 .0250689
1037.345 .0250518
1037.929 .0250332
1038.514 .0250138
1039.097 .0249957
1039.681 .0249779
1040.265 .0249605
1040.848 .0249440
1041.432 .0249286
1042.015 .0249132
1042.598 .0248984
1043.181 .0248832
1043.764 .0248682
1044.346 .0248543
1044.929 .0248424
1045.511 .0248321
1046.094 .0248250
1046.676 .0248208
1047.258 .0248187
1047.840 .0248182
1048.422 .0248181
1049.003 .0248166
1049.585 .0248135
1050.166 .0248096
1050.748 .0248045
1051.329 .0247976
1051.910 .0247905
1052.491 .0247828
1053.072 .0247762
1053.653 .0247693
1054.234 .0247615
1054.815 .0247517
1055.396 .0247395
1055.976 .0247249
1056.557 .0247068
1057.138 .0246864
1057.718 .0246663
1058.298 .0246456
1058.879 .0246253
1059.459 .0246056
1060.039 .0245868
1060.620 .0245681
1061.200 .0245518
1061.780 .0245355
1062.360 .0245195
1062.940 .0245040
1063.520 .0244893
1064.101 .0244740
1064.681 .0244600
1065.261 .0244454
1065.841 .0244291
1066.421 .0244126
1067.001 .0243957
1067.581 .0243765
1068.161 .0243589
1068.741 .0243419
1069.321 .0243267
1069.901 .0243134
1070.482 .0243033
1071.062 .0242929
1071.642 .0242835
1072.222 .0242735
1072.803 .0242610
1073.383 .0242461
1073.963 .0242297
1074.544 .0242111
1075.124 .0241938
1075.705 .0241785
1076.286 .0241658
1076.866 .0241559
1077.447 .0241486
1078.028 .0241423
1078.609 .0241346
1079.190 .0241265
1079.771 .0241161
1080.352 .0241039
1080.934 .0240930
1081.515 .0240842
1082.097 .0240794
1082.679 .0240798
1083.260 .0240851
1083.842 .0240949
1084.424 .0241072
1085.007 .0241193
1085.589 .0241289
1086.172 .0241361
1086.754 .0241395
1087.337 .0241388
1087.920 .0241333
1088.503 .0241266
1089.087 .0241171
1089.670 .0241066
1090.254 .0240948
1090.838 .0240814
1091.422 .0240684
1092.006 .0240553
1092.590 .0240423
1093.175 .0240309
1093.760 .0240205
1094.345 .0240107
1094.930 .0240002
1095.516 .0239897
1096.102 .0239765
1096.688 .0239632
1097.274 .0239488
1097.860 .0239363
1098.447 .0239248
1099.034 .0239175
1099.622 .0239147
1100.209 .0239171
1100.797 .0239219
1101.385 .0239265
1101.973 .0239324
1102.562 .0239381
1103.151 .0239418
1103.740 .0239452
1104.330 .0239487
1104.920 .0239535
1105.510 .0239593
1106.101 .0239677
1106.691 .0239767
1107.283 .0239882
1107.874 .0239983
1108.466 .0240069
1109.058 .0240125
1109.651 .0240151
1110.244 .0240126
1110.837 .0240061
1111.431 .0239986
1112.025 .0239870
1112.620 .0239735
1113.215 .0239606
1113.810 .0239495
1114.406 .0239423
1115.002 .0239367
1115.599 .0239334
1116.196 .0239312
1116.793 .0239297
1117.391 .0239278
1117.989 .0239270
1118.588 .0239304
1119.187 .0239384
1119.787 .0239498
1120.387 .0239661
1120.988 .0239869
1121.589 .0240110
1122.190 .0240337
1122.793 .0240534
1123.395 .0240659
1123.998 .0240720
1124.602 .0240712
1125.206 .0240692
1125.811 .0240711
1126.416 .0240788
1127.022 .0240934
1127.628 .0241150
1128.235 .0241427
1128.843 .0241730
1129.451 .0242014
1130.059 .0242287
1130.669 .0242528
1131.278 .0242759
1131.889 .0242998
1132.500 .0243306
1133.112 .0243739
1133.724 .0244302
1134.337 .0244978
1134.950 .0245741
1135.564 .0246538
1136.179 .0247344
1136.795 .0248138
1137.411 .0248891
1138.028 .0249627
1138.645 .0250376
1139.263 .0251153
1139.882 .0251998
1140.502 .0252853
1141.122 .0253737
1141.743 .0254688
1142.365 .0255571
1142.987 .0257426
1143.611 .0256770
1144.235 .0257357
1144.859 .0260025
1145.485 .0258330
