Measurement Sequence started on: 10-20-44-796
Integration time: 35
Scans to Average: 2 
>>>>>Begin Spectral Data<<<<<
432.953 .0389453
433.882 .0500025
434.810 .0500242
435.737 .0463686
436.662 .0426429
437.586 .0441145
438.509 .0437145
439.431 .0430823
440.351 .0426044
441.269 .0423066
442.187 .0421240
443.103 .0419307
444.018 .0417595
444.932 .0416268
445.844 .0415124
446.756 .0414108
447.666 .0413418
448.575 .0412874
449.482 .0412401
450.388 .0411871
451.294 .0411417
452.198 .0410875
453.100 .0410265
454.002 .0409661
454.902 .0409083
455.801 .0408463
456.699 .0407895
457.596 .0407475
458.492 .0407169
459.387 .0406890
460.280 .0406722
461.172 .0406525
462.064 .0406284
462.954 .0405820
463.843 .0405082
464.730 .0404097
465.617 .0403024
466.503 .0401780
467.387 .0400530
468.271 .0399395
469.153 .0398436
470.035 .0397624
470.915 .0396986
471.794 .0396434
472.673 .0395908
473.550 .0395439
474.426 .0395060
475.301 .0394751
476.175 .0394608
477.048 .0394578
477.920 .0394746
478.791 .0395041
479.661 .0395416
480.530 .0395776
481.398 .0396088
482.266 .0396357
483.132 .0396501
483.997 .0396553
484.861 .0396574
485.724 .0396558
486.587 .0396500
487.448 .0396314
488.308 .0395941
489.168 .0395325
490.026 .0394407
490.884 .0393235
491.741 .0391861
492.597 .0390371
493.452 .0388880
494.306 .0387496
495.159 .0386275
496.011 .0385240
496.862 .0384317
497.713 .0383465
498.562 .0382566
499.411 .0381593
500.259 .0380521
501.106 .0379387
501.952 .0378334
502.798 .0377366
503.642 .0376552
504.486 .0375938
505.329 .0375453
506.171 .0375053
507.012 .0374678
507.852 .0374242
508.692 .0373635
509.531 .0372800
510.369 .0371813
511.206 .0370658
512.043 .0369466
512.878 .0368238
513.713 .0366989
514.547 .0365822
515.381 .0364743
516.213 .0363633
517.045 .0362592
517.876 .0361518
518.706 .0360386
519.536 .0359174
520.365 .0357903
521.193 .0356531
522.020 .0355145
522.847 .0353755
523.673 .0352362
524.498 .0350849
525.323 .0349269
526.146 .0347523
526.969 .0345761
527.792 .0343928
528.614 .0341902
529.435 .0339839
530.255 .0337873
531.075 .0335971
531.894 .0334252
532.712 .0332737
533.530 .0331412
534.347 .0330271
535.163 .0329165
535.979 .0328036
536.794 .0326976
537.608 .0326067
538.422 .0325335
539.235 .0324831
540.048 .0324643
540.860 .0324735
541.671 .0325129
542.481 .0325725
543.292 .0326288
544.101 .0326786
544.910 .0327179
545.718 .0327385
546.526 .0327515
547.333 .0327565
548.139 .0327619
548.945 .0327674
549.750 .0327734
550.555 .0327684
551.359 .0327597
552.162 .0327401
552.965 .0327111
553.768 .0326718
554.569 .0326294
555.371 .0325808
556.171 .0325365
556.972 .0324946
557.771 .0324573
558.570 .0324194
559.369 .0323879
560.167 .0323627
560.964 .0323479
561.761 .0323419
562.558 .0323468
563.354 .0323659
564.149 .0323992
564.944 .0324402
565.738 .0324883
566.532 .0325356
567.325 .0325842
568.118 .0326268
568.910 .0326629
569.702 .0326982
570.494 .0327369
571.285 .0327814
572.075 .0328333
572.865 .0328928
573.654 .0329569
574.443 .0330233
575.232 .0330913
576.020 .0331548
576.807 .0332128
577.594 .0332689
578.381 .0333214
579.167 .0333742
579.952 .0334299
580.738 .0334873
581.522 .0335450
582.307 .0336029
583.091 .0336576
583.874 .0337070
584.657 .0337495
585.440 .0337863
586.222 .0338111
587.004 .0338267
587.785 .0338340
588.566 .0338336
589.346 .0338281
590.126 .0338182
590.906 .0338036
591.685 .0337872
592.464 .0337673
593.242 .0337442
594.020 .0337170
594.797 .0336884
595.575 .0336568
596.351 .0336239
597.128 .0335912
597.904 .0335580
598.679 .0335258
599.454 .0334979
600.229 .0334729
601.004 .0334510
601.778 .0334329
602.551 .0334170
603.325 .0334024
604.097 .0333884
604.870 .0333723
605.642 .0333541
606.414 .0333344
607.185 .0333123
607.956 .0332880
608.727 .0332632
609.497 .0332375
610.267 .0332115
611.037 .0331856
611.806 .0331587
612.575 .0331302
613.344 .0331001
614.112 .0330672
614.880 .0330320
615.647 .0329951
616.414 .0329568
617.181 .0329191
617.948 .0328831
618.714 .0328489
619.480 .0328167
620.245 .0327875
621.011 .0327603
621.775 .0327345
622.540 .0327102
623.304 .0326854
624.068 .0326605
624.832 .0326353
625.595 .0326095
626.358 .0325846
627.120 .0325611
627.883 .0325390
628.645 .0325184
629.406 .0325000
630.168 .0324824
630.929 .0324658
631.689 .0324501
632.450 .0324340
633.210 .0324168
633.970 .0323983
634.729 .0323782
635.489 .0323565
636.248 .0323337
637.006 .0323101
637.765 .0322858
638.523 .0322612
639.280 .0322348
640.038 .0322074
640.795 .0321787
641.552 .0321487
642.309 .0321180
643.065 .0320872
643.821 .0320575
644.577 .0320290
645.332 .0320024
646.088 .0319782
646.843 .0319549
647.597 .0319320
648.352 .0319083
649.106 .0318838
649.860 .0318580
650.613 .0318314
651.367 .0318054
652.120 .0317809
652.872 .0317578
653.625 .0317366
654.377 .0317156
655.129 .0316946
655.881 .0316723
656.632 .0316463
657.384 .0316174
658.135 .0315849
658.885 .0315492
659.636 .0315126
660.386 .0314759
661.136 .0314402
661.885 .0314054
662.635 .0313723
663.384 .0313407
664.133 .0313095
664.881 .0312795
665.630 .0312502
666.378 .0312222
667.126 .0311959
667.874 .0311701
668.621 .0311456
669.368 .0311230
670.115 .0311008
670.862 .0310793
671.608 .0310576
672.354 .0310364
673.100 .0310149
673.846 .0309934
674.591 .0309725
675.337 .0309520
676.082 .0309318
676.826 .0309110
677.571 .0308888
678.315 .0308653
679.059 .0308399
679.803 .0308131
680.547 .0307851
681.290 .0307563
682.033 .0307274
682.776 .0306982
683.518 .0306691
684.261 .0306396
685.003 .0306097
685.745 .0305792
686.487 .0305485
687.228 .0305181
687.969 .0304879
688.710 .0304585
689.451 .0304301
690.192 .0304028
690.932 .0303768
691.672 .0303515
692.412 .0303269
693.152 .0303034
693.891 .0302811
694.630 .0302602
695.369 .0302410
696.108 .0302234
696.846 .0302076
697.585 .0301916
698.323 .0301751
699.061 .0301574
699.798 .0301383
700.536 .0301182
701.273 .0300965
702.010 .0300747
702.746 .0300532
703.483 .0300328
704.219 .0300138
704.955 .0299959
705.691 .0299792
706.427 .0299622
707.162 .0299447
707.897 .0299271
708.632 .0299093
709.367 .0298921
710.101 .0298770
710.835 .0298644
711.569 .0298548
712.303 .0298478
713.037 .0298430
713.770 .0298396
714.503 .0298365
715.236 .0298329
715.969 .0298276
716.702 .0298212
717.434 .0298140
718.166 .0298053
718.898 .0297963
719.629 .0297871
720.361 .0297778
721.092 .0297676
721.823 .0297570
722.554 .0297455
723.284 .0297339
724.014 .0297215
724.744 .0297078
725.474 .0296928
726.204 .0296775
726.933 .0296612
727.662 .0296436
728.391 .0296248
729.120 .0296055
729.849 .0295861
730.577 .0295675
731.305 .0295496
732.033 .0295328
732.760 .0295164
733.488 .0295007
734.215 .0294845
734.942 .0294677
735.669 .0294503
736.395 .0294323
737.122 .0294144
737.848 .0293972
738.573 .0293806
739.299 .0293649
740.024 .0293504
740.750 .0293364
741.474 .0293214
742.199 .0293050
742.924 .0292874
743.648 .0292679
744.372 .0292477
745.096 .0292275
745.819 .0292074
746.543 .0291884
747.266 .0291706
747.989 .0291533
748.711 .0291359
749.434 .0291187
750.156 .0291009
750.878 .0290822
751.599 .0290633
752.321 .0290443
753.042 .0290261
753.763 .0290097
754.484 .0289951
755.205 .0289816
755.925 .0289696
756.645 .0289576
757.365 .0289445
758.085 .0289310
758.804 .0289165
759.523 .0289003
760.242 .0288827
760.961 .0288641
761.679 .0288445
762.397 .0288237
763.115 .0288022
763.833 .0287791
764.551 .0287546
765.268 .0287285
765.985 .0287005
766.702 .0286715
767.418 .0286419
768.134 .0286125
768.850 .0285833
769.566 .0285553
770.282 .0285282
770.997 .0285015
771.712 .0284755
772.427 .0284506
773.142 .0284261
773.856 .0284017
774.570 .0283776
775.284 .0283542
775.998 .0283313
776.711 .0283097
777.424 .0282894
778.137 .0282696
778.849 .0282504
779.562 .0282312
780.274 .0282116
780.986 .0281928
781.697 .0281741
782.409 .0281559
783.120 .0281385
783.831 .0281225
784.541 .0281070
785.252 .0280927
785.962 .0280795
786.671 .0280674
787.381 .0280558
788.090 .0280454
788.799 .0280352
789.508 .0280258
790.217 .0280162
790.925 .0280060
791.633 .0279946
792.341 .0279812
793.048 .0279647
793.755 .0279467
794.462 .0279270
795.169 .0279066
795.875 .0278865
796.581 .0278681
797.287 .0278510
797.993 .0278363
798.698 .0278229
799.403 .0278102
800.108 .0277979
800.812 .0277857
801.517 .0277731
802.221 .0277607
802.924 .0277492
803.628 .0277386
804.331 .0277304
805.034 .0277248
805.736 .0277207
806.439 .0277185
807.141 .0277170
807.843 .0277156
808.544 .0277133
809.245 .0277097
809.946 .0277050
810.647 .0276993
811.347 .0276933
812.047 .0276874
812.747 .0276824
813.447 .0276785
814.146 .0276764
814.845 .0276763
815.543 .0276779
816.242 .0276804
816.940 .0276839
817.638 .0276880
818.335 .0276925
819.032 .0276970
819.729 .0277011
820.426 .0277044
821.122 .0277072
821.818 .0277086
822.514 .0277093
823.209 .0277093
823.905 .0277090
824.599 .0277075
825.294 .0277050
825.988 .0277009
826.682 .0276954
827.376 .0276887
828.069 .0276809
828.762 .0276716
829.455 .0276615
830.147 .0276505
830.840 .0276401
831.531 .0276304
832.223 .0276223
832.914 .0276157
833.605 .0276107
834.296 .0276070
834.986 .0276038
835.676 .0276012
836.366 .0275993
837.055 .0275974
837.744 .0275962
838.433 .0275955
839.121 .0275958
839.809 .0275974
840.497 .0276002
841.185 .0276039
841.872 .0276077
842.559 .0276107
843.245 .0276115
843.932 .0276100
844.617 .0276063
845.303 .0276003
845.988 .0275926
846.673 .0275843
847.358 .0275762
848.042 .0275688
848.726 .0275626
849.410 .0275575
850.093 .0275529
850.776 .0275489
851.459 .0275443
852.141 .0275388
852.823 .0275323
853.505 .0275246
854.186 .0275159
854.867 .0275071
855.548 .0274981
856.228 .0274891
856.908 .0274808
857.588 .0274733
858.267 .0274663
858.946 .0274592
859.625 .0274524
860.303 .0274457
860.981 .0274387
861.659 .0274312
862.336 .0274227
863.013 .0274135
863.690 .0274037
864.366 .0273926
865.042 .0273807
865.718 .0273681
866.393 .0273552
867.068 .0273422
867.743 .0273291
868.417 .0273162
869.091 .0273042
869.765 .0272922
870.438 .0272802
871.111 .0272677
871.783 .0272543
872.456 .0272399
873.127 .0272245
873.799 .0272081
874.470 .0271908
875.141 .0271730
875.811 .0271550
876.481 .0271374
877.151 .0271206
877.820 .0271045
878.489 .0270891
879.158 .0270753
879.826 .0270618
880.494 .0270482
881.162 .0270351
881.829 .0270220
882.496 .0270084
883.163 .0269940
883.829 .0269790
884.495 .0269641
885.160 .0269495
885.825 .0269364
886.490 .0269245
887.154 .0269153
887.818 .0269085
888.482 .0269032
889.145 .0268989
889.808 .0268951
890.471 .0268900
891.133 .0268831
891.795 .0268737
892.456 .0268617
893.117 .0268478
893.778 .0268332
894.439 .0268187
895.099 .0268046
895.758 .0267908
896.417 .0267773
897.076 .0267627
897.735 .0267475
898.393 .0267302
899.051 .0267112
899.708 .0266913
900.365 .0266712
901.022 .0266516
901.678 .0266334
902.334 .0266173
902.990 .0266036
903.645 .0265911
904.300 .0265792
904.954 .0265663
905.608 .0265524
906.262 .0265371
906.915 .0265201
907.568 .0265017
908.221 .0264828
908.873 .0264637
909.525 .0264446
910.176 .0264253
910.828 .0264057
911.478 .0263854
912.129 .0263632
912.778 .0263392
913.428 .0263134
914.077 .0262860
914.726 .0262581
915.375 .0262304
916.023 .0262037
916.670 .0261779
917.318 .0261533
917.964 .0261304
918.611 .0261089
919.257 .0260884
919.903 .0260677
920.548 .0260474
921.193 .0260280
921.838 .0260091
922.482 .0259912
923.126 .0259756
923.770 .0259622
924.413 .0259510
925.056 .0259412
925.698 .0259320
926.340 .0259235
926.982 .0259150
927.623 .0259058
928.264 .0258958
928.904 .0258850
929.544 .0258735
930.184 .0258621
930.823 .0258508
931.462 .0258393
932.101 .0258270
932.739 .0258139
933.377 .0257991
934.014 .0257829
934.651 .0257653
935.288 .0257461
935.924 .0257267
936.560 .0257074
937.196 .0256875
937.831 .0256683
938.466 .0256500
939.100 .0256323
939.734 .0256152
940.368 .0255978
941.001 .0255798
941.634 .0255617
942.266 .0255436
942.899 .0255249
943.530 .0255059
944.162 .0254875
944.793 .0254687
945.423 .0254492
946.053 .0254303
946.683 .0254113
947.313 .0253934
947.942 .0253758
948.571 .0253583
949.199 .0253403
949.827 .0253218
950.455 .0253021
951.082 .0252818
951.709 .0252612
952.335 .0252406
952.961 .0252205
953.587 .0252022
954.212 .0251859
954.837 .0251723
955.462 .0251608
956.086 .0251517
956.710 .0251437
957.334 .0251360
957.957 .0251275
958.579 .0251183
959.202 .0251091
959.824 .0250999
960.445 .0250909
961.067 .0250824
961.688 .0250745
962.308 .0250673
962.928 .0250607
963.548 .0250542
964.168 .0250481
964.787 .0250416
965.406 .0250343
966.024 .0250262
966.642 .0250175
967.260 .0250084
967.877 .0249997
968.494 .0249910
969.110 .0249828
969.727 .0249748
970.342 .0249679
970.958 .0249628
971.573 .0249597
972.188 .0249590
972.802 .0249600
973.416 .0249623
974.030 .0249657
974.643 .0249689
975.256 .0249721
975.869 .0249749
976.481 .0249775
977.093 .0249801
977.705 .0249830
978.316 .0249871
978.927 .0249921
979.538 .0249977
980.148 .0250034
980.758 .0250078
981.367 .0250107
981.977 .0250120
982.586 .0250121
983.194 .0250116
983.802 .0250120
984.410 .0250133
985.018 .0250163
985.625 .0250215
986.232 .0250284
986.838 .0250357
987.445 .0250439
988.050 .0250510
988.656 .0250565
989.261 .0250608
989.866 .0250635
990.471 .0250653
991.075 .0250670
991.679 .0250683
992.282 .0250696
992.886 .0250705
993.489 .0250718
994.091 .0250714
994.694 .0250708
995.296 .0250693
995.897 .0250668
996.499 .0250637
997.100 .0250610
997.701 .0250587
998.301 .0250581
998.901 .0250599
999.501 .0250640
1000.101 .0250707
1000.700 .0250796
1001.299 .0250894
1001.898 .0251002
1002.496 .0251110
1003.094 .0251215
1003.692 .0251304
1004.289 .0251390
1004.887 .0251460
1005.484 .0251518
1006.080 .0251568
1006.677 .0251606
1007.273 .0251632
1007.868 .0251652
1008.464 .0251659
1009.059 .0251652
1009.654 .0251632
1010.249 .0251612
1010.843 .0251592
1011.437 .0251585
1012.031 .0251591
1012.625 .0251610
1013.218 .0251644
1013.811 .0251692
1014.404 .0251742
1014.997 .0251802
1015.589 .0251872
1016.181 .0251954
1016.773 .0252043
1017.365 .0252153
1017.956 .0252273
1018.547 .0252410
1019.138 .0252558
1019.728 .0252718
1020.319 .0252873
1020.909 .0253018
1021.499 .0253143
1022.088 .0253247
1022.678 .0253339
1023.267 .0253421
1023.856 .0253491
1024.445 .0253563
1025.033 .0253633
1025.621 .0253697
1026.209 .0253743
1026.797 .0253779
1027.385 .0253785
1027.972 .0253764
1028.560 .0253704
1029.147 .0253611
1029.734 .0253505
1030.320 .0253402
1030.907 .0253311
1031.493 .0253258
1032.079 .0253245
1032.665 .0253258
1033.250 .0253295
1033.836 .0253353
1034.421 .0253417
1035.006 .0253478
1035.591 .0253530
1036.176 .0253561
1036.761 .0253578
1037.345 .0253587
1037.929 .0253583
1038.514 .0253587
1039.097 .0253607
1039.681 .0253627
1040.265 .0253651
1040.848 .0253687
1041.432 .0253721
1042.015 .0253754
1042.598 .0253794
1043.181 .0253825
1043.764 .0253848
1044.346 .0253861
1044.929 .0253859
1045.511 .0253851
1046.094 .0253850
1046.676 .0253845
1047.258 .0253845
1047.840 .0253857
1048.422 .0253883
1049.003 .0253915
1049.585 .0253951
1050.166 .0253985
1050.748 .0254000
1051.329 .0254006
1051.910 .0253983
1052.491 .0253925
1053.072 .0253864
1053.653 .0253785
1054.234 .0253700
1054.815 .0253613
1055.396 .0253521
1055.976 .0253422
1056.557 .0253321
1057.138 .0253213
1057.718 .0253086
1058.298 .0252953
1058.879 .0252806
1059.459 .0252643
1060.039 .0252475
1060.620 .0252300
1061.200 .0252115
1061.780 .0251929
1062.360 .0251745
1062.940 .0251552
1063.520 .0251372
1064.101 .0251201
1064.681 .0251043
1065.261 .0250904
1065.841 .0250774
1066.421 .0250671
1067.001 .0250570
1067.581 .0250481
1068.161 .0250397
1068.741 .0250329
1069.321 .0250269
1069.901 .0250220
1070.482 .0250176
1071.062 .0250131
1071.642 .0250087
1072.222 .0250050
1072.803 .0250000
1073.383 .0249955
1073.963 .0249904
1074.544 .0249846
1075.124 .0249791
1075.705 .0249749
1076.286 .0249691
1076.866 .0249653
1077.447 .0249608
1078.028 .0249555
1078.609 .0249484
1079.190 .0249413
1079.771 .0249315
1080.352 .0249217
1080.934 .0249124
1081.515 .0249035
1082.097 .0248959
1082.679 .0248909
1083.260 .0248847
1083.842 .0248808
1084.424 .0248765
1085.007 .0248715
1085.589 .0248634
1086.172 .0248580
1086.754 .0248510
1087.337 .0248468
1087.920 .0248450
1088.503 .0248463
1089.087 .0248490
1089.670 .0248540
1090.254 .0248564
1090.838 .0248545
1091.422 .0248484
1092.006 .0248372
1092.590 .0248194
1093.175 .0247991
1093.760 .0247734
1094.345 .0247478
1094.930 .0247209
1095.516 .0246969
1096.102 .0246728
1096.688 .0246501
1097.274 .0246312
1097.860 .0246154
1098.447 .0246014
1099.034 .0245873
1099.622 .0245731
1100.209 .0245609
1100.797 .0245474
1101.385 .0245325
1101.973 .0245148
1102.562 .0244967
1103.151 .0244814
1103.740 .0244668
1104.330 .0244547
1104.920 .0244485
1105.510 .0244469
1106.101 .0244477
1106.691 .0244523
1107.283 .0244545
1107.874 .0244546
1108.466 .0244525
1109.058 .0244499
1109.651 .0244478
1110.244 .0244480
1110.837 .0244533
1111.431 .0244633
1112.025 .0244778
1112.620 .0244957
1113.215 .0245093
1113.810 .0245275
1114.406 .0245448
1115.002 .0245597
1115.599 .0245736
1116.196 .0245888
1116.793 .0246047
1117.391 .0246229
1117.989 .0246372
1118.588 .0246471
1119.187 .0246485
1119.787 .0246391
1120.387 .0246145
1120.988 .0245775
1121.589 .0245332
1122.190 .0244875
1122.793 .0244441
1123.395 .0244114
1123.998 .0243852
1124.602 .0243744
1125.206 .0243800
1125.811 .0244006
1126.416 .0244318
1127.022 .0244701
1127.628 .0245124
1128.235 .0245563
1128.843 .0246015
1129.451 .0246513
1130.059 .0247082
1130.669 .0247817
1131.278 .0248723
1131.889 .0249739
1132.500 .0250838
1133.112 .0252023
1133.724 .0253171
1134.337 .0254252
1134.950 .0255153
1135.564 .0255834
1136.179 .0256289
1136.795 .0256584
1137.411 .0256768
1138.028 .0256908
1138.645 .0257115
1139.263 .0257407
1139.882 .0257662
1140.502 .0258069
1141.122 .0258487
1141.743 .0258848
1142.365 .0259368
1142.987 .0257601
1143.611 .0261661
1144.235 .0260887
1144.859 .0258466
1145.485 .0264107
