Measurement Sequence started on: 10-20-44-796
Integration time: 35
Scans to Average: 2 
>>>>>Begin Spectral Data<<<<<
432.953 .0401348
433.882 .0379948
434.810 .0347817
435.737 .0313858
436.662 .0310055
437.586 .0323044
438.509 .0317551
439.431 .0314661
440.351 .0313810
441.269 .0314308
442.187 .0315032
443.103 .0315786
444.018 .0316601
444.932 .0317457
445.844 .0318232
446.756 .0319005
447.666 .0319649
448.575 .0320061
449.482 .0320314
450.388 .0320469
451.294 .0320505
452.198 .0320503
453.100 .0320502
454.002 .0320509
454.902 .0320551
455.801 .0320641
456.699 .0320755
457.596 .0320925
458.492 .0321171
459.387 .0321415
460.280 .0321705
461.172 .0322008
462.064 .0322281
462.954 .0322558
463.843 .0322808
464.730 .0323016
465.617 .0323178
466.503 .0323282
467.387 .0323313
468.271 .0323254
469.153 .0323178
470.035 .0323053
470.915 .0322942
471.794 .0322820
472.673 .0322686
473.550 .0322541
474.426 .0322372
475.301 .0322157
476.175 .0321890
477.048 .0321537
477.920 .0321125
478.791 .0320654
479.661 .0320170
480.530 .0319683
481.398 .0319258
482.266 .0318932
483.132 .0318725
483.997 .0318587
484.861 .0318482
485.724 .0318371
486.587 .0318247
487.448 .0318041
488.308 .0317772
489.168 .0317471
490.026 .0317154
490.884 .0316838
491.741 .0316553
492.597 .0316291
493.452 .0316060
494.306 .0315841
495.159 .0315571
496.011 .0315231
496.862 .0314782
497.713 .0314212
498.562 .0313525
499.411 .0312776
500.259 .0311963
501.106 .0311101
501.952 .0310246
502.798 .0309391
503.642 .0308520
504.486 .0307682
505.329 .0306845
506.171 .0306048
507.012 .0305259
507.852 .0304493
508.692 .0303698
509.531 .0302959
510.369 .0302233
511.206 .0301539
512.043 .0300829
512.878 .0300114
513.713 .0299318
514.547 .0298458
515.381 .0297510
516.213 .0296488
517.045 .0295339
517.876 .0294115
518.706 .0292700
519.536 .0291228
520.365 .0289636
521.193 .0287957
522.020 .0286207
522.847 .0284427
523.673 .0282530
524.498 .0280487
525.323 .0278288
526.146 .0276018
526.969 .0273635
527.792 .0271274
528.614 .0268918
529.435 .0266696
530.255 .0264658
531.075 .0262785
531.894 .0261088
532.712 .0259620
533.530 .0258246
534.347 .0256940
535.163 .0255690
535.979 .0254554
536.794 .0253515
537.608 .0252687
538.422 .0252095
539.235 .0251744
540.048 .0251557
540.860 .0251525
541.671 .0251560
542.481 .0251693
543.292 .0251803
544.101 .0251876
544.910 .0251974
545.718 .0252128
546.526 .0252331
547.333 .0252643
548.139 .0253085
548.945 .0253651
549.750 .0254230
550.555 .0254837
551.359 .0255388
552.162 .0255894
552.965 .0256332
553.768 .0256729
554.569 .0257123
555.371 .0257554
556.171 .0258040
556.972 .0258613
557.771 .0259263
558.570 .0259992
559.369 .0260717
560.167 .0261437
560.964 .0262122
561.761 .0262770
562.558 .0263389
563.354 .0264028
564.149 .0264703
564.944 .0265460
565.738 .0266315
566.532 .0267288
567.325 .0268364
568.118 .0269550
568.910 .0270804
569.702 .0272093
570.494 .0273380
571.285 .0274644
572.075 .0275849
572.865 .0276998
573.654 .0278070
574.443 .0279040
575.232 .0279949
576.020 .0280797
576.807 .0281597
577.594 .0282376
578.381 .0283137
579.167 .0283881
579.952 .0284588
580.738 .0285266
581.522 .0285873
582.307 .0286412
583.091 .0286883
583.874 .0287275
584.657 .0287591
585.440 .0287866
586.222 .0288100
587.004 .0288304
587.785 .0288504
588.566 .0288704
589.346 .0288887
590.126 .0289063
590.906 .0289205
591.685 .0289324
592.464 .0289408
593.242 .0289466
594.020 .0289476
594.797 .0289480
595.575 .0289474
596.351 .0289457
597.128 .0289445
597.904 .0289441
598.679 .0289427
599.454 .0289407
600.229 .0289376
601.004 .0289330
601.778 .0289253
602.551 .0289156
603.325 .0289033
604.097 .0288898
604.870 .0288750
605.642 .0288591
606.414 .0288440
607.185 .0288302
607.956 .0288161
608.727 .0288017
609.497 .0287882
610.267 .0287749
611.037 .0287612
611.806 .0287475
612.575 .0287335
613.344 .0287191
614.112 .0287048
614.880 .0286899
615.647 .0286752
616.414 .0286607
617.181 .0286459
617.948 .0286311
618.714 .0286166
619.480 .0286017
620.245 .0285866
621.011 .0285717
621.775 .0285570
622.540 .0285413
623.304 .0285252
624.068 .0285093
624.832 .0284932
625.595 .0284774
626.358 .0284618
627.120 .0284466
627.883 .0284321
628.645 .0284178
629.406 .0284032
630.168 .0283884
630.929 .0283728
631.689 .0283565
632.450 .0283387
633.210 .0283202
633.970 .0283012
634.729 .0282821
635.489 .0282636
636.248 .0282454
637.006 .0282274
637.765 .0282095
638.523 .0281913
639.280 .0281731
640.038 .0281543
640.795 .0281358
641.552 .0281177
642.309 .0281004
643.065 .0280842
643.821 .0280690
644.577 .0280545
645.332 .0280409
646.088 .0280279
646.843 .0280147
647.597 .0280014
648.352 .0279874
649.106 .0279732
649.860 .0279584
650.613 .0279433
651.367 .0279287
652.120 .0279140
652.872 .0278998
653.625 .0278860
654.377 .0278726
655.129 .0278601
655.881 .0278480
656.632 .0278365
657.384 .0278252
658.135 .0278139
658.885 .0278020
659.636 .0277894
660.386 .0277763
661.136 .0277626
661.885 .0277482
662.635 .0277337
663.384 .0277194
664.133 .0277052
664.881 .0276915
665.630 .0276781
666.378 .0276646
667.126 .0276512
667.874 .0276369
668.621 .0276212
669.368 .0276044
670.115 .0275866
670.862 .0275685
671.608 .0275507
672.354 .0275339
673.100 .0275183
673.846 .0275042
674.591 .0274918
675.337 .0274806
676.082 .0274705
676.826 .0274611
677.571 .0274515
678.315 .0274417
679.059 .0274312
679.803 .0274202
680.547 .0274088
681.290 .0273979
682.033 .0273870
682.776 .0273762
683.518 .0273654
684.261 .0273544
685.003 .0273428
685.745 .0273302
686.487 .0273160
687.228 .0272998
687.969 .0272821
688.710 .0272626
689.451 .0272412
690.192 .0272194
690.932 .0271969
691.672 .0271744
692.412 .0271524
693.152 .0271310
693.891 .0271097
694.630 .0270889
695.369 .0270682
696.108 .0270471
696.846 .0270258
697.585 .0270041
698.323 .0269824
699.061 .0269619
699.798 .0269426
700.536 .0269244
701.273 .0269080
702.010 .0268935
702.746 .0268799
703.483 .0268676
704.219 .0268558
704.955 .0268436
705.691 .0268314
706.427 .0268185
707.162 .0268053
707.897 .0267923
708.632 .0267793
709.367 .0267665
710.101 .0267533
710.835 .0267395
711.569 .0267247
712.303 .0267085
713.037 .0266917
713.770 .0266736
714.503 .0266546
715.236 .0266350
715.969 .0266150
716.702 .0265951
717.434 .0265755
718.166 .0265558
718.898 .0265362
719.629 .0265163
720.361 .0264965
721.092 .0264765
721.823 .0264560
722.554 .0264358
723.284 .0264157
724.014 .0263949
724.744 .0263740
725.474 .0263522
726.204 .0263304
726.933 .0263088
727.662 .0262870
728.391 .0262656
729.120 .0262448
729.849 .0262250
730.577 .0262061
731.305 .0261883
732.033 .0261720
732.760 .0261560
733.488 .0261414
734.215 .0261277
734.942 .0261147
735.669 .0261029
736.395 .0260922
737.122 .0260830
737.848 .0260749
738.573 .0260676
739.299 .0260601
740.024 .0260527
740.750 .0260448
741.474 .0260356
742.199 .0260252
742.924 .0260140
743.648 .0260020
744.372 .0259893
745.096 .0259766
745.819 .0259639
746.543 .0259520
747.266 .0259408
747.989 .0259302
748.711 .0259205
749.434 .0259114
750.156 .0259033
750.878 .0258956
751.599 .0258895
752.321 .0258843
753.042 .0258802
753.763 .0258777
754.484 .0258766
755.205 .0258768
755.925 .0258780
756.645 .0258800
757.365 .0258825
758.085 .0258847
758.804 .0258863
759.523 .0258864
760.242 .0258849
760.961 .0258815
761.679 .0258758
762.397 .0258679
763.115 .0258582
763.833 .0258465
764.551 .0258331
765.268 .0258181
765.985 .0258019
766.702 .0257845
767.418 .0257660
768.134 .0257469
768.850 .0257271
769.566 .0257070
770.282 .0256874
770.997 .0256681
771.712 .0256500
772.427 .0256332
773.142 .0256183
773.856 .0256050
774.570 .0255932
775.284 .0255829
775.998 .0255741
776.711 .0255668
777.424 .0255605
778.137 .0255548
778.849 .0255498
779.562 .0255446
780.274 .0255388
780.986 .0255320
781.697 .0255242
782.409 .0255151
783.120 .0255048
783.831 .0254936
784.541 .0254819
785.252 .0254700
785.962 .0254582
786.671 .0254471
787.381 .0254361
788.090 .0254250
788.799 .0254134
789.508 .0254010
790.217 .0253878
790.925 .0253737
791.633 .0253587
792.341 .0253435
793.048 .0253289
793.755 .0253145
794.462 .0253001
795.169 .0252865
795.875 .0252734
796.581 .0252603
797.287 .0252468
797.993 .0252326
798.698 .0252176
799.403 .0252020
800.108 .0251858
800.812 .0251691
801.517 .0251525
802.221 .0251365
802.924 .0251203
803.628 .0251047
804.331 .0250902
805.034 .0250762
805.736 .0250629
806.439 .0250506
807.141 .0250393
807.843 .0250289
808.544 .0250190
809.245 .0250095
809.946 .0250002
810.647 .0249913
811.347 .0249819
812.047 .0249721
812.747 .0249625
813.447 .0249530
814.146 .0249432
814.845 .0249340
815.543 .0249249
816.242 .0249158
816.940 .0249061
817.638 .0248953
818.335 .0248829
819.032 .0248689
819.729 .0248526
820.426 .0248345
821.122 .0248149
821.818 .0247945
822.514 .0247730
823.209 .0247519
823.905 .0247306
824.599 .0247094
825.294 .0246884
825.988 .0246670
826.682 .0246452
827.376 .0246233
828.069 .0246011
828.762 .0245791
829.455 .0245578
830.147 .0245378
830.840 .0245191
831.531 .0245022
832.223 .0244871
832.914 .0244735
833.605 .0244611
834.296 .0244493
834.986 .0244377
835.676 .0244263
836.366 .0244145
837.055 .0244024
837.744 .0243901
838.433 .0243777
839.121 .0243654
839.809 .0243535
840.497 .0243420
841.185 .0243315
841.872 .0243214
842.559 .0243119
843.245 .0243030
843.932 .0242942
844.617 .0242855
845.303 .0242766
845.988 .0242672
846.673 .0242577
847.358 .0242480
848.042 .0242381
848.726 .0242281
849.410 .0242182
850.093 .0242084
850.776 .0241982
851.459 .0241880
852.141 .0241771
852.823 .0241656
853.505 .0241535
854.186 .0241403
854.867 .0241259
855.548 .0241108
856.228 .0240951
856.908 .0240789
857.588 .0240630
858.267 .0240482
858.946 .0240345
859.625 .0240223
860.303 .0240119
860.981 .0240032
861.659 .0239957
862.336 .0239893
863.013 .0239833
863.690 .0239776
864.366 .0239721
865.042 .0239669
865.718 .0239624
866.393 .0239587
867.068 .0239558
867.743 .0239531
868.417 .0239507
869.091 .0239480
869.765 .0239446
870.438 .0239401
871.111 .0239348
871.783 .0239287
872.456 .0239216
873.127 .0239143
873.799 .0239070
874.470 .0238997
875.141 .0238927
875.811 .0238859
876.481 .0238790
877.151 .0238720
877.820 .0238653
878.489 .0238587
879.158 .0238525
879.826 .0238466
880.494 .0238413
881.162 .0238359
881.829 .0238308
882.496 .0238253
883.163 .0238196
883.829 .0238137
884.495 .0238071
885.160 .0238001
885.825 .0237939
886.490 .0237883
887.154 .0237835
887.818 .0237798
888.482 .0237773
889.145 .0237754
889.808 .0237743
890.471 .0237733
891.133 .0237727
891.795 .0237728
892.456 .0237728
893.117 .0237732
893.778 .0237742
894.439 .0237759
895.099 .0237780
895.758 .0237807
896.417 .0237839
897.076 .0237863
897.735 .0237882
898.393 .0237892
899.051 .0237887
899.708 .0237870
900.365 .0237838
901.022 .0237798
901.678 .0237753
902.334 .0237706
902.990 .0237659
903.645 .0237621
904.300 .0237589
904.954 .0237559
905.608 .0237528
906.262 .0237498
906.915 .0237470
907.568 .0237438
908.221 .0237406
908.873 .0237377
909.525 .0237349
910.176 .0237322
910.828 .0237296
911.478 .0237272
912.129 .0237248
912.778 .0237226
913.428 .0237205
914.077 .0237183
914.726 .0237161
915.375 .0237136
916.023 .0237110
916.670 .0237084
917.318 .0237055
917.964 .0237019
918.611 .0236983
919.257 .0236943
919.903 .0236898
920.548 .0236850
921.193 .0236805
921.838 .0236762
922.482 .0236723
923.126 .0236684
923.770 .0236649
924.413 .0236619
925.056 .0236589
925.698 .0236557
926.340 .0236523
926.982 .0236488
927.623 .0236447
928.264 .0236402
928.904 .0236360
929.544 .0236315
930.184 .0236274
930.823 .0236230
931.462 .0236187
932.101 .0236143
932.739 .0236090
933.377 .0236028
934.014 .0235953
934.651 .0235867
935.288 .0235762
935.924 .0235643
936.560 .0235517
937.196 .0235384
937.831 .0235249
938.466 .0235114
939.100 .0234980
939.734 .0234847
940.368 .0234717
941.001 .0234586
941.634 .0234459
942.266 .0234337
942.899 .0234214
943.530 .0234099
944.162 .0233989
944.793 .0233883
945.423 .0233776
946.053 .0233668
946.683 .0233559
947.313 .0233440
947.942 .0233313
948.571 .0233171
949.199 .0233020
949.827 .0232858
950.455 .0232682
951.082 .0232498
951.709 .0232305
952.335 .0232110
952.961 .0231910
953.587 .0231706
954.212 .0231502
954.837 .0231295
955.462 .0231089
956.086 .0230888
956.710 .0230695
957.334 .0230512
957.957 .0230345
958.579 .0230193
959.202 .0230052
959.824 .0229919
960.445 .0229789
961.067 .0229661
961.688 .0229533
962.308 .0229400
962.928 .0229261
963.548 .0229121
964.168 .0228985
964.787 .0228849
965.406 .0228718
966.024 .0228594
966.642 .0228474
967.260 .0228354
967.877 .0228236
968.494 .0228117
969.110 .0227996
969.727 .0227871
970.342 .0227743
970.958 .0227609
971.573 .0227474
972.188 .0227335
972.802 .0227200
973.416 .0227072
974.030 .0226951
974.643 .0226833
975.256 .0226723
975.869 .0226616
976.481 .0226507
977.093 .0226395
977.705 .0226282
978.316 .0226168
978.927 .0226056
979.538 .0225948
980.148 .0225850
980.758 .0225766
981.367 .0225698
981.977 .0225641
982.586 .0225593
983.194 .0225550
983.802 .0225508
984.410 .0225459
985.018 .0225407
985.625 .0225347
986.232 .0225281
986.838 .0225213
987.445 .0225135
988.050 .0225052
988.656 .0224962
989.261 .0224867
989.866 .0224767
990.471 .0224665
991.075 .0224571
991.679 .0224476
992.282 .0224381
992.886 .0224291
993.489 .0224198
994.091 .0224103
994.694 .0224002
995.296 .0223895
995.897 .0223783
996.499 .0223670
997.100 .0223556
997.701 .0223452
998.301 .0223362
998.901 .0223281
999.501 .0223207
1000.101 .0223142
1000.700 .0223076
1001.299 .0223002
1001.898 .0222930
1002.496 .0222859
1003.094 .0222788
1003.692 .0222722
1004.289 .0222657
1004.887 .0222602
1005.484 .0222547
1006.080 .0222486
1006.677 .0222418
1007.273 .0222341
1007.868 .0222254
1008.464 .0222156
1009.059 .0222055
1009.654 .0221952
1010.249 .0221853
1010.843 .0221759
1011.437 .0221671
1012.031 .0221585
1012.625 .0221499
1013.218 .0221410
1013.811 .0221323
1014.404 .0221232
1014.997 .0221136
1015.589 .0221042
1016.181 .0220960
1016.773 .0220881
1017.365 .0220813
1017.956 .0220755
1018.547 .0220708
1019.138 .0220671
1019.728 .0220641
1020.319 .0220611
1020.909 .0220585
1021.499 .0220556
1022.088 .0220521
1022.678 .0220478
1023.267 .0220433
1023.856 .0220374
1024.445 .0220306
1025.033 .0220231
1025.621 .0220142
1026.209 .0220040
1026.797 .0219934
1027.385 .0219821
1027.972 .0219710
1028.560 .0219598
1029.147 .0219489
1029.734 .0219380
1030.320 .0219275
1030.907 .0219173
1031.493 .0219076
1032.079 .0218989
1032.665 .0218920
1033.250 .0218863
1033.836 .0218824
1034.421 .0218808
1035.006 .0218808
1035.591 .0218827
1036.176 .0218864
1036.761 .0218913
1037.345 .0218973
1037.929 .0219027
1038.514 .0219081
1039.097 .0219130
1039.681 .0219178
1040.265 .0219225
1040.848 .0219268
1041.432 .0219312
1042.015 .0219350
1042.598 .0219384
1043.181 .0219416
1043.764 .0219448
1044.346 .0219485
1044.929 .0219515
1045.511 .0219547
1046.094 .0219577
1046.676 .0219606
1047.258 .0219631
1047.840 .0219661
1048.422 .0219687
1049.003 .0219705
1049.585 .0219710
1050.166 .0219700
1050.748 .0219682
1051.329 .0219648
1051.910 .0219600
1052.491 .0219543
1053.072 .0219488
1053.653 .0219440
1054.234 .0219397
1054.815 .0219380
1055.396 .0219384
1055.976 .0219412
1056.557 .0219453
1057.138 .0219508
1057.718 .0219577
1058.298 .0219652
1058.879 .0219731
1059.459 .0219811
1060.039 .0219894
1060.620 .0219972
1061.200 .0220051
1061.780 .0220126
1062.360 .0220192
1062.940 .0220250
1063.520 .0220289
1064.101 .0220303
1064.681 .0220293
1065.261 .0220250
1065.841 .0220162
1066.421 .0220037
1067.001 .0219880
1067.581 .0219689
1068.161 .0219479
1068.741 .0219276
1069.321 .0219086
1069.901 .0218919
1070.482 .0218788
1071.062 .0218681
1071.642 .0218603
1072.222 .0218551
1072.803 .0218495
1073.383 .0218443
1073.963 .0218396
1074.544 .0218359
1075.124 .0218336
1075.705 .0218337
1076.286 .0218372
1076.866 .0218426
1077.447 .0218496
1078.028 .0218567
1078.609 .0218629
1079.190 .0218666
1079.771 .0218664
1080.352 .0218630
1080.934 .0218579
1081.515 .0218507
1082.097 .0218437
1082.679 .0218377
1083.260 .0218326
1083.842 .0218283
1084.424 .0218242
1085.007 .0218202
1085.589 .0218183
1086.172 .0218171
1086.754 .0218179
1087.337 .0218210
1087.920 .0218276
1088.503 .0218372
1089.087 .0218496
1089.670 .0218645
1090.254 .0218798
1090.838 .0218948
1091.422 .0219086
1092.006 .0219199
1092.590 .0219302
1093.175 .0219389
1093.760 .0219465
1094.345 .0219535
1094.930 .0219594
1095.516 .0219640
1096.102 .0219683
1096.688 .0219717
1097.274 .0219732
1097.860 .0219724
1098.447 .0219682
1099.034 .0219604
1099.622 .0219491
1100.209 .0219355
1100.797 .0219205
1101.385 .0219077
1101.973 .0218989
1102.562 .0218954
1103.151 .0218976
1103.740 .0219060
1104.330 .0219185
1104.920 .0219330
1105.510 .0219470
1106.101 .0219604
1106.691 .0219698
1107.283 .0219774
1107.874 .0219823
1108.466 .0219855
1109.058 .0219899
1109.651 .0219978
1110.244 .0220102
1110.837 .0220268
1111.431 .0220473
1112.025 .0220693
1112.620 .0220902
1113.215 .0221128
1113.810 .0221338
1114.406 .0221541
1115.002 .0221740
1115.599 .0221928
1116.196 .0222076
1116.793 .0222205
1117.391 .0222327
1117.989 .0222437
1118.588 .0222554
1119.187 .0222689
1119.787 .0222809
1120.387 .0222940
1120.988 .0223066
1121.589 .0223152
1122.190 .0223192
1122.793 .0223175
1123.395 .0223072
1123.998 .0222907
1124.602 .0222743
1125.206 .0222613
1125.811 .0222552
1126.416 .0222612
1127.022 .0222782
1127.628 .0223028
1128.235 .0223339
1128.843 .0223658
1129.451 .0223935
1130.059 .0224180
1130.669 .0224343
1131.278 .0224403
1131.889 .0224448
1132.500 .0224500
1133.112 .0224616
1133.724 .0224835
1134.337 .0225208
1134.950 .0225633
1135.564 .0226117
1136.179 .0226634
1136.795 .0227132
1137.411 .0227629
1138.028 .0228114
1138.645 .0228604
1139.263 .0229210
1139.882 .0229991
1140.502 .0230949
1141.122 .0231976
1141.743 .0233185
1142.365 .0234458
1142.987 .0237395
1143.611 .0238506
1144.235 .0236541
1144.859 .0238988
1145.485 .0240923
