Measurement Sequence started on: 10-20-44-796
Integration time: 35
Scans to Average: 2 
>>>>>Begin Spectral Data<<<<<
432.953 .0320069
433.882 .0317670
434.810 .0347587
435.737 .0335764
436.662 .0333425
437.586 .0343619
438.509 .0346872
439.431 .0349704
440.351 .0351448
441.269 .0353298
442.187 .0354874
443.103 .0355890
444.018 .0356805
444.932 .0357714
445.844 .0358553
446.756 .0359426
447.666 .0360171
448.575 .0360905
449.482 .0361585
450.388 .0362131
451.294 .0362463
452.198 .0362638
453.100 .0362668
454.002 .0362637
454.902 .0362524
455.801 .0362310
456.699 .0362070
457.596 .0361827
458.492 .0361555
459.387 .0361240
460.280 .0360860
461.172 .0360416
462.064 .0359878
462.954 .0359259
463.843 .0358551
464.730 .0357847
465.617 .0357187
466.503 .0356588
467.387 .0356087
468.271 .0355665
469.153 .0355306
470.035 .0355006
470.915 .0354763
471.794 .0354507
472.673 .0354250
473.550 .0353993
474.426 .0353724
475.301 .0353499
476.175 .0353339
477.048 .0353237
477.920 .0353223
478.791 .0353279
479.661 .0353364
480.530 .0353416
481.398 .0353394
482.266 .0353257
483.132 .0352989
483.997 .0352605
484.861 .0352113
485.724 .0351596
486.587 .0351134
487.448 .0350736
488.308 .0350415
489.168 .0350180
490.026 .0349967
490.884 .0349743
491.741 .0349420
492.597 .0348982
493.452 .0348449
494.306 .0347840
495.159 .0347199
496.011 .0346617
496.862 .0346111
497.713 .0345697
498.562 .0345324
499.411 .0344965
500.259 .0344555
501.106 .0344035
501.952 .0343347
502.798 .0342496
503.642 .0341522
504.486 .0340464
505.329 .0339315
506.171 .0338176
507.012 .0337053
507.852 .0335924
508.692 .0334748
509.531 .0333526
510.369 .0332204
511.206 .0330833
512.043 .0329379
512.878 .0327876
513.713 .0326367
514.547 .0324836
515.381 .0323286
516.213 .0321739
517.045 .0320178
517.876 .0318579
518.706 .0316860
519.536 .0315122
520.365 .0313324
521.193 .0311468
522.020 .0309601
522.847 .0307779
523.673 .0306028
524.498 .0304375
525.323 .0302787
526.146 .0301324
526.969 .0299980
527.792 .0298749
528.614 .0297530
529.435 .0296378
530.255 .0295284
531.075 .0294225
531.894 .0293194
532.712 .0292242
533.530 .0291308
534.347 .0290404
535.163 .0289550
535.979 .0288784
536.794 .0288097
537.608 .0287474
538.422 .0286857
539.235 .0286315
540.048 .0285738
540.860 .0285146
541.671 .0284559
542.481 .0284014
543.292 .0283510
544.101 .0283062
544.910 .0282710
545.718 .0282484
546.526 .0282451
547.333 .0282535
548.139 .0282748
548.945 .0283078
549.750 .0283464
550.555 .0283873
551.359 .0284303
552.162 .0284779
552.965 .0285239
553.768 .0285723
554.569 .0286249
555.371 .0286731
556.171 .0287241
556.972 .0287721
557.771 .0288196
558.570 .0288638
559.369 .0289072
560.167 .0289475
560.964 .0289872
561.761 .0290290
562.558 .0290731
563.354 .0291211
564.149 .0291773
564.944 .0292383
565.738 .0293019
566.532 .0293680
567.325 .0294353
568.118 .0295030
568.910 .0295743
569.702 .0296468
570.494 .0297232
571.285 .0297993
572.075 .0298764
572.865 .0299506
573.654 .0300221
574.443 .0300899
575.232 .0301536
576.020 .0302132
576.807 .0302700
577.594 .0303228
578.381 .0303770
579.167 .0304330
579.952 .0304931
580.738 .0305560
581.522 .0306212
582.307 .0306856
583.091 .0307484
583.874 .0308060
584.657 .0308578
585.440 .0309036
586.222 .0309441
587.004 .0309780
587.785 .0310073
588.566 .0310341
589.346 .0310590
590.126 .0310810
590.906 .0311000
591.685 .0311144
592.464 .0311250
593.242 .0311287
594.020 .0311273
594.797 .0311223
595.575 .0311147
596.351 .0311061
597.128 .0310971
597.904 .0310883
598.679 .0310800
599.454 .0310710
600.229 .0310626
601.004 .0310535
601.778 .0310434
602.551 .0310308
603.325 .0310173
604.097 .0310029
604.870 .0309877
605.642 .0309711
606.414 .0309541
607.185 .0309365
607.956 .0309190
608.727 .0309009
609.497 .0308819
610.267 .0308628
611.037 .0308439
611.806 .0308250
612.575 .0308060
613.344 .0307859
614.112 .0307650
614.880 .0307430
615.647 .0307200
616.414 .0306948
617.181 .0306686
617.948 .0306420
618.714 .0306148
619.480 .0305878
620.245 .0305608
621.011 .0305334
621.775 .0305058
622.540 .0304782
623.304 .0304501
624.068 .0304220
624.832 .0303937
625.595 .0303656
626.358 .0303384
627.120 .0303124
627.883 .0302868
628.645 .0302620
629.406 .0302384
630.168 .0302156
630.929 .0301932
631.689 .0301720
632.450 .0301511
633.210 .0301311
633.970 .0301108
634.729 .0300902
635.489 .0300687
636.248 .0300458
637.006 .0300214
637.765 .0299959
638.523 .0299698
639.280 .0299430
640.038 .0299162
640.795 .0298906
641.552 .0298655
642.309 .0298417
643.065 .0298184
643.821 .0297962
644.577 .0297746
645.332 .0297535
646.088 .0297333
646.843 .0297146
647.597 .0296976
648.352 .0296821
649.106 .0296695
649.860 .0296591
650.613 .0296509
651.367 .0296443
652.120 .0296388
652.872 .0296340
653.625 .0296286
654.377 .0296222
655.129 .0296146
655.881 .0296055
656.632 .0295949
657.384 .0295822
658.135 .0295687
658.885 .0295540
659.636 .0295387
660.386 .0295231
661.136 .0295074
661.885 .0294914
662.635 .0294756
663.384 .0294593
664.133 .0294422
664.881 .0294248
665.630 .0294070
666.378 .0293890
667.126 .0293714
667.874 .0293544
668.621 .0293380
669.368 .0293225
670.115 .0293082
670.862 .0292944
671.608 .0292817
672.354 .0292698
673.100 .0292580
673.846 .0292470
674.591 .0292366
675.337 .0292266
676.082 .0292176
676.826 .0292093
677.571 .0292013
678.315 .0291930
679.059 .0291839
679.803 .0291741
680.547 .0291636
681.290 .0291523
682.033 .0291399
682.776 .0291273
683.518 .0291144
684.261 .0291009
685.003 .0290870
685.745 .0290724
686.487 .0290570
687.228 .0290402
687.969 .0290217
688.710 .0290012
689.451 .0289800
690.192 .0289579
690.932 .0289353
691.672 .0289130
692.412 .0288913
693.152 .0288699
693.891 .0288492
694.630 .0288284
695.369 .0288080
696.108 .0287871
696.846 .0287651
697.585 .0287418
698.323 .0287179
699.061 .0286933
699.798 .0286684
700.536 .0286435
701.273 .0286194
702.010 .0285954
702.746 .0285727
703.483 .0285506
704.219 .0285298
704.955 .0285096
705.691 .0284901
706.427 .0284709
707.162 .0284523
707.897 .0284333
708.632 .0284144
709.367 .0283955
710.101 .0283762
710.835 .0283563
711.569 .0283361
712.303 .0283154
713.037 .0282951
713.770 .0282749
714.503 .0282544
715.236 .0282328
715.969 .0282109
716.702 .0281878
717.434 .0281641
718.166 .0281399
718.898 .0281159
719.629 .0280927
720.361 .0280714
721.092 .0280518
721.823 .0280339
722.554 .0280177
723.284 .0280023
724.014 .0279862
724.744 .0279691
725.474 .0279498
726.204 .0279290
726.933 .0279069
727.662 .0278842
728.391 .0278616
729.120 .0278396
729.849 .0278184
730.577 .0277983
731.305 .0277785
732.033 .0277583
732.760 .0277367
733.488 .0277138
734.215 .0276893
734.942 .0276636
735.669 .0276372
736.395 .0276112
737.122 .0275862
737.848 .0275633
738.573 .0275422
739.299 .0275235
740.024 .0275069
740.750 .0274921
741.474 .0274784
742.199 .0274655
742.924 .0274531
743.648 .0274414
744.372 .0274297
745.096 .0274190
745.819 .0274091
746.543 .0274006
747.266 .0273938
747.989 .0273890
748.711 .0273858
749.434 .0273841
750.156 .0273829
750.878 .0273816
751.599 .0273794
752.321 .0273765
753.042 .0273720
753.763 .0273667
754.484 .0273609
755.205 .0273547
755.925 .0273482
756.645 .0273421
757.365 .0273355
758.085 .0273280
758.804 .0273196
759.523 .0273096
760.242 .0272981
760.961 .0272852
761.679 .0272714
762.397 .0272564
763.115 .0272411
763.833 .0272257
764.551 .0272098
765.268 .0271936
765.985 .0271773
766.702 .0271603
767.418 .0271433
768.134 .0271260
768.850 .0271087
769.566 .0270920
770.282 .0270765
770.997 .0270620
771.712 .0270483
772.427 .0270354
773.142 .0270232
773.856 .0270108
774.570 .0269984
775.284 .0269857
775.998 .0269730
776.711 .0269601
777.424 .0269477
778.137 .0269354
778.849 .0269235
779.562 .0269119
780.274 .0269003
780.986 .0268886
781.697 .0268766
782.409 .0268642
783.120 .0268517
783.831 .0268396
784.541 .0268281
785.252 .0268174
785.962 .0268084
786.671 .0268009
787.381 .0267948
788.090 .0267898
788.799 .0267854
789.508 .0267810
790.217 .0267764
790.925 .0267711
791.633 .0267649
792.341 .0267584
793.048 .0267516
793.755 .0267445
794.462 .0267374
795.169 .0267303
795.875 .0267231
796.581 .0267157
797.287 .0267077
797.993 .0266987
798.698 .0266894
799.403 .0266796
800.108 .0266694
800.812 .0266592
801.517 .0266493
802.221 .0266395
802.924 .0266299
803.628 .0266204
804.331 .0266111
805.034 .0266014
805.736 .0265914
806.439 .0265809
807.141 .0265698
807.843 .0265583
808.544 .0265464
809.245 .0265340
809.946 .0265213
810.647 .0265082
811.347 .0264947
812.047 .0264813
812.747 .0264682
813.447 .0264550
814.146 .0264420
814.845 .0264295
815.543 .0264170
816.242 .0264043
816.940 .0263914
817.638 .0263779
818.335 .0263640
819.032 .0263495
819.729 .0263345
820.426 .0263190
821.122 .0263030
821.818 .0262861
822.514 .0262680
823.209 .0262489
823.905 .0262287
824.599 .0262072
825.294 .0261849
825.988 .0261618
826.682 .0261384
827.376 .0261151
828.069 .0260917
828.762 .0260691
829.455 .0260471
830.147 .0260258
830.840 .0260050
831.531 .0259851
832.223 .0259660
832.914 .0259476
833.605 .0259300
834.296 .0259132
834.986 .0258965
835.676 .0258798
836.366 .0258631
837.055 .0258466
837.744 .0258303
838.433 .0258140
839.121 .0257978
839.809 .0257821
840.497 .0257669
841.185 .0257520
841.872 .0257370
842.559 .0257226
843.245 .0257082
843.932 .0256934
844.617 .0256785
845.303 .0256634
845.988 .0256485
846.673 .0256337
847.358 .0256190
848.042 .0256042
848.726 .0255894
849.410 .0255747
850.093 .0255597
850.776 .0255445
851.459 .0255291
852.141 .0255135
852.823 .0254976
853.505 .0254821
854.186 .0254662
854.867 .0254502
855.548 .0254344
856.228 .0254186
856.908 .0254027
857.588 .0253871
858.267 .0253722
858.946 .0253580
859.625 .0253449
860.303 .0253327
860.981 .0253214
861.659 .0253110
862.336 .0253009
863.013 .0252905
863.690 .0252795
864.366 .0252675
865.042 .0252545
865.718 .0252415
866.393 .0252288
867.068 .0252167
867.743 .0252060
868.417 .0251963
869.091 .0251874
869.765 .0251787
870.438 .0251697
871.111 .0251595
871.783 .0251480
872.456 .0251345
873.127 .0251193
873.799 .0251034
874.470 .0250871
875.141 .0250709
875.811 .0250555
876.481 .0250407
877.151 .0250262
877.820 .0250117
878.489 .0249971
879.158 .0249819
879.826 .0249667
880.494 .0249514
881.162 .0249360
881.829 .0249215
882.496 .0249081
883.163 .0248958
883.829 .0248849
884.495 .0248751
885.160 .0248665
885.825 .0248593
886.490 .0248531
887.154 .0248480
887.818 .0248439
888.482 .0248409
889.145 .0248384
889.808 .0248362
890.471 .0248346
891.133 .0248331
891.795 .0248312
892.456 .0248295
893.117 .0248271
893.778 .0248245
894.439 .0248215
895.099 .0248176
895.758 .0248131
896.417 .0248079
897.076 .0248015
897.735 .0247944
898.393 .0247868
899.051 .0247791
899.708 .0247706
900.365 .0247621
901.022 .0247540
901.678 .0247460
902.334 .0247389
902.990 .0247324
903.645 .0247265
904.300 .0247223
904.954 .0247189
905.608 .0247161
906.262 .0247144
906.915 .0247135
907.568 .0247128
908.221 .0247123
908.873 .0247116
909.525 .0247105
910.176 .0247087
910.828 .0247066
911.478 .0247036
912.129 .0247000
912.778 .0246956
913.428 .0246899
914.077 .0246834
914.726 .0246763
915.375 .0246682
916.023 .0246604
916.670 .0246531
917.318 .0246472
917.964 .0246424
918.611 .0246387
919.257 .0246364
919.903 .0246345
920.548 .0246327
921.193 .0246308
921.838 .0246289
922.482 .0246274
923.126 .0246262
923.770 .0246257
924.413 .0246267
925.056 .0246287
925.698 .0246319
926.340 .0246354
926.982 .0246390
927.623 .0246421
928.264 .0246441
928.904 .0246452
929.544 .0246457
930.184 .0246453
930.823 .0246449
931.462 .0246445
932.101 .0246444
932.739 .0246446
933.377 .0246449
934.014 .0246445
934.651 .0246436
935.288 .0246416
935.924 .0246389
936.560 .0246350
937.196 .0246304
937.831 .0246248
938.466 .0246186
939.100 .0246118
939.734 .0246041
940.368 .0245959
941.001 .0245873
941.634 .0245785
942.266 .0245696
942.899 .0245601
943.530 .0245500
944.162 .0245389
944.793 .0245265
945.423 .0245124
946.053 .0244964
946.683 .0244787
947.313 .0244598
947.942 .0244400
948.571 .0244197
949.199 .0243994
949.827 .0243789
950.455 .0243588
951.082 .0243387
951.709 .0243185
952.335 .0242978
952.961 .0242769
953.587 .0242559
954.212 .0242351
954.837 .0242149
955.462 .0241959
956.086 .0241786
956.710 .0241635
957.334 .0241500
957.957 .0241382
958.579 .0241281
959.202 .0241193
959.824 .0241112
960.445 .0241038
961.067 .0240968
961.688 .0240910
962.308 .0240862
962.928 .0240828
963.548 .0240808
964.168 .0240797
964.787 .0240796
965.406 .0240800
966.024 .0240808
966.642 .0240813
967.260 .0240811
967.877 .0240801
968.494 .0240780
969.110 .0240744
969.727 .0240689
970.342 .0240618
970.958 .0240533
971.573 .0240433
972.188 .0240316
972.802 .0240192
973.416 .0240058
974.030 .0239921
974.643 .0239782
975.256 .0239644
975.869 .0239515
976.481 .0239394
977.093 .0239284
977.705 .0239188
978.316 .0239105
978.927 .0239035
979.538 .0238974
980.148 .0238929
980.758 .0238891
981.367 .0238861
981.977 .0238834
982.586 .0238814
983.194 .0238798
983.802 .0238779
984.410 .0238752
985.018 .0238718
985.625 .0238673
986.232 .0238614
986.838 .0238538
987.445 .0238447
988.050 .0238343
988.656 .0238233
989.261 .0238116
989.866 .0237995
990.471 .0237877
991.075 .0237766
991.679 .0237658
992.282 .0237556
992.886 .0237454
993.489 .0237353
994.091 .0237255
994.694 .0237153
995.296 .0237052
995.897 .0236946
996.499 .0236839
997.100 .0236731
997.701 .0236629
998.301 .0236533
998.901 .0236446
999.501 .0236367
1000.101 .0236296
1000.700 .0236228
1001.299 .0236155
1001.898 .0236077
1002.496 .0235997
1003.094 .0235904
1003.692 .0235802
1004.289 .0235691
1004.887 .0235583
1005.484 .0235479
1006.080 .0235388
1006.677 .0235306
1007.273 .0235237
1007.868 .0235181
1008.464 .0235132
1009.059 .0235090
1009.654 .0235055
1010.249 .0235027
1010.843 .0235001
1011.437 .0234975
1012.031 .0234952
1012.625 .0234927
1013.218 .0234910
1013.811 .0234887
1014.404 .0234867
1014.997 .0234845
1015.589 .0234815
1016.181 .0234780
1016.773 .0234732
1017.365 .0234673
1017.956 .0234603
1018.547 .0234518
1019.138 .0234422
1019.728 .0234315
1020.319 .0234201
1020.909 .0234077
1021.499 .0233954
1022.088 .0233833
1022.678 .0233713
1023.267 .0233595
1023.856 .0233491
1024.445 .0233395
1025.033 .0233316
1025.621 .0233251
1026.209 .0233198
1026.797 .0233153
1027.385 .0233113
1027.972 .0233062
1028.560 .0233006
1029.147 .0232941
1029.734 .0232874
1030.320 .0232803
1030.907 .0232736
1031.493 .0232679
1032.079 .0232634
1032.665 .0232599
1033.250 .0232575
1033.836 .0232542
1034.421 .0232506
1035.006 .0232452
1035.591 .0232378
1036.176 .0232282
1036.761 .0232173
1037.345 .0232058
1037.929 .0231935
1038.514 .0231809
1039.097 .0231678
1039.681 .0231534
1040.265 .0231376
1040.848 .0231207
1041.432 .0231012
1042.015 .0230810
1042.598 .0230603
1043.181 .0230395
1043.764 .0230206
1044.346 .0230037
1044.929 .0229890
1045.511 .0229766
1046.094 .0229661
1046.676 .0229561
1047.258 .0229455
1047.840 .0229360
1048.422 .0229265
1049.003 .0229187
1049.585 .0229132
1050.166 .0229092
1050.748 .0229076
1051.329 .0229084
1051.910 .0229093
1052.491 .0229098
1053.072 .0229097
1053.653 .0229080
1054.234 .0229043
1054.815 .0228988
1055.396 .0228920
1055.976 .0228849
1056.557 .0228791
1057.138 .0228740
1057.718 .0228689
1058.298 .0228642
1058.879 .0228579
1059.459 .0228505
1060.039 .0228420
1060.620 .0228311
1061.200 .0228196
1061.780 .0228071
1062.360 .0227949
1062.940 .0227833
1063.520 .0227729
1064.101 .0227626
1064.681 .0227525
1065.261 .0227422
1065.841 .0227296
1066.421 .0227157
1067.001 .0227018
1067.581 .0226877
1068.161 .0226749
1068.741 .0226644
1069.321 .0226556
1069.901 .0226493
1070.482 .0226470
1071.062 .0226457
1071.642 .0226449
1072.222 .0226442
1072.803 .0226425
1073.383 .0226398
1073.963 .0226374
1074.544 .0226360
1075.124 .0226359
1075.705 .0226392
1076.286 .0226442
1076.866 .0226510
1077.447 .0226587
1078.028 .0226664
1078.609 .0226731
1079.190 .0226784
1079.771 .0226832
1080.352 .0226858
1080.934 .0226872
1081.515 .0226893
1082.097 .0226924
1082.679 .0226960
1083.260 .0226997
1083.842 .0227045
1084.424 .0227086
1085.007 .0227136
1085.589 .0227182
1086.172 .0227211
1086.754 .0227231
1087.337 .0227240
1087.920 .0227228
1088.503 .0227195
1089.087 .0227152
1089.670 .0227083
1090.254 .0227002
1090.838 .0226918
1091.422 .0226824
1092.006 .0226717
1092.590 .0226620
1093.175 .0226528
1093.760 .0226433
1094.345 .0226340
1094.930 .0226237
1095.516 .0226156
1096.102 .0226102
1096.688 .0226068
1097.274 .0226056
1097.860 .0226066
1098.447 .0226096
1099.034 .0226121
1099.622 .0226140
1100.209 .0226141
1100.797 .0226122
1101.385 .0226092
1101.973 .0226053
1102.562 .0226025
1103.151 .0226000
1103.740 .0225994
1104.330 .0226020
1104.920 .0226062
1105.510 .0226099
1106.101 .0226145
1106.691 .0226179
1107.283 .0226218
1107.874 .0226254
1108.466 .0226278
1109.058 .0226323
1109.651 .0226413
1110.244 .0226548
1110.837 .0226721
1111.431 .0226928
1112.025 .0227166
1112.620 .0227366
1113.215 .0227565
1113.810 .0227715
1114.406 .0227823
1115.002 .0227890
1115.599 .0227914
1116.196 .0227871
1116.793 .0227791
1117.391 .0227678
1117.989 .0227547
1118.588 .0227418
1119.187 .0227302
1119.787 .0227158
1120.387 .0227038
1120.988 .0226946
1121.589 .0226880
1122.190 .0226807
1122.793 .0226793
1123.395 .0226767
1123.998 .0226772
1124.602 .0226807
1125.206 .0226871
1125.811 .0227004
1126.416 .0227226
1127.022 .0227507
1127.628 .0227822
1128.235 .0228168
1128.843 .0228546
1129.451 .0228895
1130.059 .0229240
1130.669 .0229500
1131.278 .0229718
1131.889 .0229873
1132.500 .0230000
1133.112 .0230114
1133.724 .0230258
1134.337 .0230463
1134.950 .0230724
1135.564 .0231049
1136.179 .0231419
1136.795 .0231830
1137.411 .0232333
1138.028 .0232875
1138.645 .0233493
1139.263 .0234205
1139.882 .0235013
1140.502 .0235936
1141.122 .0236958
1141.743 .0238093
1142.365 .0239416
1142.987 .0240468
1143.611 .0242081
1144.235 .0242952
1144.859 .0244951
1145.485 .0249075
