Measurement Sequence started on: 10-20-44-796
Integration time: 35
Scans to Average: 2 
>>>>>Begin Spectral Data<<<<<
432.953 .0440686
433.882 .0399239
434.810 .0386190
435.737 .0374467
436.662 .0381944
437.586 .0374733
438.509 .0368545
439.431 .0364096
440.351 .0360348
441.269 .0357325
442.187 .0354527
443.103 .0352394
444.018 .0350955
444.932 .0349889
445.844 .0348917
446.756 .0348193
447.666 .0347600
448.575 .0347054
449.482 .0346596
450.388 .0346227
451.294 .0345864
452.198 .0345665
453.100 .0345495
454.002 .0345396
454.902 .0345294
455.801 .0345254
456.699 .0345212
457.596 .0345225
458.492 .0345223
459.387 .0345198
460.280 .0345097
461.172 .0344881
462.064 .0344522
462.954 .0344066
463.843 .0343517
464.730 .0342967
465.617 .0342451
466.503 .0342007
467.387 .0341598
468.271 .0341258
469.153 .0340938
470.035 .0340631
470.915 .0340334
471.794 .0339998
472.673 .0339598
473.550 .0339213
474.426 .0338823
475.301 .0338437
476.175 .0338121
477.048 .0337832
477.920 .0337577
478.791 .0337352
479.661 .0337119
480.530 .0336851
481.398 .0336526
482.266 .0336171
483.132 .0335765
483.997 .0335338
484.861 .0334904
485.724 .0334495
486.587 .0334157
487.448 .0333914
488.308 .0333730
489.168 .0333639
490.026 .0333623
490.884 .0333645
491.741 .0333680
492.597 .0333702
493.452 .0333685
494.306 .0333642
495.159 .0333555
496.011 .0333455
496.862 .0333350
497.713 .0333231
498.562 .0333079
499.411 .0332896
500.259 .0332650
501.106 .0332330
501.952 .0331927
502.798 .0331444
503.642 .0330845
504.486 .0330165
505.329 .0329374
506.171 .0328491
507.012 .0327531
507.852 .0326494
508.692 .0325383
509.531 .0324209
510.369 .0322990
511.206 .0321766
512.043 .0320555
512.878 .0319360
513.713 .0318163
514.547 .0316928
515.381 .0315592
516.213 .0314112
517.045 .0312443
517.876 .0310609
518.706 .0308633
519.536 .0306629
520.365 .0304659
521.193 .0302780
522.020 .0301068
522.847 .0299469
523.673 .0298027
524.498 .0296620
525.323 .0295152
526.146 .0293608
526.969 .0291982
527.792 .0290282
528.614 .0288557
529.435 .0286920
530.255 .0285498
531.075 .0284210
531.894 .0283141
532.712 .0282225
533.530 .0281445
534.347 .0280824
535.163 .0280268
535.979 .0279803
536.794 .0279518
537.608 .0279365
538.422 .0279422
539.235 .0279594
540.048 .0279938
540.860 .0280315
541.671 .0280694
542.481 .0281034
543.292 .0281251
544.101 .0281347
544.910 .0281387
545.718 .0281352
546.526 .0281313
547.333 .0281229
548.139 .0281149
548.945 .0281077
549.750 .0280985
550.555 .0280859
551.359 .0280711
552.162 .0280523
552.965 .0280359
553.768 .0280191
554.569 .0280093
555.371 .0280106
556.171 .0280242
556.972 .0280539
557.771 .0280935
558.570 .0281463
559.369 .0282082
560.167 .0282779
560.964 .0283536
561.761 .0284333
562.558 .0285131
563.354 .0285964
564.149 .0286778
564.944 .0287596
565.738 .0288403
566.532 .0289211
567.325 .0289983
568.118 .0290731
568.910 .0291457
569.702 .0292169
570.494 .0292853
571.285 .0293523
572.075 .0294149
572.865 .0294747
573.654 .0295300
574.443 .0295814
575.232 .0296285
576.020 .0296784
576.807 .0297317
577.594 .0297899
578.381 .0298512
579.167 .0299167
579.952 .0299859
580.738 .0300571
581.522 .0301273
582.307 .0301932
583.091 .0302546
583.874 .0303123
584.657 .0303648
585.440 .0304127
586.222 .0304575
587.004 .0305018
587.785 .0305445
588.566 .0305851
589.346 .0306210
590.126 .0306499
590.906 .0306724
591.685 .0306881
592.464 .0306966
593.242 .0306988
594.020 .0306973
594.797 .0306937
595.575 .0306884
596.351 .0306829
597.128 .0306776
597.904 .0306718
598.679 .0306657
599.454 .0306565
600.229 .0306441
601.004 .0306288
601.778 .0306107
602.551 .0305906
603.325 .0305690
604.097 .0305469
604.870 .0305246
605.642 .0305033
606.414 .0304834
607.185 .0304638
607.956 .0304456
608.727 .0304281
609.497 .0304102
610.267 .0303917
611.037 .0303725
611.806 .0303524
612.575 .0303326
613.344 .0303129
614.112 .0302939
614.880 .0302763
615.647 .0302595
616.414 .0302434
617.181 .0302279
617.948 .0302127
618.714 .0301969
619.480 .0301810
620.245 .0301650
621.011 .0301483
621.775 .0301320
622.540 .0301169
623.304 .0301027
624.068 .0300905
624.832 .0300794
625.595 .0300689
626.358 .0300592
627.120 .0300499
627.883 .0300395
628.645 .0300295
629.406 .0300193
630.168 .0300087
630.929 .0299970
631.689 .0299849
632.450 .0299709
633.210 .0299558
633.970 .0299395
634.729 .0299218
635.489 .0299027
636.248 .0298830
637.006 .0298620
637.765 .0298403
638.523 .0298183
639.280 .0297953
640.038 .0297710
640.795 .0297470
641.552 .0297227
642.309 .0296992
643.065 .0296763
643.821 .0296557
644.577 .0296367
645.332 .0296192
646.088 .0296025
646.843 .0295856
647.597 .0295688
648.352 .0295516
649.106 .0295338
649.860 .0295164
650.613 .0294999
651.367 .0294846
652.120 .0294709
652.872 .0294586
653.625 .0294470
654.377 .0294359
655.129 .0294248
655.881 .0294137
656.632 .0294016
657.384 .0293891
658.135 .0293769
658.885 .0293650
659.636 .0293538
660.386 .0293423
661.136 .0293310
661.885 .0293196
662.635 .0293075
663.384 .0292950
664.133 .0292824
664.881 .0292700
665.630 .0292580
666.378 .0292462
667.126 .0292344
667.874 .0292214
668.621 .0292073
669.368 .0291917
670.115 .0291741
670.862 .0291548
671.608 .0291346
672.354 .0291144
673.100 .0290950
673.846 .0290765
674.591 .0290592
675.337 .0290427
676.082 .0290269
676.826 .0290110
677.571 .0289947
678.315 .0289779
679.059 .0289604
679.803 .0289428
680.547 .0289256
681.290 .0289089
682.033 .0288924
682.776 .0288763
683.518 .0288604
684.261 .0288436
685.003 .0288257
685.745 .0288066
686.487 .0287864
687.228 .0287650
687.969 .0287421
688.710 .0287180
689.451 .0286934
690.192 .0286683
690.932 .0286424
691.672 .0286171
692.412 .0285918
693.152 .0285670
693.891 .0285427
694.630 .0285197
695.369 .0284977
696.108 .0284767
696.846 .0284561
697.585 .0284354
698.323 .0284145
699.061 .0283933
699.798 .0283710
700.536 .0283488
701.273 .0283267
702.010 .0283046
702.746 .0282825
703.483 .0282607
704.219 .0282384
704.955 .0282166
705.691 .0281947
706.427 .0281729
707.162 .0281513
707.897 .0281308
708.632 .0281113
709.367 .0280940
710.101 .0280791
710.835 .0280661
711.569 .0280545
712.303 .0280442
713.037 .0280342
713.770 .0280237
714.503 .0280123
715.236 .0280003
715.969 .0279873
716.702 .0279741
717.434 .0279598
718.166 .0279448
718.898 .0279294
719.629 .0279127
720.361 .0278946
721.092 .0278743
721.823 .0278522
722.554 .0278281
723.284 .0278022
724.014 .0277752
724.744 .0277478
725.474 .0277209
726.204 .0276951
726.933 .0276706
727.662 .0276471
728.391 .0276249
729.120 .0276032
729.849 .0275825
730.577 .0275624
731.305 .0275428
732.033 .0275242
732.760 .0275062
733.488 .0274894
734.215 .0274739
734.942 .0274594
735.669 .0274460
736.395 .0274332
737.122 .0274211
737.848 .0274087
738.573 .0273964
739.299 .0273846
740.024 .0273731
740.750 .0273625
741.474 .0273525
742.199 .0273431
742.924 .0273342
743.648 .0273251
744.372 .0273158
745.096 .0273065
745.819 .0272969
746.543 .0272870
747.266 .0272773
747.989 .0272683
748.711 .0272605
749.434 .0272536
750.156 .0272480
750.878 .0272436
751.599 .0272404
752.321 .0272378
753.042 .0272357
753.763 .0272343
754.484 .0272333
755.205 .0272324
755.925 .0272322
756.645 .0272320
757.365 .0272320
758.085 .0272319
758.804 .0272311
759.523 .0272289
760.242 .0272251
760.961 .0272189
761.679 .0272105
762.397 .0271997
763.115 .0271865
763.833 .0271708
764.551 .0271535
765.268 .0271352
765.985 .0271160
766.702 .0270968
767.418 .0270781
768.134 .0270600
768.850 .0270428
769.566 .0270261
770.282 .0270102
770.997 .0269950
771.712 .0269805
772.427 .0269662
773.142 .0269524
773.856 .0269391
774.570 .0269263
775.284 .0269146
775.998 .0269032
776.711 .0268924
777.424 .0268815
778.137 .0268705
778.849 .0268586
779.562 .0268463
780.274 .0268333
780.986 .0268199
781.697 .0268065
782.409 .0267934
783.120 .0267809
783.831 .0267704
784.541 .0267616
785.252 .0267551
785.962 .0267500
786.671 .0267465
787.381 .0267433
788.090 .0267403
788.799 .0267360
789.508 .0267303
790.217 .0267231
790.925 .0267144
791.633 .0267037
792.341 .0266921
793.048 .0266797
793.755 .0266664
794.462 .0266523
795.169 .0266373
795.875 .0266215
796.581 .0266054
797.287 .0265890
797.993 .0265727
798.698 .0265570
799.403 .0265421
800.108 .0265283
800.812 .0265159
801.517 .0265053
802.221 .0264953
802.924 .0264862
803.628 .0264780
804.331 .0264706
805.034 .0264633
805.736 .0264566
806.439 .0264505
807.141 .0264449
807.843 .0264386
808.544 .0264313
809.245 .0264222
809.946 .0264115
810.647 .0263985
811.347 .0263835
812.047 .0263670
812.747 .0263500
813.447 .0263327
814.146 .0263162
814.845 .0263015
815.543 .0262881
816.242 .0262754
816.940 .0262635
817.638 .0262518
818.335 .0262400
819.032 .0262277
819.729 .0262158
820.426 .0262045
821.122 .0261937
821.818 .0261832
822.514 .0261732
823.209 .0261636
823.905 .0261539
824.599 .0261438
825.294 .0261321
825.988 .0261188
826.682 .0261034
827.376 .0260862
828.069 .0260670
828.762 .0260466
829.455 .0260249
830.147 .0260022
830.840 .0259791
831.531 .0259560
832.223 .0259327
832.914 .0259101
833.605 .0258884
834.296 .0258676
834.986 .0258474
835.676 .0258281
836.366 .0258096
837.055 .0257925
837.744 .0257764
838.433 .0257614
839.121 .0257474
839.809 .0257349
840.497 .0257235
841.185 .0257129
841.872 .0257027
842.559 .0256931
843.245 .0256834
843.932 .0256737
844.617 .0256638
845.303 .0256542
845.988 .0256445
846.673 .0256348
847.358 .0256249
848.042 .0256143
848.726 .0256030
849.410 .0255907
850.093 .0255769
850.776 .0255623
851.459 .0255467
852.141 .0255303
852.823 .0255135
853.505 .0254975
854.186 .0254813
854.867 .0254657
855.548 .0254507
856.228 .0254365
856.908 .0254225
857.588 .0254092
858.267 .0253964
858.946 .0253841
859.625 .0253729
860.303 .0253624
860.981 .0253527
861.659 .0253444
862.336 .0253361
863.013 .0253282
863.690 .0253202
864.366 .0253119
865.042 .0253023
865.718 .0252919
866.393 .0252803
867.068 .0252674
867.743 .0252534
868.417 .0252387
869.091 .0252230
869.765 .0252069
870.438 .0251901
871.111 .0251728
871.783 .0251556
872.456 .0251387
873.127 .0251219
873.799 .0251061
874.470 .0250912
875.141 .0250776
875.811 .0250650
876.481 .0250540
877.151 .0250443
877.820 .0250359
878.489 .0250285
879.158 .0250217
879.826 .0250150
880.494 .0250083
881.162 .0250012
881.829 .0249933
882.496 .0249842
883.163 .0249740
883.829 .0249625
884.495 .0249499
885.160 .0249367
885.825 .0249233
886.490 .0249101
887.154 .0248976
887.818 .0248856
888.482 .0248740
889.145 .0248626
889.808 .0248515
890.471 .0248403
891.133 .0248293
891.795 .0248185
892.456 .0248083
893.117 .0247993
893.778 .0247918
894.439 .0247860
895.099 .0247815
895.758 .0247778
896.417 .0247748
897.076 .0247712
897.735 .0247668
898.393 .0247616
899.051 .0247558
899.708 .0247495
900.365 .0247431
901.022 .0247371
901.678 .0247313
902.334 .0247254
902.990 .0247201
903.645 .0247141
904.300 .0247077
904.954 .0247015
905.608 .0246949
906.262 .0246885
906.915 .0246833
907.568 .0246786
908.221 .0246747
908.873 .0246718
909.525 .0246696
910.176 .0246673
910.828 .0246654
911.478 .0246631
912.129 .0246599
912.778 .0246562
913.428 .0246526
914.077 .0246484
914.726 .0246447
915.375 .0246412
916.023 .0246380
916.670 .0246355
917.318 .0246334
917.964 .0246309
918.611 .0246283
919.257 .0246250
919.903 .0246205
920.548 .0246144
921.193 .0246075
921.838 .0245998
922.482 .0245920
923.126 .0245847
923.770 .0245780
924.413 .0245718
925.056 .0245663
925.698 .0245611
926.340 .0245563
926.982 .0245510
927.623 .0245451
928.264 .0245384
928.904 .0245309
929.544 .0245229
930.184 .0245146
930.823 .0245060
931.462 .0244977
932.101 .0244894
932.739 .0244803
933.377 .0244697
934.014 .0244579
934.651 .0244443
935.288 .0244289
935.924 .0244120
936.560 .0243942
937.196 .0243761
937.831 .0243585
938.466 .0243415
939.100 .0243254
939.734 .0243105
940.368 .0242966
941.001 .0242838
941.634 .0242721
942.266 .0242614
942.899 .0242515
943.530 .0242429
944.162 .0242357
944.793 .0242297
945.423 .0242249
946.053 .0242215
946.683 .0242193
947.313 .0242177
947.942 .0242157
948.571 .0242131
949.199 .0242095
949.827 .0242037
950.455 .0241955
951.082 .0241850
951.709 .0241725
952.335 .0241587
952.961 .0241441
953.587 .0241294
954.212 .0241150
954.837 .0241009
955.462 .0240869
956.086 .0240731
956.710 .0240596
957.334 .0240461
957.957 .0240333
958.579 .0240216
959.202 .0240112
959.824 .0240024
960.445 .0239959
961.067 .0239914
961.688 .0239888
962.308 .0239875
962.928 .0239867
963.548 .0239863
964.168 .0239861
964.787 .0239847
965.406 .0239830
966.024 .0239807
966.642 .0239776
967.260 .0239736
967.877 .0239686
968.494 .0239618
969.110 .0239534
969.727 .0239431
970.342 .0239313
970.958 .0239184
971.573 .0239059
972.188 .0238936
972.802 .0238824
973.416 .0238726
974.030 .0238638
974.643 .0238556
975.256 .0238483
975.869 .0238409
976.481 .0238334
977.093 .0238261
977.705 .0238197
978.316 .0238147
978.927 .0238117
979.538 .0238104
980.148 .0238103
980.758 .0238106
981.367 .0238107
981.977 .0238092
982.586 .0238059
983.194 .0238013
983.802 .0237956
984.410 .0237886
985.018 .0237818
985.625 .0237758
986.232 .0237711
986.838 .0237680
987.445 .0237663
988.050 .0237646
988.656 .0237628
989.261 .0237609
989.866 .0237581
990.471 .0237556
991.075 .0237546
991.679 .0237551
992.282 .0237581
992.886 .0237639
993.489 .0237717
994.091 .0237807
994.694 .0237906
995.296 .0238002
995.897 .0238079
996.499 .0238142
997.100 .0238187
997.701 .0238220
998.301 .0238250
998.901 .0238281
999.501 .0238310
1000.101 .0238342
1000.700 .0238367
1001.299 .0238382
1001.898 .0238381
1002.496 .0238370
1003.094 .0238342
1003.692 .0238299
1004.289 .0238245
1004.887 .0238186
1005.484 .0238120
1006.080 .0238054
1006.677 .0237983
1007.273 .0237907
1007.868 .0237826
1008.464 .0237745
1009.059 .0237662
1009.654 .0237584
1010.249 .0237516
1010.843 .0237452
1011.437 .0237393
1012.031 .0237337
1012.625 .0237276
1013.218 .0237213
1013.811 .0237157
1014.404 .0237108
1014.997 .0237074
1015.589 .0237066
1016.181 .0237087
1016.773 .0237137
1017.365 .0237217
1017.956 .0237310
1018.547 .0237406
1019.138 .0237506
1019.728 .0237601
1020.319 .0237687
1020.909 .0237769
1021.499 .0237851
1022.088 .0237928
1022.678 .0238000
1023.267 .0238064
1023.856 .0238108
1024.445 .0238134
1025.033 .0238137
1025.621 .0238112
1026.209 .0238059
1026.797 .0237985
1027.385 .0237898
1027.972 .0237814
1028.560 .0237735
1029.147 .0237656
1029.734 .0237584
1030.320 .0237516
1030.907 .0237452
1031.493 .0237386
1032.079 .0237327
1032.665 .0237276
1033.250 .0237236
1033.836 .0237211
1034.421 .0237200
1035.006 .0237205
1035.591 .0237221
1036.176 .0237240
1036.761 .0237265
1037.345 .0237278
1037.929 .0237277
1038.514 .0237254
1039.097 .0237223
1039.681 .0237180
1040.265 .0237128
1040.848 .0237068
1041.432 .0237009
1042.015 .0236949
1042.598 .0236890
1043.181 .0236827
1043.764 .0236764
1044.346 .0236703
1044.929 .0236641
1045.511 .0236580
1046.094 .0236518
1046.676 .0236454
1047.258 .0236392
1047.840 .0236332
1048.422 .0236277
1049.003 .0236225
1049.585 .0236176
1050.166 .0236128
1050.748 .0236087
1051.329 .0236056
1051.910 .0236030
1052.491 .0236016
1053.072 .0236007
1053.653 .0235991
1054.234 .0235964
1054.815 .0235927
1055.396 .0235877
1055.976 .0235818
1056.557 .0235754
1057.138 .0235685
1057.718 .0235604
1058.298 .0235518
1058.879 .0235430
1059.459 .0235332
1060.039 .0235231
1060.620 .0235116
1061.200 .0234985
1061.780 .0234844
1062.360 .0234699
1062.940 .0234567
1063.520 .0234453
1064.101 .0234366
1064.681 .0234299
1065.261 .0234249
1065.841 .0234216
1066.421 .0234180
1067.001 .0234138
1067.581 .0234088
1068.161 .0234027
1068.741 .0233951
1069.321 .0233867
1069.901 .0233771
1070.482 .0233673
1071.062 .0233575
1071.642 .0233468
1072.222 .0233362
1072.803 .0233249
1073.383 .0233128
1073.963 .0233009
1074.544 .0232892
1075.124 .0232768
1075.705 .0232644
1076.286 .0232534
1076.866 .0232440
1077.447 .0232360
1078.028 .0232310
1078.609 .0232283
1079.190 .0232288
1079.771 .0232330
1080.352 .0232392
1080.934 .0232461
1081.515 .0232550
1082.097 .0232629
1082.679 .0232706
1083.260 .0232773
1083.842 .0232830
1084.424 .0232862
1085.007 .0232897
1085.589 .0232920
1086.172 .0232933
1086.754 .0232933
1087.337 .0232939
1087.920 .0232923
1088.503 .0232897
1089.087 .0232841
1089.670 .0232763
1090.254 .0232654
1090.838 .0232536
1091.422 .0232386
1092.006 .0232227
1092.590 .0232048
1093.175 .0231877
1093.760 .0231695
1094.345 .0231521
1094.930 .0231337
1095.516 .0231161
1096.102 .0230988
1096.688 .0230837
1097.274 .0230696
1097.860 .0230575
1098.447 .0230476
1099.034 .0230397
1099.622 .0230322
1100.209 .0230252
1100.797 .0230189
1101.385 .0230127
1101.973 .0230064
1102.562 .0230004
1103.151 .0229939
1103.740 .0229877
1104.330 .0229839
1104.920 .0229824
1105.510 .0229850
1106.101 .0229914
1106.691 .0230006
1107.283 .0230118
1107.874 .0230260
1108.466 .0230395
1109.058 .0230529
1109.651 .0230663
1110.244 .0230803
1110.837 .0230906
1111.431 .0231003
1112.025 .0231076
1112.620 .0231126
1113.215 .0231168
1113.810 .0231184
1114.406 .0231168
1115.002 .0231123
1115.599 .0231032
1116.196 .0230883
1116.793 .0230676
1117.391 .0230452
1117.989 .0230186
1118.588 .0229920
1119.187 .0229666
1119.787 .0229430
1120.387 .0229245
1120.988 .0229123
1121.589 .0229068
1122.190 .0229066
1122.793 .0229119
1123.395 .0229199
1123.998 .0229324
1124.602 .0229498
1125.206 .0229715
1125.811 .0229980
1126.416 .0230282
1127.022 .0230582
1127.628 .0230868
1128.235 .0231119
1128.843 .0231351
1129.451 .0231563
1130.059 .0231768
1130.669 .0231958
1131.278 .0232180
1131.889 .0232425
1132.500 .0232702
1133.112 .0233002
1133.724 .0233335
1134.337 .0233647
1134.950 .0233925
1135.564 .0234152
1136.179 .0234350
1136.795 .0234584
1137.411 .0234871
1138.028 .0235218
1138.645 .0235654
1139.263 .0236176
1139.882 .0236738
1140.502 .0237327
1141.122 .0237936
1141.743 .0238615
1142.365 .0239323
1142.987 .0239007
1143.611 .0239986
1144.235 .0240656
1144.859 .0243665
1145.485 .0244374
