Measurement Sequence started on: 10-20-44-796
Integration time: 35
Scans to Average: 2 
>>>>>Begin Spectral Data<<<<<
432.953 .0504247
433.882 .0422444
434.810 .0395186
435.737 .0363638
436.662 .0350511
437.586 .0373081
438.509 .0366846
439.431 .0365399
440.351 .0365758
441.269 .0367270
442.187 .0368941
443.103 .0370186
444.018 .0371175
444.932 .0372157
445.844 .0372961
446.756 .0373715
447.666 .0374380
448.575 .0374771
449.482 .0375037
450.388 .0375127
451.294 .0374990
452.198 .0374649
453.100 .0374209
454.002 .0373616
454.902 .0372876
455.801 .0372069
456.699 .0371214
457.596 .0370364
458.492 .0369587
459.387 .0368848
460.280 .0368315
461.172 .0367971
462.064 .0367788
462.954 .0367668
463.843 .0367577
464.730 .0367482
465.617 .0367402
466.503 .0367255
467.387 .0367041
468.271 .0366814
469.153 .0366596
470.035 .0366365
470.915 .0366136
471.794 .0365920
472.673 .0365662
473.550 .0365393
474.426 .0365120
475.301 .0364775
476.175 .0364404
477.048 .0364024
477.920 .0363624
478.791 .0363214
479.661 .0362773
480.530 .0362307
481.398 .0361838
482.266 .0361389
483.132 .0360934
483.997 .0360487
484.861 .0360114
485.724 .0359847
486.587 .0359663
487.448 .0359560
488.308 .0359494
489.168 .0359451
490.026 .0359365
490.884 .0359227
491.741 .0358992
492.597 .0358695
493.452 .0358347
494.306 .0357996
495.159 .0357655
496.011 .0357341
496.862 .0357085
497.713 .0356830
498.562 .0356530
499.411 .0356176
500.259 .0355711
501.106 .0355141
501.952 .0354491
502.798 .0353797
503.642 .0353056
504.486 .0352324
505.329 .0351585
506.171 .0350843
507.012 .0350102
507.852 .0349352
508.692 .0348520
509.531 .0347604
510.369 .0346621
511.206 .0345525
512.043 .0344349
512.878 .0343108
513.713 .0341746
514.547 .0340278
515.381 .0338663
516.213 .0336925
517.045 .0335100
517.876 .0333209
518.706 .0331311
519.536 .0329445
520.365 .0327606
521.193 .0325763
522.020 .0323928
522.847 .0322086
523.673 .0320150
524.498 .0318139
525.323 .0316002
526.146 .0313863
526.969 .0311809
527.792 .0309894
528.614 .0308137
529.435 .0306669
530.255 .0305426
531.075 .0304232
531.894 .0303136
532.712 .0302027
533.530 .0300852
534.347 .0299722
535.163 .0298581
535.979 .0297580
536.794 .0296818
537.608 .0296405
538.422 .0296270
539.235 .0296490
540.048 .0296942
540.860 .0297477
541.671 .0298049
542.481 .0298552
543.292 .0298899
544.101 .0299157
544.910 .0299387
545.718 .0299576
546.526 .0299766
547.333 .0300046
548.139 .0300381
548.945 .0300814
549.750 .0301251
550.555 .0301666
551.359 .0302017
552.162 .0302323
552.965 .0302594
553.768 .0302822
554.569 .0303058
555.371 .0303329
556.171 .0303678
556.972 .0304101
557.771 .0304606
558.570 .0305158
559.369 .0305772
560.167 .0306439
560.964 .0307139
561.761 .0307815
562.558 .0308483
563.354 .0309165
564.149 .0309839
564.944 .0310458
565.738 .0311048
566.532 .0311596
567.325 .0312105
568.118 .0312572
568.910 .0313018
569.702 .0313437
570.494 .0313887
571.285 .0314364
572.075 .0314868
572.865 .0315379
573.654 .0315921
574.443 .0316454
575.232 .0317011
576.020 .0317585
576.807 .0318177
577.594 .0318794
578.381 .0319472
579.167 .0320204
579.952 .0320953
580.738 .0321710
581.522 .0322459
582.307 .0323157
583.091 .0323815
583.874 .0324393
584.657 .0324908
585.440 .0325356
586.222 .0325746
587.004 .0326087
587.785 .0326375
588.566 .0326614
589.346 .0326801
590.126 .0326928
590.906 .0327008
591.685 .0327035
592.464 .0327011
593.242 .0326945
594.020 .0326853
594.797 .0326739
595.575 .0326612
596.351 .0326478
597.128 .0326339
597.904 .0326184
598.679 .0326034
599.454 .0325877
600.229 .0325718
601.004 .0325565
601.778 .0325416
602.551 .0325274
603.325 .0325144
604.097 .0325013
604.870 .0324892
605.642 .0324771
606.414 .0324649
607.185 .0324514
607.956 .0324379
608.727 .0324241
609.497 .0324100
610.267 .0323967
611.037 .0323839
611.806 .0323718
612.575 .0323607
613.344 .0323496
614.112 .0323382
614.880 .0323266
615.647 .0323133
616.414 .0322979
617.181 .0322809
617.948 .0322625
618.714 .0322441
619.480 .0322264
620.245 .0322099
621.011 .0321941
621.775 .0321784
622.540 .0321625
623.304 .0321449
624.068 .0321254
624.832 .0321031
625.595 .0320782
626.358 .0320512
627.120 .0320222
627.883 .0319925
628.645 .0319626
629.406 .0319330
630.168 .0319042
630.929 .0318759
631.689 .0318474
632.450 .0318191
633.210 .0317916
633.970 .0317643
634.729 .0317380
635.489 .0317125
636.248 .0316876
637.006 .0316639
637.765 .0316411
638.523 .0316183
639.280 .0315956
640.038 .0315737
640.795 .0315520
641.552 .0315308
642.309 .0315113
643.065 .0314931
643.821 .0314765
644.577 .0314614
645.332 .0314464
646.088 .0314306
646.843 .0314144
647.597 .0313965
648.352 .0313779
649.106 .0313589
649.860 .0313398
650.613 .0313210
651.367 .0313038
652.120 .0312884
652.872 .0312739
653.625 .0312597
654.377 .0312459
655.129 .0312306
655.881 .0312137
656.632 .0311945
657.384 .0311741
658.135 .0311525
658.885 .0311303
659.636 .0311077
660.386 .0310855
661.136 .0310639
661.885 .0310432
662.635 .0310228
663.384 .0310036
664.133 .0309850
664.881 .0309671
665.630 .0309496
666.378 .0309337
667.126 .0309186
667.874 .0309042
668.621 .0308906
669.368 .0308776
670.115 .0308642
670.862 .0308508
671.608 .0308373
672.354 .0308239
673.100 .0308106
673.846 .0307976
674.591 .0307843
675.337 .0307715
676.082 .0307580
676.826 .0307445
677.571 .0307303
678.315 .0307160
679.059 .0307008
679.803 .0306857
680.547 .0306707
681.290 .0306559
682.033 .0306411
682.776 .0306260
683.518 .0306106
684.261 .0305950
685.003 .0305779
685.745 .0305602
686.487 .0305413
687.228 .0305218
687.969 .0305013
688.710 .0304803
689.451 .0304584
690.192 .0304358
690.932 .0304127
691.672 .0303889
692.412 .0303649
693.152 .0303406
693.891 .0303162
694.630 .0302913
695.369 .0302668
696.108 .0302425
696.846 .0302179
697.585 .0301939
698.323 .0301703
699.061 .0301475
699.798 .0301256
700.536 .0301051
701.273 .0300861
702.010 .0300683
702.746 .0300519
703.483 .0300355
704.219 .0300195
704.955 .0300033
705.691 .0299868
706.427 .0299700
707.162 .0299531
707.897 .0299355
708.632 .0299173
709.367 .0298992
710.101 .0298809
710.835 .0298623
711.569 .0298431
712.303 .0298233
713.037 .0298031
713.770 .0297821
714.503 .0297605
715.236 .0297383
715.969 .0297160
716.702 .0296938
717.434 .0296712
718.166 .0296491
718.898 .0296273
719.629 .0296065
720.361 .0295866
721.092 .0295678
721.823 .0295494
722.554 .0295309
723.284 .0295124
724.014 .0294930
724.744 .0294724
725.474 .0294507
726.204 .0294284
726.933 .0294061
727.662 .0293840
728.391 .0293628
729.120 .0293424
729.849 .0293236
730.577 .0293053
731.305 .0292873
732.033 .0292690
732.760 .0292498
733.488 .0292293
734.215 .0292077
734.942 .0291858
735.669 .0291636
736.395 .0291419
737.122 .0291214
737.848 .0291015
738.573 .0290827
739.299 .0290644
740.024 .0290463
740.750 .0290288
741.474 .0290114
742.199 .0289939
742.924 .0289770
743.648 .0289607
744.372 .0289448
745.096 .0289299
745.819 .0289160
746.543 .0289026
747.266 .0288896
747.989 .0288770
748.711 .0288649
749.434 .0288538
750.156 .0288435
750.878 .0288341
751.599 .0288259
752.321 .0288184
753.042 .0288112
753.763 .0288043
754.484 .0287976
755.205 .0287904
755.925 .0287831
756.645 .0287751
757.365 .0287667
758.085 .0287584
758.804 .0287499
759.523 .0287412
760.242 .0287320
760.961 .0287214
761.679 .0287091
762.397 .0286950
763.115 .0286785
763.833 .0286595
764.551 .0286391
765.268 .0286173
765.985 .0285944
766.702 .0285712
767.418 .0285483
768.134 .0285259
768.850 .0285045
769.566 .0284841
770.282 .0284640
770.997 .0284453
771.712 .0284276
772.427 .0284104
773.142 .0283945
773.856 .0283797
774.570 .0283655
775.284 .0283520
775.998 .0283385
776.711 .0283246
777.424 .0283103
778.137 .0282958
778.849 .0282806
779.562 .0282647
780.274 .0282485
780.986 .0282321
781.697 .0282164
782.409 .0282019
783.120 .0281883
783.831 .0281763
784.541 .0281664
785.252 .0281581
785.962 .0281512
786.671 .0281455
787.381 .0281404
788.090 .0281356
788.799 .0281306
789.508 .0281246
790.217 .0281172
790.925 .0281088
791.633 .0280994
792.341 .0280887
793.048 .0280768
793.755 .0280637
794.462 .0280493
795.169 .0280335
795.875 .0280165
796.581 .0279981
797.287 .0279786
797.993 .0279587
798.698 .0279387
799.403 .0279191
800.108 .0279000
800.812 .0278821
801.517 .0278658
802.221 .0278513
802.924 .0278381
803.628 .0278260
804.331 .0278152
805.034 .0278058
805.736 .0277967
806.439 .0277881
807.141 .0277799
807.843 .0277718
808.544 .0277633
809.245 .0277536
809.946 .0277426
810.647 .0277307
811.347 .0277180
812.047 .0277050
812.747 .0276918
813.447 .0276789
814.146 .0276663
814.845 .0276545
815.543 .0276433
816.242 .0276323
816.940 .0276211
817.638 .0276098
818.335 .0275979
819.032 .0275853
819.729 .0275726
820.426 .0275597
821.122 .0275472
821.818 .0275347
822.514 .0275221
823.209 .0275093
823.905 .0274962
824.599 .0274823
825.294 .0274672
825.988 .0274506
826.682 .0274327
827.376 .0274131
828.069 .0273930
828.762 .0273719
829.455 .0273511
830.147 .0273307
830.840 .0273112
831.531 .0272920
832.223 .0272742
832.914 .0272576
833.605 .0272421
834.296 .0272274
834.986 .0272136
835.676 .0272007
836.366 .0271888
837.055 .0271770
837.744 .0271655
838.433 .0271544
839.121 .0271436
839.809 .0271325
840.497 .0271217
841.185 .0271111
841.872 .0271005
842.559 .0270900
843.245 .0270794
843.932 .0270686
844.617 .0270575
845.303 .0270461
845.988 .0270345
846.673 .0270223
847.358 .0270097
848.042 .0269965
848.726 .0269835
849.410 .0269703
850.093 .0269567
850.776 .0269429
851.459 .0269289
852.141 .0269144
852.823 .0268990
853.505 .0268830
854.186 .0268666
854.867 .0268500
855.548 .0268328
856.228 .0268158
856.908 .0267996
857.588 .0267836
858.267 .0267683
858.946 .0267534
859.625 .0267389
860.303 .0267248
860.981 .0267107
861.659 .0266972
862.336 .0266843
863.013 .0266722
863.690 .0266612
864.366 .0266518
865.042 .0266438
865.718 .0266371
866.393 .0266314
867.068 .0266263
867.743 .0266206
868.417 .0266139
869.091 .0266058
869.765 .0265964
870.438 .0265856
871.111 .0265739
871.783 .0265617
872.456 .0265497
873.127 .0265377
873.799 .0265258
874.470 .0265139
875.141 .0265022
875.811 .0264899
876.481 .0264771
877.151 .0264640
877.820 .0264514
878.489 .0264390
879.158 .0264278
879.826 .0264176
880.494 .0264090
881.162 .0264012
881.829 .0263944
882.496 .0263875
883.163 .0263804
883.829 .0263729
884.495 .0263649
885.160 .0263565
885.825 .0263481
886.490 .0263395
887.154 .0263314
887.818 .0263237
888.482 .0263165
889.145 .0263095
889.808 .0263034
890.471 .0262974
891.133 .0262916
891.795 .0262861
892.456 .0262811
893.117 .0262768
893.778 .0262732
894.439 .0262704
895.099 .0262680
895.758 .0262659
896.417 .0262640
897.076 .0262616
897.735 .0262591
898.393 .0262563
899.051 .0262530
899.708 .0262490
900.365 .0262443
901.022 .0262387
901.678 .0262325
902.334 .0262261
902.990 .0262190
903.645 .0262117
904.300 .0262043
904.954 .0261971
905.608 .0261900
906.262 .0261836
906.915 .0261776
907.568 .0261718
908.221 .0261658
908.873 .0261591
909.525 .0261516
910.176 .0261433
910.828 .0261340
911.478 .0261239
912.129 .0261125
912.778 .0261004
913.428 .0260872
914.077 .0260736
914.726 .0260593
915.375 .0260448
916.023 .0260305
916.670 .0260170
917.318 .0260034
917.964 .0259901
918.611 .0259771
919.257 .0259647
919.903 .0259517
920.548 .0259377
921.193 .0259234
921.838 .0259087
922.482 .0258937
923.126 .0258793
923.770 .0258660
924.413 .0258543
925.056 .0258438
925.698 .0258345
926.340 .0258258
926.982 .0258175
927.623 .0258087
928.264 .0257994
928.904 .0257898
929.544 .0257796
930.184 .0257689
930.823 .0257589
931.462 .0257499
932.101 .0257414
932.739 .0257337
933.377 .0257259
934.014 .0257176
934.651 .0257083
935.288 .0256972
935.924 .0256848
936.560 .0256711
937.196 .0256560
937.831 .0256397
938.466 .0256232
939.100 .0256066
939.734 .0255899
940.368 .0255743
941.001 .0255592
941.634 .0255448
942.266 .0255311
942.899 .0255174
943.530 .0255039
944.162 .0254907
944.793 .0254773
945.423 .0254635
946.053 .0254494
946.683 .0254347
947.313 .0254198
947.942 .0254048
948.571 .0253894
949.199 .0253734
949.827 .0253570
950.455 .0253398
951.082 .0253217
951.709 .0253031
952.335 .0252836
952.961 .0252642
953.587 .0252448
954.212 .0252246
954.837 .0252048
955.462 .0251852
956.086 .0251661
956.710 .0251479
957.334 .0251308
957.957 .0251148
958.579 .0250998
959.202 .0250858
959.824 .0250722
960.445 .0250589
961.067 .0250459
961.688 .0250322
962.308 .0250181
962.928 .0250039
963.548 .0249889
964.168 .0249738
964.787 .0249589
965.406 .0249446
966.024 .0249306
966.642 .0249171
967.260 .0249037
967.877 .0248901
968.494 .0248760
969.110 .0248617
969.727 .0248466
970.342 .0248315
970.958 .0248170
971.573 .0248036
972.188 .0247921
972.802 .0247830
973.416 .0247758
974.030 .0247702
974.643 .0247656
975.256 .0247615
975.869 .0247561
976.481 .0247498
977.093 .0247427
977.705 .0247355
978.316 .0247288
978.927 .0247232
979.538 .0247186
980.148 .0247148
980.758 .0247118
981.367 .0247082
981.977 .0247031
982.586 .0246971
983.194 .0246892
983.802 .0246801
984.410 .0246699
985.018 .0246600
985.625 .0246510
986.232 .0246437
986.838 .0246380
987.445 .0246332
988.050 .0246290
988.656 .0246247
989.261 .0246194
989.866 .0246124
990.471 .0246045
991.075 .0245950
991.679 .0245847
992.282 .0245746
992.886 .0245643
993.489 .0245544
994.091 .0245453
994.694 .0245369
995.296 .0245282
995.897 .0245195
996.499 .0245104
997.100 .0245001
997.701 .0244901
998.301 .0244800
998.901 .0244703
999.501 .0244620
1000.101 .0244556
1000.700 .0244507
1001.299 .0244480
1001.898 .0244469
1002.496 .0244468
1003.094 .0244477
1003.692 .0244498
1004.289 .0244522
1004.887 .0244547
1005.484 .0244573
1006.080 .0244598
1006.677 .0244623
1007.273 .0244649
1007.868 .0244673
1008.464 .0244698
1009.059 .0244718
1009.654 .0244735
1010.249 .0244748
1010.843 .0244764
1011.437 .0244785
1012.031 .0244800
1012.625 .0244813
1013.218 .0244813
1013.811 .0244800
1014.404 .0244771
1014.997 .0244739
1015.589 .0244704
1016.181 .0244665
1016.773 .0244625
1017.365 .0244595
1017.956 .0244566
1018.547 .0244546
1019.138 .0244526
1019.728 .0244506
1020.319 .0244486
1020.909 .0244463
1021.499 .0244430
1022.088 .0244406
1022.678 .0244385
1023.267 .0244374
1023.856 .0244364
1024.445 .0244356
1025.033 .0244336
1025.621 .0244295
1026.209 .0244246
1026.797 .0244178
1027.385 .0244098
1027.972 .0244020
1028.560 .0243949
1029.147 .0243898
1029.734 .0243874
1030.320 .0243874
1030.907 .0243896
1031.493 .0243936
1032.079 .0243984
1032.665 .0244026
1033.250 .0244065
1033.836 .0244102
1034.421 .0244137
1035.006 .0244176
1035.591 .0244222
1036.176 .0244260
1036.761 .0244301
1037.345 .0244334
1037.929 .0244343
1038.514 .0244327
1039.097 .0244285
1039.681 .0244218
1040.265 .0244129
1040.848 .0244019
1041.432 .0243900
1042.015 .0243770
1042.598 .0243645
1043.181 .0243519
1043.764 .0243392
1044.346 .0243272
1044.929 .0243158
1045.511 .0243067
1046.094 .0243006
1046.676 .0242979
1047.258 .0242989
1047.840 .0243035
1048.422 .0243106
1049.003 .0243182
1049.585 .0243247
1050.166 .0243289
1050.748 .0243305
1051.329 .0243296
1051.910 .0243267
1052.491 .0243231
1053.072 .0243196
1053.653 .0243181
1054.234 .0243185
1054.815 .0243210
1055.396 .0243247
1055.976 .0243285
1056.557 .0243306
1057.138 .0243304
1057.718 .0243271
1058.298 .0243212
1058.879 .0243139
1059.459 .0243064
1060.039 .0242995
1060.620 .0242943
1061.200 .0242895
1061.780 .0242852
1062.360 .0242788
1062.940 .0242718
1063.520 .0242599
1064.101 .0242441
1064.681 .0242252
1065.261 .0242037
1065.841 .0241809
1066.421 .0241579
1067.001 .0241349
1067.581 .0241132
1068.161 .0240912
1068.741 .0240703
1069.321 .0240489
1069.901 .0240292
1070.482 .0240104
1071.062 .0239931
1071.642 .0239780
1072.222 .0239667
1072.803 .0239580
1073.383 .0239545
1073.963 .0239557
1074.544 .0239618
1075.124 .0239704
1075.705 .0239810
1076.286 .0239946
1076.866 .0240098
1077.447 .0240242
1078.028 .0240393
1078.609 .0240540
1079.190 .0240695
1079.771 .0240848
1080.352 .0240991
1080.934 .0241128
1081.515 .0241271
1082.097 .0241400
1082.679 .0241504
1083.260 .0241587
1083.842 .0241649
1084.424 .0241671
1085.007 .0241667
1085.589 .0241644
1086.172 .0241594
1086.754 .0241534
1087.337 .0241491
1087.920 .0241456
1088.503 .0241435
1089.087 .0241426
1089.670 .0241414
1090.254 .0241393
1090.838 .0241349
1091.422 .0241275
1092.006 .0241182
1092.590 .0241073
1093.175 .0240969
1093.760 .0240849
1094.345 .0240734
1094.930 .0240626
1095.516 .0240514
1096.102 .0240399
1096.688 .0240287
1097.274 .0240167
1097.860 .0240050
1098.447 .0239939
1099.034 .0239844
1099.622 .0239759
1100.209 .0239709
1100.797 .0239694
1101.385 .0239680
1101.973 .0239691
1102.562 .0239735
1103.151 .0239784
1103.740 .0239858
1104.330 .0239943
1104.920 .0240055
1105.510 .0240185
1106.101 .0240338
1106.691 .0240509
1107.283 .0240702
1107.874 .0240908
1108.466 .0241096
1109.058 .0241261
1109.651 .0241398
1110.244 .0241493
1110.837 .0241544
1111.431 .0241569
1112.025 .0241566
1112.620 .0241522
1113.215 .0241448
1113.810 .0241360
1114.406 .0241298
1115.002 .0241211
1115.599 .0241113
1116.196 .0240997
1116.793 .0240826
1117.391 .0240601
1117.989 .0240317
1118.588 .0240000
1119.187 .0239665
1119.787 .0239355
1120.387 .0239091
1120.988 .0238886
1121.589 .0238812
1122.190 .0238834
1122.793 .0238966
1123.395 .0239206
1123.998 .0239490
1124.602 .0239789
1125.206 .0240119
1125.811 .0240469
1126.416 .0240836
1127.022 .0241285
1127.628 .0241790
1128.235 .0242335
1128.843 .0242950
1129.451 .0243588
1130.059 .0244212
1130.669 .0244815
1131.278 .0245396
1131.889 .0245882
1132.500 .0246288
1133.112 .0246617
1133.724 .0246889
1134.337 .0247193
1134.950 .0247491
1135.564 .0247812
1136.179 .0248192
1136.795 .0248608
1137.411 .0249017
1138.028 .0249414
1138.645 .0249840
1139.263 .0250277
1139.882 .0250674
1140.502 .0251118
1141.122 .0251521
1141.743 .0251995
1142.365 .0252148
1142.987 .0252380
1143.611 .0255001
1144.235 .0253309
1144.859 .0254414
1145.485 .0245562
