Measurement Sequence started on: 10-20-44-796
Integration time: 35
Scans to Average: 2 
>>>>>Begin Spectral Data<<<<<
432.953 .0551169
433.882 .0451941
434.810 .0398291
435.737 .0357098
436.662 .0354889
437.586 .0374522
438.509 .0364216
439.431 .0359964
440.351 .0358756
441.269 .0359415
442.187 .0360657
443.103 .0362141
444.018 .0364722
444.932 .0367246
445.844 .0369964
446.756 .0372580
447.666 .0374858
448.575 .0376675
449.482 .0377857
450.388 .0378665
451.294 .0379141
452.198 .0379506
453.100 .0379930
454.002 .0380503
454.902 .0381292
455.801 .0382277
456.699 .0383359
457.596 .0384348
458.492 .0385281
459.387 .0385947
460.280 .0386264
461.172 .0386266
462.064 .0385987
462.954 .0385516
463.843 .0384935
464.730 .0384403
465.617 .0383841
466.503 .0383349
467.387 .0382876
468.271 .0382304
469.153 .0381711
470.035 .0380994
470.915 .0380165
471.794 .0379265
472.673 .0378419
473.550 .0377648
474.426 .0376970
475.301 .0376473
476.175 .0376094
477.048 .0375854
477.920 .0375718
478.791 .0375621
479.661 .0375557
480.530 .0375511
481.398 .0375424
482.266 .0375359
483.132 .0375346
483.997 .0375321
484.861 .0375289
485.724 .0375271
486.587 .0375233
487.448 .0375103
488.308 .0374918
489.168 .0374681
490.026 .0374347
490.884 .0373960
491.741 .0373461
492.597 .0372895
493.452 .0372300
494.306 .0371676
495.159 .0371030
496.011 .0370395
496.862 .0369731
497.713 .0369022
498.562 .0368254
499.411 .0367423
500.259 .0366470
501.106 .0365422
501.952 .0364290
502.798 .0363071
503.642 .0361828
504.486 .0360572
505.329 .0359364
506.171 .0358289
507.012 .0357318
507.852 .0356432
508.692 .0355586
509.531 .0354800
510.369 .0354006
511.206 .0353170
512.043 .0352291
512.878 .0351354
513.713 .0350453
514.547 .0349574
515.381 .0348741
516.213 .0348002
517.045 .0347317
517.876 .0346658
518.706 .0346017
519.536 .0345342
520.365 .0344585
521.193 .0343633
522.020 .0342485
522.847 .0341099
523.673 .0339473
524.498 .0337685
525.323 .0335802
526.146 .0333894
526.969 .0331997
527.792 .0330066
528.614 .0328180
529.435 .0326304
530.255 .0324445
531.075 .0322547
531.894 .0320556
532.712 .0318494
533.530 .0316346
534.347 .0314200
535.163 .0312195
535.979 .0310431
536.794 .0309048
537.608 .0307990
538.422 .0307272
539.235 .0306847
540.048 .0306591
540.860 .0306538
541.671 .0306507
542.481 .0306544
543.292 .0306548
544.101 .0306530
544.910 .0306559
545.718 .0306645
546.526 .0306904
547.333 .0307298
548.139 .0307739
548.945 .0308184
549.750 .0308579
550.555 .0308952
551.359 .0309194
552.162 .0309370
552.965 .0309517
553.768 .0309658
554.569 .0309878
555.371 .0310204
556.171 .0310629
556.972 .0311199
557.771 .0311855
558.570 .0312484
559.369 .0313087
560.167 .0313571
560.964 .0313947
561.761 .0314262
562.558 .0314585
563.354 .0314927
564.149 .0315341
564.944 .0315843
565.738 .0316380
566.532 .0316893
567.325 .0317368
568.118 .0317750
568.910 .0318110
569.702 .0318425
570.494 .0318668
571.285 .0318881
572.075 .0319177
572.865 .0319538
573.654 .0319997
574.443 .0320505
575.232 .0321089
576.020 .0321680
576.807 .0322276
577.594 .0322803
578.381 .0323306
579.167 .0323791
579.952 .0324288
580.738 .0324790
581.522 .0325322
582.307 .0325878
583.091 .0326451
583.874 .0327015
584.657 .0327545
585.440 .0327992
586.222 .0328347
587.004 .0328612
587.785 .0328832
588.566 .0328982
589.346 .0329100
590.126 .0329189
590.906 .0329265
591.685 .0329334
592.464 .0329359
593.242 .0329354
594.020 .0329308
594.797 .0329226
595.575 .0329088
596.351 .0328904
597.128 .0328704
597.904 .0328492
598.679 .0328299
599.454 .0328120
600.229 .0327954
601.004 .0327802
601.778 .0327652
602.551 .0327514
603.325 .0327372
604.097 .0327219
604.870 .0327058
605.642 .0326911
606.414 .0326770
607.185 .0326636
607.956 .0326514
608.727 .0326406
609.497 .0326304
610.267 .0326192
611.037 .0326070
611.806 .0325929
612.575 .0325778
613.344 .0325619
614.112 .0325451
614.880 .0325290
615.647 .0325126
616.414 .0324967
617.181 .0324816
617.948 .0324667
618.714 .0324511
619.480 .0324349
620.245 .0324190
621.011 .0324024
621.775 .0323859
622.540 .0323691
623.304 .0323526
624.068 .0323359
624.832 .0323171
625.595 .0322961
626.358 .0322727
627.120 .0322469
627.883 .0322172
628.645 .0321847
629.406 .0321495
630.168 .0321127
630.929 .0320754
631.689 .0320373
632.450 .0319993
633.210 .0319623
633.970 .0319253
634.729 .0318874
635.489 .0318493
636.248 .0318108
637.006 .0317717
637.765 .0317331
638.523 .0316938
639.280 .0316554
640.038 .0316187
640.795 .0315851
641.552 .0315543
642.309 .0315279
643.065 .0315046
643.821 .0314836
644.577 .0314647
645.332 .0314460
646.088 .0314257
646.843 .0314037
647.597 .0313796
648.352 .0313539
649.106 .0313276
649.860 .0313014
650.613 .0312764
651.367 .0312546
652.120 .0312349
652.872 .0312165
653.625 .0311983
654.377 .0311797
655.129 .0311592
655.881 .0311363
656.632 .0311115
657.384 .0310848
658.135 .0310581
658.885 .0310320
659.636 .0310073
660.386 .0309850
661.136 .0309644
661.885 .0309452
662.635 .0309279
663.384 .0309115
664.133 .0308958
664.881 .0308801
665.630 .0308642
666.378 .0308486
667.126 .0308330
667.874 .0308167
668.621 .0308004
669.368 .0307840
670.115 .0307674
670.862 .0307499
671.608 .0307334
672.354 .0307177
673.100 .0307028
673.846 .0306890
674.591 .0306752
675.337 .0306613
676.082 .0306475
676.826 .0306325
677.571 .0306173
678.315 .0306017
679.059 .0305854
679.803 .0305689
680.547 .0305534
681.290 .0305385
682.033 .0305243
682.776 .0305104
683.518 .0304959
684.261 .0304798
685.003 .0304625
685.745 .0304431
686.487 .0304231
687.228 .0304020
687.969 .0303806
688.710 .0303588
689.451 .0303376
690.192 .0303166
690.932 .0302960
691.672 .0302760
692.412 .0302552
693.152 .0302334
693.891 .0302111
694.630 .0301875
695.369 .0301639
696.108 .0301408
696.846 .0301181
697.585 .0300956
698.323 .0300746
699.061 .0300547
699.798 .0300366
700.536 .0300201
701.273 .0300044
702.010 .0299890
702.746 .0299740
703.483 .0299590
704.219 .0299433
704.955 .0299286
705.691 .0299139
706.427 .0298990
707.162 .0298842
707.897 .0298691
708.632 .0298536
709.367 .0298376
710.101 .0298213
710.835 .0298040
711.569 .0297856
712.303 .0297667
713.037 .0297469
713.770 .0297274
714.503 .0297082
715.236 .0296893
715.969 .0296704
716.702 .0296519
717.434 .0296337
718.166 .0296152
718.898 .0295965
719.629 .0295775
720.361 .0295582
721.092 .0295389
721.823 .0295196
722.554 .0294996
723.284 .0294798
724.014 .0294592
724.744 .0294379
725.474 .0294147
726.204 .0293904
726.933 .0293647
727.662 .0293378
728.391 .0293105
729.120 .0292832
729.849 .0292565
730.577 .0292311
731.305 .0292069
732.033 .0291842
732.760 .0291621
733.488 .0291411
734.215 .0291202
734.942 .0291003
735.669 .0290810
736.395 .0290627
737.122 .0290452
737.848 .0290297
738.573 .0290151
739.299 .0290015
740.024 .0289884
740.750 .0289749
741.474 .0289608
742.199 .0289451
742.924 .0289281
743.648 .0289106
744.372 .0288924
745.096 .0288746
745.819 .0288565
746.543 .0288396
747.266 .0288230
747.989 .0288065
748.711 .0287906
749.434 .0287747
750.156 .0287594
750.878 .0287441
751.599 .0287292
752.321 .0287147
753.042 .0287012
753.763 .0286876
754.484 .0286747
755.205 .0286617
755.925 .0286486
756.645 .0286353
757.365 .0286222
758.085 .0286089
758.804 .0285949
759.523 .0285801
760.242 .0285650
760.961 .0285478
761.679 .0285291
762.397 .0285075
763.115 .0284842
763.833 .0284588
764.551 .0284319
765.268 .0284032
765.985 .0283746
766.702 .0283460
767.418 .0283181
768.134 .0282914
768.850 .0282666
769.566 .0282433
770.282 .0282216
770.997 .0282018
771.712 .0281836
772.427 .0281661
773.142 .0281500
773.856 .0281340
774.570 .0281186
775.284 .0281034
775.998 .0280878
776.711 .0280720
777.424 .0280569
778.137 .0280423
778.849 .0280281
779.562 .0280140
780.274 .0280003
780.986 .0279865
781.697 .0279728
782.409 .0279596
783.120 .0279468
783.831 .0279349
784.541 .0279244
785.252 .0279152
785.962 .0279075
786.671 .0279009
787.381 .0278957
788.090 .0278916
788.799 .0278885
789.508 .0278855
790.217 .0278823
790.925 .0278792
791.633 .0278762
792.341 .0278723
793.048 .0278670
793.755 .0278601
794.462 .0278515
795.169 .0278402
795.875 .0278272
796.581 .0278126
797.287 .0277977
797.993 .0277828
798.698 .0277688
799.403 .0277554
800.108 .0277430
800.812 .0277308
801.517 .0277183
802.221 .0277058
802.924 .0276926
803.628 .0276785
804.331 .0276644
805.034 .0276513
805.736 .0276398
806.439 .0276295
807.141 .0276215
807.843 .0276146
808.544 .0276086
809.245 .0276017
809.946 .0275934
810.647 .0275841
811.347 .0275733
812.047 .0275622
812.747 .0275509
813.447 .0275408
814.146 .0275322
814.845 .0275261
815.543 .0275220
816.242 .0275197
816.940 .0275183
817.638 .0275165
818.335 .0275143
819.032 .0275112
819.729 .0275064
820.426 .0275001
821.122 .0274926
821.818 .0274841
822.514 .0274740
823.209 .0274626
823.905 .0274493
824.599 .0274348
825.294 .0274183
825.988 .0273995
826.682 .0273792
827.376 .0273584
828.069 .0273378
828.762 .0273176
829.455 .0272985
830.147 .0272810
830.840 .0272650
831.531 .0272505
832.223 .0272373
832.914 .0272252
833.605 .0272149
834.296 .0272063
834.986 .0272004
835.676 .0271973
836.366 .0271970
837.055 .0271991
837.744 .0272032
838.433 .0272079
839.121 .0272116
839.809 .0272138
840.497 .0272143
841.185 .0272131
841.872 .0272097
842.559 .0272050
843.245 .0271995
843.932 .0271932
844.617 .0271862
845.303 .0271781
845.988 .0271692
846.673 .0271590
847.358 .0271469
848.042 .0271338
848.726 .0271195
849.410 .0271044
850.093 .0270886
850.776 .0270736
851.459 .0270593
852.141 .0270451
852.823 .0270310
853.505 .0270177
854.186 .0270046
854.867 .0269922
855.548 .0269805
856.228 .0269699
856.908 .0269611
857.588 .0269535
858.267 .0269470
858.946 .0269418
859.625 .0269376
860.303 .0269341
860.981 .0269308
861.659 .0269279
862.336 .0269242
863.013 .0269198
863.690 .0269147
864.366 .0269090
865.042 .0269025
865.718 .0268949
866.393 .0268868
867.068 .0268778
867.743 .0268684
868.417 .0268585
869.091 .0268481
869.765 .0268373
870.438 .0268260
871.111 .0268144
871.783 .0268025
872.456 .0267907
873.127 .0267790
873.799 .0267673
874.470 .0267553
875.141 .0267424
875.811 .0267278
876.481 .0267121
877.151 .0266951
877.820 .0266765
878.489 .0266578
879.158 .0266392
879.826 .0266213
880.494 .0266044
881.162 .0265890
881.829 .0265752
882.496 .0265622
883.163 .0265498
883.829 .0265372
884.495 .0265248
885.160 .0265129
885.825 .0265015
886.490 .0264918
887.154 .0264840
887.818 .0264778
888.482 .0264730
889.145 .0264692
889.808 .0264657
890.471 .0264615
891.133 .0264565
891.795 .0264505
892.456 .0264435
893.117 .0264354
893.778 .0264268
894.439 .0264179
895.099 .0264088
895.758 .0263988
896.417 .0263879
897.076 .0263767
897.735 .0263647
898.393 .0263523
899.051 .0263399
899.708 .0263274
900.365 .0263161
901.022 .0263047
901.678 .0262938
902.334 .0262835
902.990 .0262733
903.645 .0262629
904.300 .0262525
904.954 .0262417
905.608 .0262305
906.262 .0262191
906.915 .0262072
907.568 .0261948
908.221 .0261825
908.873 .0261698
909.525 .0261569
910.176 .0261446
910.828 .0261329
911.478 .0261211
912.129 .0261102
912.778 .0260991
913.428 .0260876
914.077 .0260758
914.726 .0260633
915.375 .0260500
916.023 .0260365
916.670 .0260230
917.318 .0260096
917.964 .0259965
918.611 .0259841
919.257 .0259714
919.903 .0259586
920.548 .0259459
921.193 .0259326
921.838 .0259195
922.482 .0259065
923.126 .0258937
923.770 .0258812
924.413 .0258690
925.056 .0258565
925.698 .0258439
926.340 .0258311
926.982 .0258177
927.623 .0258036
928.264 .0257895
928.904 .0257757
929.544 .0257615
930.184 .0257468
930.823 .0257317
931.462 .0257157
932.101 .0256988
932.739 .0256806
933.377 .0256613
934.014 .0256407
934.651 .0256195
935.288 .0255979
935.924 .0255764
936.560 .0255553
937.196 .0255340
937.831 .0255127
938.466 .0254913
939.100 .0254695
939.734 .0254475
940.368 .0254260
941.001 .0254055
941.634 .0253857
942.266 .0253669
942.899 .0253483
943.530 .0253300
944.162 .0253109
944.793 .0252914
945.423 .0252705
946.053 .0252481
946.683 .0252247
947.313 .0252009
947.942 .0251768
948.571 .0251531
949.199 .0251299
949.827 .0251074
950.455 .0250853
951.082 .0250640
951.709 .0250428
952.335 .0250229
952.961 .0250041
953.587 .0249868
954.212 .0249707
954.837 .0249565
955.462 .0249436
956.086 .0249323
956.710 .0249229
957.334 .0249142
957.957 .0249056
958.579 .0248975
959.202 .0248891
959.824 .0248799
960.445 .0248701
961.067 .0248597
961.688 .0248485
962.308 .0248364
962.928 .0248238
963.548 .0248102
964.168 .0247959
964.787 .0247809
965.406 .0247645
966.024 .0247471
966.642 .0247288
967.260 .0247088
967.877 .0246883
968.494 .0246673
969.110 .0246466
969.727 .0246265
970.342 .0246079
970.958 .0245908
971.573 .0245750
972.188 .0245608
972.802 .0245488
973.416 .0245382
974.030 .0245285
974.643 .0245191
975.256 .0245107
975.869 .0245030
976.481 .0244958
977.093 .0244898
977.705 .0244858
978.316 .0244833
978.927 .0244818
979.538 .0244797
980.148 .0244773
980.758 .0244733
981.367 .0244677
981.977 .0244599
982.586 .0244502
983.194 .0244384
983.802 .0244253
984.410 .0244118
985.018 .0243997
985.625 .0243880
986.232 .0243779
986.838 .0243690
987.445 .0243610
988.050 .0243536
988.656 .0243465
989.261 .0243401
989.866 .0243344
990.471 .0243291
991.075 .0243242
991.679 .0243191
992.282 .0243154
992.886 .0243129
993.489 .0243123
994.091 .0243137
994.694 .0243165
995.296 .0243201
995.897 .0243247
996.499 .0243296
997.100 .0243345
997.701 .0243383
998.301 .0243410
998.901 .0243431
999.501 .0243447
1000.101 .0243462
1000.700 .0243480
1001.299 .0243507
1001.898 .0243552
1002.496 .0243599
1003.094 .0243649
1003.692 .0243687
1004.289 .0243714
1004.887 .0243722
1005.484 .0243708
1006.080 .0243678
1006.677 .0243639
1007.273 .0243598
1007.868 .0243562
1008.464 .0243543
1009.059 .0243544
1009.654 .0243560
1010.249 .0243594
1010.843 .0243643
1011.437 .0243703
1012.031 .0243757
1012.625 .0243814
1013.218 .0243865
1013.811 .0243913
1014.404 .0243957
1014.997 .0243994
1015.589 .0244026
1016.181 .0244056
1016.773 .0244078
1017.365 .0244092
1017.956 .0244101
1018.547 .0244102
1019.138 .0244091
1019.728 .0244077
1020.319 .0244065
1020.909 .0244057
1021.499 .0244051
1022.088 .0244057
1022.678 .0244070
1023.267 .0244091
1023.856 .0244109
1024.445 .0244126
1025.033 .0244140
1025.621 .0244149
1026.209 .0244155
1026.797 .0244153
1027.385 .0244152
1027.972 .0244160
1028.560 .0244175
1029.147 .0244192
1029.734 .0244211
1030.320 .0244232
1030.907 .0244242
1031.493 .0244252
1032.079 .0244253
1032.665 .0244253
1033.250 .0244259
1033.836 .0244286
1034.421 .0244328
1035.006 .0244389
1035.591 .0244470
1036.176 .0244561
1036.761 .0244666
1037.345 .0244778
1037.929 .0244880
1038.514 .0244978
1039.097 .0245072
1039.681 .0245163
1040.265 .0245244
1040.848 .0245326
1041.432 .0245397
1042.015 .0245467
1042.598 .0245517
1043.181 .0245548
1043.764 .0245550
1044.346 .0245529
1044.929 .0245489
1045.511 .0245425
1046.094 .0245340
1046.676 .0245242
1047.258 .0245135
1047.840 .0245035
1048.422 .0244937
1049.003 .0244853
1049.585 .0244780
1050.166 .0244722
1050.748 .0244677
1051.329 .0244643
1051.910 .0244631
1052.491 .0244658
1053.072 .0244712
1053.653 .0244800
1054.234 .0244912
1054.815 .0245058
1055.396 .0245227
1055.976 .0245413
1056.557 .0245607
1057.138 .0245801
1057.718 .0245979
1058.298 .0246141
1058.879 .0246278
1059.459 .0246388
1060.039 .0246471
1060.620 .0246532
1061.200 .0246566
1061.780 .0246574
1062.360 .0246541
1062.940 .0246493
1063.520 .0246433
1064.101 .0246377
1064.681 .0246324
1065.261 .0246292
1065.841 .0246301
1066.421 .0246328
1067.001 .0246364
1067.581 .0246406
1068.161 .0246449
1068.741 .0246491
1069.321 .0246511
1069.901 .0246514
1070.482 .0246507
1071.062 .0246503
1071.642 .0246503
1072.222 .0246500
1072.803 .0246471
1073.383 .0246407
1073.963 .0246293
1074.544 .0246125
1075.124 .0245880
1075.705 .0245578
1076.286 .0245247
1076.866 .0244906
1077.447 .0244583
1078.028 .0244294
1078.609 .0244069
1079.190 .0243941
1079.771 .0243885
1080.352 .0243875
1080.934 .0243898
1081.515 .0243948
1082.097 .0243998
1082.679 .0244061
1083.260 .0244134
1083.842 .0244238
1084.424 .0244379
1085.007 .0244582
1085.589 .0244818
1086.172 .0245078
1086.754 .0245348
1087.337 .0245595
1087.920 .0245799
1088.503 .0245922
1089.087 .0245969
1089.670 .0245973
1090.254 .0245926
1090.838 .0245856
1091.422 .0245761
1092.006 .0245702
1092.590 .0245661
1093.175 .0245635
1093.760 .0245598
1094.345 .0245537
1094.930 .0245461
1095.516 .0245356
1096.102 .0245243
1096.688 .0245122
1097.274 .0245018
1097.860 .0244933
1098.447 .0244841
1099.034 .0244744
1099.622 .0244602
1100.209 .0244437
1100.797 .0244234
1101.385 .0243977
1101.973 .0243663
1102.562 .0243341
1103.151 .0243067
1103.740 .0242831
1104.330 .0242658
1104.920 .0242566
1105.510 .0242549
1106.101 .0242623
1106.691 .0242771
1107.283 .0242968
1107.874 .0243204
1108.466 .0243518
1109.058 .0243849
1109.651 .0244230
1110.244 .0244670
1110.837 .0245155
1111.431 .0245701
1112.025 .0246280
1112.620 .0246842
1113.215 .0247361
1113.810 .0247856
1114.406 .0248313
1115.002 .0248669
1115.599 .0248961
1116.196 .0249125
1116.793 .0249181
1117.391 .0249163
1117.989 .0249063
1118.588 .0248908
1119.187 .0248705
1119.787 .0248444
1120.387 .0248152
1120.988 .0247810
1121.589 .0247463
1122.190 .0247129
1122.793 .0246840
1123.395 .0246601
1123.998 .0246421
1124.602 .0246336
1125.206 .0246346
1125.811 .0246446
1126.416 .0246624
1127.022 .0246808
1127.628 .0246998
1128.235 .0247173
1128.843 .0247326
1129.451 .0247508
1130.059 .0247721
1130.669 .0247965
1131.278 .0248294
1131.889 .0248672
1132.500 .0249050
1133.112 .0249441
1133.724 .0249836
1134.337 .0250218
1134.950 .0250542
1135.564 .0250860
1136.179 .0251159
1136.795 .0251518
1137.411 .0251971
1138.028 .0252482
1138.645 .0253106
1139.263 .0253894
1139.882 .0254723
1140.502 .0255658
1141.122 .0256584
1141.743 .0257532
1142.365 .0258424
1142.987 .0259369
1143.611 .0261643
1144.235 .0260380
1144.859 .0261318
1145.485 .0261691
