Measurement Sequence started on: 10-20-44-796
Integration time: 35
Scans to Average: 2 
>>>>>Begin Spectral Data<<<<<
432.953 .0340753
433.882 .0371551
434.810 .0359009
435.737 .0316857
436.662 .0322606
437.586 .0323568
438.509 .0319514
439.431 .0315892
440.351 .0313809
441.269 .0313543
442.187 .0313502
443.103 .0313733
444.018 .0314308
444.932 .0315155
445.844 .0315983
446.756 .0316888
447.666 .0317908
448.575 .0318990
449.482 .0320069
450.388 .0321173
451.294 .0322152
452.198 .0323013
453.100 .0323818
454.002 .0324441
454.902 .0324774
455.801 .0324944
456.699 .0324958
457.596 .0324780
458.492 .0324481
459.387 .0324036
460.280 .0323503
461.172 .0322873
462.064 .0322211
462.954 .0321529
463.843 .0320838
464.730 .0320120
465.617 .0319404
466.503 .0318687
467.387 .0318055
468.271 .0317456
469.153 .0316968
470.035 .0316551
470.915 .0316252
471.794 .0316040
472.673 .0315935
473.550 .0315953
474.426 .0316146
475.301 .0316456
476.175 .0316878
477.048 .0317371
477.920 .0317867
478.791 .0318365
479.661 .0318841
480.530 .0319246
481.398 .0319574
482.266 .0319807
483.132 .0319986
483.997 .0320085
484.861 .0320184
485.724 .0320296
486.587 .0320392
487.448 .0320503
488.308 .0320546
489.168 .0320483
490.026 .0320328
490.884 .0320087
491.741 .0319722
492.597 .0319273
493.452 .0318768
494.306 .0318249
495.159 .0317700
496.011 .0317196
496.862 .0316744
497.713 .0316301
498.562 .0315849
499.411 .0315325
500.259 .0314713
501.106 .0314028
501.952 .0313238
502.798 .0312420
503.642 .0311568
504.486 .0310741
505.329 .0309865
506.171 .0309053
507.012 .0308300
507.852 .0307533
508.692 .0306697
509.531 .0305831
510.369 .0304871
511.206 .0303827
512.043 .0302703
512.878 .0301570
513.713 .0300427
514.547 .0299286
515.381 .0298183
516.213 .0297127
517.045 .0296108
517.876 .0295115
518.706 .0294035
519.536 .0292929
520.365 .0291696
521.193 .0290314
522.020 .0288900
522.847 .0287534
523.673 .0286178
524.498 .0284786
525.323 .0283346
526.146 .0281899
526.969 .0280423
527.792 .0278936
528.614 .0277406
529.435 .0275818
530.255 .0274276
531.075 .0272659
531.894 .0271013
532.712 .0269407
533.530 .0267793
534.347 .0266146
535.163 .0264531
535.979 .0262993
536.794 .0261635
537.608 .0260496
538.422 .0259729
539.235 .0259178
540.048 .0258846
540.860 .0258677
541.671 .0258554
542.481 .0258499
543.292 .0258546
544.101 .0258516
544.910 .0258554
545.718 .0258660
546.526 .0258901
547.333 .0259186
548.139 .0259641
548.945 .0260173
549.750 .0260680
550.555 .0261142
551.359 .0261535
552.162 .0261785
552.965 .0262053
553.768 .0262240
554.569 .0262417
555.371 .0262630
556.171 .0262880
556.972 .0263109
557.771 .0263380
558.570 .0263620
559.369 .0263839
560.167 .0263983
560.964 .0264241
561.761 .0264584
562.558 .0265133
563.354 .0265897
564.149 .0266831
564.944 .0267916
565.738 .0269093
566.532 .0270236
567.325 .0271412
568.118 .0272540
568.910 .0273645
569.702 .0274702
570.494 .0275748
571.285 .0276827
572.075 .0277949
572.865 .0279072
573.654 .0280182
574.443 .0281189
575.232 .0282101
576.020 .0282887
576.807 .0283577
577.594 .0284192
578.381 .0284783
579.167 .0285397
579.952 .0286063
580.738 .0286745
581.522 .0287463
582.307 .0288169
583.091 .0288877
583.874 .0289528
584.657 .0290068
585.440 .0290530
586.222 .0290937
587.004 .0291284
587.785 .0291605
588.566 .0291910
589.346 .0292227
590.126 .0292529
590.906 .0292820
591.685 .0293084
592.464 .0293316
593.242 .0293499
594.020 .0293622
594.797 .0293688
595.575 .0293710
596.351 .0293679
597.128 .0293630
597.904 .0293578
598.679 .0293534
599.454 .0293496
600.229 .0293474
601.004 .0293449
601.778 .0293416
602.551 .0293352
603.325 .0293250
604.097 .0293105
604.870 .0292918
605.642 .0292692
606.414 .0292464
607.185 .0292241
607.956 .0292034
608.727 .0291845
609.497 .0291690
610.267 .0291545
611.037 .0291402
611.806 .0291247
612.575 .0291077
613.344 .0290888
614.112 .0290692
614.880 .0290488
615.647 .0290305
616.414 .0290142
617.181 .0290002
617.948 .0289878
618.714 .0289776
619.480 .0289679
620.245 .0289589
621.011 .0289502
621.775 .0289424
622.540 .0289342
623.304 .0289274
624.068 .0289218
624.832 .0289173
625.595 .0289135
626.358 .0289100
627.120 .0289057
627.883 .0288998
628.645 .0288911
629.406 .0288816
630.168 .0288712
630.929 .0288608
631.689 .0288497
632.450 .0288384
633.210 .0288271
633.970 .0288153
634.729 .0288013
635.489 .0287858
636.248 .0287677
637.006 .0287471
637.765 .0287237
638.523 .0286987
639.280 .0286734
640.038 .0286487
640.795 .0286254
641.552 .0286037
642.309 .0285826
643.065 .0285631
643.821 .0285447
644.577 .0285275
645.332 .0285108
646.088 .0284943
646.843 .0284779
647.597 .0284620
648.352 .0284463
649.106 .0284311
649.860 .0284161
650.613 .0284017
651.367 .0283868
652.120 .0283706
652.872 .0283535
653.625 .0283356
654.377 .0283173
655.129 .0282998
655.881 .0282828
656.632 .0282668
657.384 .0282514
658.135 .0282367
658.885 .0282214
659.636 .0282052
660.386 .0281885
661.136 .0281704
661.885 .0281517
662.635 .0281333
663.384 .0281162
664.133 .0281017
664.881 .0280899
665.630 .0280805
666.378 .0280726
667.126 .0280654
667.874 .0280572
668.621 .0280470
669.368 .0280347
670.115 .0280197
670.862 .0280024
671.608 .0279844
672.354 .0279663
673.100 .0279491
673.846 .0279337
674.591 .0279198
675.337 .0279070
676.082 .0278949
676.826 .0278821
677.571 .0278688
678.315 .0278547
679.059 .0278394
679.803 .0278235
680.547 .0278073
681.290 .0277912
682.033 .0277748
682.776 .0277588
683.518 .0277428
684.261 .0277267
685.003 .0277108
685.745 .0276942
686.487 .0276781
687.228 .0276629
687.969 .0276479
688.710 .0276334
689.451 .0276191
690.192 .0276050
690.932 .0275902
691.672 .0275756
692.412 .0275604
693.152 .0275456
693.891 .0275315
694.630 .0275186
695.369 .0275068
696.108 .0274966
696.846 .0274875
697.585 .0274786
698.323 .0274696
699.061 .0274590
699.798 .0274462
700.536 .0274318
701.273 .0274160
702.010 .0274001
702.746 .0273841
703.483 .0273698
704.219 .0273566
704.955 .0273447
705.691 .0273335
706.427 .0273213
707.162 .0273082
707.897 .0272936
708.632 .0272774
709.367 .0272597
710.101 .0272415
710.835 .0272236
711.569 .0272066
712.303 .0271915
713.037 .0271775
713.770 .0271649
714.503 .0271528
715.236 .0271409
715.969 .0271279
716.702 .0271145
717.434 .0271004
718.166 .0270852
718.898 .0270700
719.629 .0270546
720.361 .0270397
721.092 .0270252
721.823 .0270107
722.554 .0269968
723.284 .0269828
724.014 .0269681
724.744 .0269514
725.474 .0269334
726.204 .0269140
726.933 .0268931
727.662 .0268716
728.391 .0268498
729.120 .0268290
729.849 .0268099
730.577 .0267926
731.305 .0267770
732.033 .0267636
732.760 .0267521
733.488 .0267412
734.215 .0267309
734.942 .0267205
735.669 .0267097
736.395 .0266995
737.122 .0266896
737.848 .0266803
738.573 .0266717
739.299 .0266637
740.024 .0266556
740.750 .0266472
741.474 .0266375
742.199 .0266262
742.924 .0266129
743.648 .0265980
744.372 .0265823
745.096 .0265659
745.819 .0265502
746.543 .0265359
747.266 .0265227
747.989 .0265108
748.711 .0264995
749.434 .0264898
750.156 .0264799
750.878 .0264704
751.599 .0264611
752.321 .0264518
753.042 .0264434
753.763 .0264354
754.484 .0264274
755.205 .0264199
755.925 .0264128
756.645 .0264046
757.365 .0263951
758.085 .0263849
758.804 .0263734
759.523 .0263606
760.242 .0263471
760.961 .0263327
761.679 .0263175
762.397 .0263022
763.115 .0262858
763.833 .0262677
764.551 .0262485
765.268 .0262271
765.985 .0262040
766.702 .0261796
767.418 .0261545
768.134 .0261292
768.850 .0261046
769.566 .0260808
770.282 .0260576
770.997 .0260349
771.712 .0260131
772.427 .0259912
773.142 .0259700
773.856 .0259486
774.570 .0259276
775.284 .0259078
775.998 .0258892
776.711 .0258718
777.424 .0258561
778.137 .0258418
778.849 .0258283
779.562 .0258156
780.274 .0258031
780.986 .0257904
781.697 .0257777
782.409 .0257643
783.120 .0257508
783.831 .0257367
784.541 .0257224
785.252 .0257072
785.962 .0256914
786.671 .0256752
787.381 .0256586
788.090 .0256422
788.799 .0256267
789.508 .0256123
790.217 .0255989
790.925 .0255859
791.633 .0255733
792.341 .0255604
793.048 .0255464
793.755 .0255313
794.462 .0255151
795.169 .0254981
795.875 .0254811
796.581 .0254649
797.287 .0254500
797.993 .0254366
798.698 .0254238
799.403 .0254111
800.108 .0253979
800.812 .0253835
801.517 .0253677
802.221 .0253517
802.924 .0253353
803.628 .0253194
804.331 .0253045
805.034 .0252910
805.736 .0252783
806.439 .0252674
807.141 .0252568
807.843 .0252467
808.544 .0252371
809.245 .0252274
809.946 .0252176
810.647 .0252095
811.347 .0252015
812.047 .0251938
812.747 .0251867
813.447 .0251798
814.146 .0251713
814.845 .0251630
815.543 .0251536
816.242 .0251440
816.940 .0251346
817.638 .0251253
818.335 .0251152
819.032 .0251054
819.729 .0250947
820.426 .0250827
821.122 .0250696
821.818 .0250556
822.514 .0250396
823.209 .0250237
823.905 .0250081
824.599 .0249926
825.294 .0249775
825.988 .0249637
826.682 .0249502
827.376 .0249374
828.069 .0249245
828.762 .0249116
829.455 .0248988
830.147 .0248871
830.840 .0248755
831.531 .0248647
832.223 .0248547
832.914 .0248454
833.605 .0248363
834.296 .0248271
834.986 .0248175
835.676 .0248078
836.366 .0247983
837.055 .0247891
837.744 .0247804
838.433 .0247726
839.121 .0247663
839.809 .0247614
840.497 .0247576
841.185 .0247543
841.872 .0247510
842.559 .0247481
843.245 .0247450
843.932 .0247421
844.617 .0247399
845.303 .0247385
845.988 .0247387
846.673 .0247399
847.358 .0247416
848.042 .0247435
848.726 .0247448
849.410 .0247448
850.093 .0247426
850.776 .0247379
851.459 .0247312
852.141 .0247223
852.823 .0247128
853.505 .0247024
854.186 .0246914
854.867 .0246806
855.548 .0246697
856.228 .0246581
856.908 .0246464
857.588 .0246341
858.267 .0246218
858.946 .0246092
859.625 .0245968
860.303 .0245849
860.981 .0245743
861.659 .0245654
862.336 .0245581
863.013 .0245525
863.690 .0245488
864.366 .0245461
865.042 .0245442
865.718 .0245430
866.393 .0245418
867.068 .0245408
867.743 .0245393
868.417 .0245371
869.091 .0245344
869.765 .0245308
870.438 .0245268
871.111 .0245223
871.783 .0245173
872.456 .0245116
873.127 .0245047
873.799 .0244970
874.470 .0244879
875.141 .0244781
875.811 .0244676
876.481 .0244567
877.151 .0244458
877.820 .0244353
878.489 .0244255
879.158 .0244171
879.826 .0244098
880.494 .0244036
881.162 .0243979
881.829 .0243928
882.496 .0243882
883.163 .0243840
883.829 .0243799
884.495 .0243767
885.160 .0243743
885.825 .0243725
886.490 .0243711
887.154 .0243702
887.818 .0243694
888.482 .0243684
889.145 .0243667
889.808 .0243638
890.471 .0243602
891.133 .0243560
891.795 .0243513
892.456 .0243466
893.117 .0243427
893.778 .0243394
894.439 .0243367
895.099 .0243349
895.758 .0243333
896.417 .0243316
897.076 .0243296
897.735 .0243269
898.393 .0243235
899.051 .0243196
899.708 .0243152
900.365 .0243109
901.022 .0243075
901.678 .0243048
902.334 .0243026
902.990 .0243009
903.645 .0242989
904.300 .0242960
904.954 .0242914
905.608 .0242848
906.262 .0242759
906.915 .0242651
907.568 .0242529
908.221 .0242402
908.873 .0242278
909.525 .0242164
910.176 .0242061
910.828 .0241970
911.478 .0241889
912.129 .0241805
912.778 .0241715
913.428 .0241619
914.077 .0241510
914.726 .0241391
915.375 .0241270
916.023 .0241155
916.670 .0241050
917.318 .0240955
917.964 .0240866
918.611 .0240777
919.257 .0240683
919.903 .0240573
920.548 .0240444
921.193 .0240297
921.838 .0240140
922.482 .0239967
923.126 .0239795
923.770 .0239626
924.413 .0239458
925.056 .0239295
925.698 .0239144
926.340 .0238994
926.982 .0238847
927.623 .0238698
928.264 .0238557
928.904 .0238421
929.544 .0238288
930.184 .0238155
930.823 .0238028
931.462 .0237905
932.101 .0237789
932.739 .0237669
933.377 .0237560
934.014 .0237451
934.651 .0237344
935.288 .0237231
935.924 .0237120
936.560 .0237008
937.196 .0236892
937.831 .0236767
938.466 .0236635
939.100 .0236486
939.734 .0236328
940.368 .0236158
941.001 .0235989
941.634 .0235817
942.266 .0235645
942.899 .0235466
943.530 .0235291
944.162 .0235110
944.793 .0234919
945.423 .0234715
946.053 .0234498
946.683 .0234264
947.313 .0234017
947.942 .0233753
948.571 .0233483
949.199 .0233211
949.827 .0232939
950.455 .0232670
951.082 .0232413
951.709 .0232166
952.335 .0231931
952.961 .0231711
953.587 .0231503
954.212 .0231297
954.837 .0231097
955.462 .0230896
956.086 .0230696
956.710 .0230506
957.334 .0230324
957.957 .0230148
958.579 .0229988
959.202 .0229835
959.824 .0229684
960.445 .0229539
961.067 .0229396
961.688 .0229245
962.308 .0229088
962.928 .0228919
963.548 .0228739
964.168 .0228548
964.787 .0228352
965.406 .0228149
966.024 .0227951
966.642 .0227756
967.260 .0227563
967.877 .0227375
968.494 .0227198
969.110 .0227028
969.727 .0226861
970.342 .0226701
970.958 .0226547
971.573 .0226402
972.188 .0226267
972.802 .0226141
973.416 .0226035
974.030 .0225939
974.643 .0225860
975.256 .0225788
975.869 .0225724
976.481 .0225660
977.093 .0225591
977.705 .0225518
978.316 .0225440
978.927 .0225355
979.538 .0225261
980.148 .0225168
980.758 .0225086
981.367 .0225008
981.977 .0224946
982.586 .0224894
983.194 .0224854
983.802 .0224814
984.410 .0224770
985.018 .0224721
985.625 .0224662
986.232 .0224598
986.838 .0224527
987.445 .0224459
988.050 .0224405
988.656 .0224363
989.261 .0224340
989.866 .0224329
990.471 .0224328
991.075 .0224317
991.679 .0224294
992.282 .0224252
992.886 .0224200
993.489 .0224139
994.091 .0224075
994.694 .0224018
995.296 .0223975
995.897 .0223947
996.499 .0223924
997.100 .0223896
997.701 .0223858
998.301 .0223801
998.901 .0223727
999.501 .0223630
1000.101 .0223533
1000.700 .0223433
1001.299 .0223344
1001.898 .0223267
1002.496 .0223209
1003.094 .0223157
1003.692 .0223111
1004.289 .0223068
1004.887 .0223020
1005.484 .0222968
1006.080 .0222918
1006.677 .0222868
1007.273 .0222836
1007.868 .0222816
1008.464 .0222803
1009.059 .0222793
1009.654 .0222800
1010.249 .0222804
1010.843 .0222810
1011.437 .0222819
1012.031 .0222831
1012.625 .0222844
1013.218 .0222863
1013.811 .0222882
1014.404 .0222896
1014.997 .0222909
1015.589 .0222910
1016.181 .0222898
1016.773 .0222879
1017.365 .0222851
1017.956 .0222826
1018.547 .0222805
1019.138 .0222799
1019.728 .0222800
1020.319 .0222819
1020.909 .0222861
1021.499 .0222912
1022.088 .0222978
1022.678 .0223040
1023.267 .0223104
1023.856 .0223166
1024.445 .0223226
1025.033 .0223284
1025.621 .0223337
1026.209 .0223397
1026.797 .0223462
1027.385 .0223527
1027.972 .0223598
1028.560 .0223674
1029.147 .0223745
1029.734 .0223806
1030.320 .0223858
1030.907 .0223881
1031.493 .0223890
1032.079 .0223881
1032.665 .0223863
1033.250 .0223841
1033.836 .0223827
1034.421 .0223825
1035.006 .0223837
1035.591 .0223874
1036.176 .0223926
1036.761 .0223993
1037.345 .0224082
1037.929 .0224178
1038.514 .0224281
1039.097 .0224398
1039.681 .0224521
1040.265 .0224646
1040.848 .0224783
1041.432 .0224929
1042.015 .0225079
1042.598 .0225229
1043.181 .0225366
1043.764 .0225505
1044.346 .0225635
1044.929 .0225755
1045.511 .0225860
1046.094 .0225948
1046.676 .0226021
1047.258 .0226069
1047.840 .0226087
1048.422 .0226080
1049.003 .0226037
1049.585 .0225969
1050.166 .0225857
1050.748 .0225724
1051.329 .0225562
1051.910 .0225393
1052.491 .0225230
1053.072 .0225090
1053.653 .0224954
1054.234 .0224839
1054.815 .0224754
1055.396 .0224683
1055.976 .0224624
1056.557 .0224580
1057.138 .0224543
1057.718 .0224530
1058.298 .0224525
1058.879 .0224557
1059.459 .0224606
1060.039 .0224703
1060.620 .0224811
1061.200 .0224930
1061.780 .0225047
1062.360 .0225145
1062.940 .0225211
1063.520 .0225244
1064.101 .0225254
1064.681 .0225240
1065.261 .0225209
1065.841 .0225176
1066.421 .0225144
1067.001 .0225117
1067.581 .0225076
1068.161 .0225035
1068.741 .0224985
1069.321 .0224950
1069.901 .0224917
1070.482 .0224906
1071.062 .0224924
1071.642 .0224977
1072.222 .0225066
1072.803 .0225163
1073.383 .0225272
1073.963 .0225373
1074.544 .0225455
1075.124 .0225517
1075.705 .0225563
1076.286 .0225608
1076.866 .0225668
1077.447 .0225752
1078.028 .0225861
1078.609 .0225986
1079.190 .0226119
1079.771 .0226248
1080.352 .0226365
1080.934 .0226474
1081.515 .0226564
1082.097 .0226657
1082.679 .0226789
1083.260 .0226926
1083.842 .0227092
1084.424 .0227268
1085.007 .0227452
1085.589 .0227606
1086.172 .0227702
1086.754 .0227755
1087.337 .0227775
1087.920 .0227780
1088.503 .0227781
1089.087 .0227796
1089.670 .0227855
1090.254 .0227939
1090.838 .0228025
1091.422 .0228126
1092.006 .0228210
1092.590 .0228246
1093.175 .0228252
1093.760 .0228220
1094.345 .0228176
1094.930 .0228121
1095.516 .0228076
1096.102 .0228067
1096.688 .0228079
1097.274 .0228104
1097.860 .0228113
1098.447 .0228149
1099.034 .0228189
1099.622 .0228228
1100.209 .0228271
1100.797 .0228314
1101.385 .0228347
1101.973 .0228372
1102.562 .0228378
1103.151 .0228380
1103.740 .0228374
1104.330 .0228364
1104.920 .0228351
1105.510 .0228380
1106.101 .0228415
1106.691 .0228457
1107.283 .0228489
1107.874 .0228506
1108.466 .0228439
1109.058 .0228311
1109.651 .0228106
1110.244 .0227866
1110.837 .0227621
1111.431 .0227404
1112.025 .0227208
1112.620 .0227095
1113.215 .0227078
1113.810 .0227132
1114.406 .0227229
1115.002 .0227361
1115.599 .0227466
1116.196 .0227552
1116.793 .0227581
1117.391 .0227587
1117.989 .0227528
1118.588 .0227470
1119.187 .0227404
1119.787 .0227309
1120.387 .0227204
1120.988 .0227067
1121.589 .0226889
1122.190 .0226694
1122.793 .0226460
1123.395 .0226168
1123.998 .0225840
1124.602 .0225574
1125.206 .0225331
1125.811 .0225171
1126.416 .0225148
1127.022 .0225260
1127.628 .0225490
1128.235 .0225867
1128.843 .0226325
1129.451 .0226835
1130.059 .0227404
1130.669 .0227942
1131.278 .0228432
1131.889 .0228849
1132.500 .0229144
1133.112 .0229348
1133.724 .0229523
1134.337 .0229688
1134.950 .0229779
1135.564 .0229941
1136.179 .0230134
1136.795 .0230335
1137.411 .0230585
1138.028 .0230861
1138.645 .0231173
1139.263 .0231499
1139.882 .0231855
1140.502 .0232401
1141.122 .0233001
1141.743 .0233788
1142.365 .0234419
1142.987 .0234485
1143.611 .0240009
1144.235 .0237073
1144.859 .0238647
1145.485 .0233131
