Measurement Sequence started on: 10-20-44-796
Integration time: 35
Scans to Average: 2 
>>>>>Begin Spectral Data<<<<<
432.953 .0282651
433.882 .0355296
434.810 .0381036
435.737 .0373289
436.662 .0389676
437.586 .0373535
438.509 .0377075
439.431 .0377522
440.351 .0377104
441.269 .0376885
442.187 .0376203
443.103 .0375769
444.018 .0375263
444.932 .0374666
445.844 .0374023
446.756 .0373444
447.666 .0373125
448.575 .0372974
449.482 .0372944
450.388 .0373123
451.294 .0373305
452.198 .0373491
453.100 .0373592
454.002 .0373530
454.902 .0373286
455.801 .0372919
456.699 .0372461
457.596 .0372013
458.492 .0371565
459.387 .0371089
460.280 .0370616
461.172 .0370175
462.064 .0369728
462.954 .0369216
463.843 .0368640
464.730 .0368018
465.617 .0367304
466.503 .0366563
467.387 .0365786
468.271 .0365078
469.153 .0364474
470.035 .0363910
470.915 .0363437
471.794 .0362993
472.673 .0362569
473.550 .0362135
474.426 .0361716
475.301 .0361267
476.175 .0360797
477.048 .0360306
477.920 .0359827
478.791 .0359382
479.661 .0358982
480.530 .0358636
481.398 .0358343
482.266 .0358104
483.132 .0357922
483.997 .0357778
484.861 .0357723
485.724 .0357738
486.587 .0357831
487.448 .0357973
488.308 .0358157
489.168 .0358348
490.026 .0358534
490.884 .0358698
491.741 .0358808
492.597 .0358862
493.452 .0358877
494.306 .0358867
495.159 .0358828
496.011 .0358785
496.862 .0358744
497.713 .0358637
498.562 .0358432
499.411 .0358080
500.259 .0357589
501.106 .0356963
501.952 .0356184
502.798 .0355296
503.642 .0354345
504.486 .0353395
505.329 .0352435
506.171 .0351515
507.012 .0350684
507.852 .0349892
508.692 .0349145
509.531 .0348392
510.369 .0347628
511.206 .0346839
512.043 .0346008
512.878 .0345135
513.713 .0344256
514.547 .0343294
515.381 .0342279
516.213 .0341228
517.045 .0340138
517.876 .0338935
518.706 .0337640
519.536 .0336288
520.365 .0334912
521.193 .0333436
522.020 .0331926
522.847 .0330289
523.673 .0328643
524.498 .0326903
525.323 .0325002
526.146 .0323041
526.969 .0321112
527.792 .0319162
528.614 .0317255
529.435 .0315386
530.255 .0313680
531.075 .0312037
531.894 .0310539
532.712 .0309088
533.530 .0307703
534.347 .0306395
535.163 .0305138
535.979 .0303957
536.794 .0302957
537.608 .0302091
538.422 .0301406
539.235 .0300908
540.048 .0300604
540.860 .0300437
541.671 .0300406
542.481 .0300481
543.292 .0300678
544.101 .0300911
544.910 .0301187
545.718 .0301472
546.526 .0301801
547.333 .0302162
548.139 .0302478
548.945 .0302742
549.750 .0302904
550.555 .0302937
551.359 .0302811
552.162 .0302525
552.965 .0302178
553.768 .0301731
554.569 .0301289
555.371 .0300853
556.171 .0300492
556.972 .0300238
557.771 .0300134
558.570 .0300165
559.369 .0300321
560.167 .0300567
560.964 .0300883
561.761 .0301266
562.558 .0301737
563.354 .0302268
564.149 .0302876
564.944 .0303569
565.738 .0304356
566.532 .0305187
567.325 .0306101
568.118 .0307043
568.910 .0308007
569.702 .0308974
570.494 .0309939
571.285 .0310918
572.075 .0311914
572.865 .0312950
573.654 .0314000
574.443 .0315033
575.232 .0316038
576.020 .0316983
576.807 .0317862
577.594 .0318672
578.381 .0319406
579.167 .0320082
579.952 .0320743
580.738 .0321399
581.522 .0322040
582.307 .0322674
583.091 .0323324
583.874 .0323928
584.657 .0324457
585.440 .0324920
586.222 .0325302
587.004 .0325608
587.785 .0325858
588.566 .0326063
589.346 .0326237
590.126 .0326400
590.906 .0326561
591.685 .0326707
592.464 .0326833
593.242 .0326925
594.020 .0326963
594.797 .0326960
595.575 .0326923
596.351 .0326844
597.128 .0326757
597.904 .0326663
598.679 .0326570
599.454 .0326471
600.229 .0326375
601.004 .0326271
601.778 .0326150
602.551 .0326004
603.325 .0325835
604.097 .0325635
604.870 .0325411
605.642 .0325179
606.414 .0324940
607.185 .0324702
607.956 .0324475
608.727 .0324256
609.497 .0324055
610.267 .0323856
611.037 .0323662
611.806 .0323458
612.575 .0323245
613.344 .0323024
614.112 .0322787
614.880 .0322552
615.647 .0322321
616.414 .0322095
617.181 .0321879
617.948 .0321683
618.714 .0321504
619.480 .0321339
620.245 .0321184
621.011 .0321029
621.775 .0320866
622.540 .0320694
623.304 .0320518
624.068 .0320338
624.832 .0320158
625.595 .0319989
626.358 .0319826
627.120 .0319680
627.883 .0319535
628.645 .0319398
629.406 .0319263
630.168 .0319127
630.929 .0318974
631.689 .0318799
632.450 .0318607
633.210 .0318404
633.970 .0318190
634.729 .0317976
635.489 .0317753
636.248 .0317529
637.006 .0317302
637.765 .0317071
638.523 .0316832
639.280 .0316589
640.038 .0316343
640.795 .0316106
641.552 .0315874
642.309 .0315655
643.065 .0315452
643.821 .0315273
644.577 .0315114
645.332 .0314967
646.088 .0314822
646.843 .0314673
647.597 .0314517
648.352 .0314346
649.106 .0314157
649.860 .0313953
650.613 .0313744
651.367 .0313536
652.120 .0313333
652.872 .0313138
653.625 .0312951
654.377 .0312776
655.129 .0312604
655.881 .0312428
656.632 .0312248
657.384 .0312058
658.135 .0311867
658.885 .0311670
659.636 .0311472
660.386 .0311274
661.136 .0311082
661.885 .0310898
662.635 .0310721
663.384 .0310554
664.133 .0310391
664.881 .0310231
665.630 .0310073
666.378 .0309911
667.126 .0309739
667.874 .0309555
668.621 .0309358
669.368 .0309147
670.115 .0308927
670.862 .0308704
671.608 .0308496
672.354 .0308305
673.100 .0308135
673.846 .0307987
674.591 .0307858
675.337 .0307747
676.082 .0307646
676.826 .0307547
677.571 .0307446
678.315 .0307338
679.059 .0307220
679.803 .0307090
680.547 .0306958
681.290 .0306825
682.033 .0306690
682.776 .0306551
683.518 .0306404
684.261 .0306243
685.003 .0306070
685.745 .0305883
686.487 .0305686
687.228 .0305479
687.969 .0305263
688.710 .0305041
689.451 .0304812
690.192 .0304581
690.932 .0304349
691.672 .0304116
692.412 .0303884
693.152 .0303652
693.891 .0303424
694.630 .0303203
695.369 .0302994
696.108 .0302796
696.846 .0302600
697.585 .0302405
698.323 .0302205
699.061 .0302002
699.798 .0301797
700.536 .0301590
701.273 .0301383
702.010 .0301179
702.746 .0300975
703.483 .0300768
704.219 .0300557
704.955 .0300344
705.691 .0300126
706.427 .0299897
707.162 .0299661
707.897 .0299417
708.632 .0299167
709.367 .0298921
710.101 .0298679
710.835 .0298440
711.569 .0298208
712.303 .0297982
713.037 .0297762
713.770 .0297545
714.503 .0297333
715.236 .0297125
715.969 .0296924
716.702 .0296732
717.434 .0296544
718.166 .0296361
718.898 .0296188
719.629 .0296014
720.361 .0295845
721.092 .0295677
721.823 .0295508
722.554 .0295338
723.284 .0295169
724.014 .0294995
724.744 .0294813
725.474 .0294622
726.204 .0294427
726.933 .0294223
727.662 .0294009
728.391 .0293786
729.120 .0293564
729.849 .0293347
730.577 .0293138
731.305 .0292938
732.033 .0292753
732.760 .0292573
733.488 .0292394
734.215 .0292208
734.942 .0292015
735.669 .0291814
736.395 .0291607
737.122 .0291396
737.848 .0291187
738.573 .0290980
739.299 .0290784
740.024 .0290600
740.750 .0290427
741.474 .0290259
742.199 .0290096
742.924 .0289934
743.648 .0289771
744.372 .0289609
745.096 .0289452
745.819 .0289301
746.543 .0289155
747.266 .0289015
747.989 .0288880
748.711 .0288755
749.434 .0288631
750.156 .0288510
750.878 .0288398
751.599 .0288291
752.321 .0288188
753.042 .0288088
753.763 .0287993
754.484 .0287901
755.205 .0287809
755.925 .0287715
756.645 .0287617
757.365 .0287517
758.085 .0287411
758.804 .0287298
759.523 .0287178
760.242 .0287051
760.961 .0286909
761.679 .0286762
762.397 .0286604
763.115 .0286431
763.833 .0286251
764.551 .0286066
765.268 .0285881
765.985 .0285695
766.702 .0285511
767.418 .0285330
768.134 .0285153
768.850 .0284986
769.566 .0284818
770.282 .0284664
770.997 .0284521
771.712 .0284388
772.427 .0284262
773.142 .0284147
773.856 .0284037
774.570 .0283936
775.284 .0283840
775.998 .0283745
776.711 .0283654
777.424 .0283561
778.137 .0283462
778.849 .0283358
779.562 .0283243
780.274 .0283120
780.986 .0282982
781.697 .0282840
782.409 .0282692
783.120 .0282548
783.831 .0282413
784.541 .0282293
785.252 .0282188
785.962 .0282095
786.671 .0282014
787.381 .0281938
788.090 .0281866
788.799 .0281791
789.508 .0281710
790.217 .0281624
790.925 .0281531
791.633 .0281436
792.341 .0281332
793.048 .0281227
793.755 .0281114
794.462 .0280994
795.169 .0280868
795.875 .0280735
796.581 .0280599
797.287 .0280461
797.993 .0280321
798.698 .0280180
799.403 .0280036
800.108 .0279888
800.812 .0279736
801.517 .0279581
802.221 .0279423
802.924 .0279264
803.628 .0279111
804.331 .0278971
805.034 .0278842
805.736 .0278725
806.439 .0278617
807.141 .0278509
807.843 .0278398
808.544 .0278273
809.245 .0278132
809.946 .0277972
810.647 .0277796
811.347 .0277610
812.047 .0277424
812.747 .0277249
813.447 .0277087
814.146 .0276945
814.845 .0276820
815.543 .0276706
816.242 .0276599
816.940 .0276494
817.638 .0276385
818.335 .0276275
819.032 .0276165
819.729 .0276057
820.426 .0275953
821.122 .0275857
821.818 .0275765
822.514 .0275675
823.209 .0275581
823.905 .0275476
824.599 .0275351
825.294 .0275211
825.988 .0275052
826.682 .0274877
827.376 .0274692
828.069 .0274500
828.762 .0274300
829.455 .0274100
830.147 .0273899
830.840 .0273699
831.531 .0273505
832.223 .0273323
832.914 .0273148
833.605 .0272990
834.296 .0272848
834.986 .0272724
835.676 .0272618
836.366 .0272524
837.055 .0272433
837.744 .0272346
838.433 .0272255
839.121 .0272156
839.809 .0272050
840.497 .0271945
841.185 .0271837
841.872 .0271725
842.559 .0271614
843.245 .0271502
843.932 .0271388
844.617 .0271272
845.303 .0271147
845.988 .0271017
846.673 .0270882
847.358 .0270743
848.042 .0270604
848.726 .0270469
849.410 .0270339
850.093 .0270213
850.776 .0270094
851.459 .0269975
852.141 .0269853
852.823 .0269727
853.505 .0269601
854.186 .0269468
854.867 .0269335
855.548 .0269203
856.228 .0269078
856.908 .0268962
857.588 .0268855
858.267 .0268754
858.946 .0268653
859.625 .0268548
860.303 .0268437
860.981 .0268316
861.659 .0268187
862.336 .0268047
863.013 .0267903
863.690 .0267758
864.366 .0267613
865.042 .0267469
865.718 .0267329
866.393 .0267191
867.068 .0267047
867.743 .0266895
868.417 .0266734
869.091 .0266563
869.765 .0266387
870.438 .0266210
871.111 .0266036
871.783 .0265867
872.456 .0265707
873.127 .0265557
873.799 .0265416
874.470 .0265283
875.141 .0265151
875.811 .0265023
876.481 .0264898
877.151 .0264773
877.820 .0264648
878.489 .0264525
879.158 .0264404
879.826 .0264285
880.494 .0264167
881.162 .0264045
881.829 .0263924
882.496 .0263802
883.163 .0263681
883.829 .0263562
884.495 .0263449
885.160 .0263348
885.825 .0263257
886.490 .0263182
887.154 .0263116
887.818 .0263061
888.482 .0263016
889.145 .0262974
889.808 .0262942
890.471 .0262914
891.133 .0262896
891.795 .0262887
892.456 .0262883
893.117 .0262887
893.778 .0262894
894.439 .0262904
895.099 .0262912
895.758 .0262910
896.417 .0262904
897.076 .0262890
897.735 .0262871
898.393 .0262849
899.051 .0262820
899.708 .0262783
900.365 .0262734
901.022 .0262671
901.678 .0262593
902.334 .0262500
902.990 .0262396
903.645 .0262283
904.300 .0262164
904.954 .0262044
905.608 .0261919
906.262 .0261798
906.915 .0261683
907.568 .0261564
908.221 .0261447
908.873 .0261331
909.525 .0261215
910.176 .0261099
910.828 .0260983
911.478 .0260877
912.129 .0260773
912.778 .0260674
913.428 .0260574
914.077 .0260475
914.726 .0260378
915.375 .0260275
916.023 .0260170
916.670 .0260070
917.318 .0259967
917.964 .0259864
918.611 .0259763
919.257 .0259666
919.903 .0259570
920.548 .0259481
921.193 .0259398
921.838 .0259325
922.482 .0259261
923.126 .0259206
923.770 .0259156
924.413 .0259118
925.056 .0259077
925.698 .0259032
926.340 .0258984
926.982 .0258932
927.623 .0258868
928.264 .0258802
928.904 .0258730
929.544 .0258650
930.184 .0258555
930.823 .0258441
931.462 .0258301
932.101 .0258144
932.739 .0257965
933.377 .0257766
934.014 .0257557
934.651 .0257351
935.288 .0257147
935.924 .0256959
936.560 .0256788
937.196 .0256631
937.831 .0256487
938.466 .0256351
939.100 .0256215
939.734 .0256086
940.368 .0255963
941.001 .0255848
941.634 .0255741
942.266 .0255645
942.899 .0255554
943.530 .0255467
944.162 .0255376
944.793 .0255273
945.423 .0255147
946.053 .0254995
946.683 .0254817
947.313 .0254617
947.942 .0254402
948.571 .0254177
949.199 .0253948
949.827 .0253718
950.455 .0253489
951.082 .0253264
951.709 .0253045
952.335 .0252835
952.961 .0252632
953.587 .0252440
954.212 .0252263
954.837 .0252105
955.462 .0251969
956.086 .0251856
956.710 .0251767
957.334 .0251697
957.957 .0251638
958.579 .0251585
959.202 .0251534
959.824 .0251483
960.445 .0251426
961.067 .0251360
961.688 .0251286
962.308 .0251203
962.928 .0251113
963.548 .0251013
964.168 .0250901
964.787 .0250778
965.406 .0250644
966.024 .0250502
966.642 .0250351
967.260 .0250196
967.877 .0250040
968.494 .0249886
969.110 .0249737
969.727 .0249586
970.342 .0249440
970.958 .0249303
971.573 .0249173
972.188 .0249052
972.802 .0248940
973.416 .0248842
974.030 .0248759
974.643 .0248689
975.256 .0248628
975.869 .0248570
976.481 .0248514
977.093 .0248458
977.705 .0248402
978.316 .0248344
978.927 .0248286
979.538 .0248226
980.148 .0248163
980.758 .0248090
981.367 .0248008
981.977 .0247920
982.586 .0247826
983.194 .0247730
983.802 .0247636
984.410 .0247543
985.018 .0247465
985.625 .0247397
986.232 .0247345
986.838 .0247300
987.445 .0247257
988.050 .0247206
988.656 .0247148
989.261 .0247082
989.866 .0247006
990.471 .0246930
991.075 .0246863
991.679 .0246802
992.282 .0246750
992.886 .0246704
993.489 .0246664
994.091 .0246622
994.694 .0246571
995.296 .0246502
995.897 .0246420
996.499 .0246325
997.100 .0246225
997.701 .0246132
998.301 .0246056
998.901 .0246005
999.501 .0245974
1000.101 .0245964
1000.700 .0245978
1001.299 .0245998
1001.898 .0246020
1002.496 .0246042
1003.094 .0246062
1003.692 .0246076
1004.289 .0246084
1004.887 .0246098
1005.484 .0246117
1006.080 .0246139
1006.677 .0246163
1007.273 .0246181
1007.868 .0246195
1008.464 .0246196
1009.059 .0246176
1009.654 .0246143
1010.249 .0246104
1010.843 .0246053
1011.437 .0245998
1012.031 .0245949
1012.625 .0245906
1013.218 .0245862
1013.811 .0245827
1014.404 .0245798
1014.997 .0245778
1015.589 .0245764
1016.181 .0245768
1016.773 .0245783
1017.365 .0245818
1017.956 .0245863
1018.547 .0245913
1019.138 .0245967
1019.728 .0246020
1020.319 .0246061
1020.909 .0246095
1021.499 .0246123
1022.088 .0246147
1022.678 .0246161
1023.267 .0246176
1023.856 .0246180
1024.445 .0246171
1025.033 .0246143
1025.621 .0246100
1026.209 .0246026
1026.797 .0245928
1027.385 .0245812
1027.972 .0245687
1028.560 .0245568
1029.147 .0245457
1029.734 .0245368
1030.320 .0245303
1030.907 .0245256
1031.493 .0245228
1032.079 .0245206
1032.665 .0245199
1033.250 .0245202
1033.836 .0245212
1034.421 .0245233
1035.006 .0245269
1035.591 .0245322
1036.176 .0245389
1036.761 .0245473
1037.345 .0245563
1037.929 .0245644
1038.514 .0245720
1039.097 .0245785
1039.681 .0245829
1040.265 .0245851
1040.848 .0245855
1041.432 .0245838
1042.015 .0245802
1042.598 .0245741
1043.181 .0245667
1043.764 .0245587
1044.346 .0245512
1044.929 .0245435
1045.511 .0245359
1046.094 .0245288
1046.676 .0245226
1047.258 .0245169
1047.840 .0245119
1048.422 .0245080
1049.003 .0245054
1049.585 .0245042
1050.166 .0245046
1050.748 .0245060
1051.329 .0245086
1051.910 .0245121
1052.491 .0245160
1053.072 .0245179
1053.653 .0245180
1054.234 .0245159
1054.815 .0245111
1055.396 .0245040
1055.976 .0244953
1056.557 .0244854
1057.138 .0244743
1057.718 .0244620
1058.298 .0244486
1058.879 .0244337
1059.459 .0244176
1060.039 .0244001
1060.620 .0243811
1061.200 .0243611
1061.780 .0243410
1062.360 .0243210
1062.940 .0243037
1063.520 .0242886
1064.101 .0242758
1064.681 .0242653
1065.261 .0242573
1065.841 .0242510
1066.421 .0242451
1067.001 .0242407
1067.581 .0242374
1068.161 .0242332
1068.741 .0242278
1069.321 .0242211
1069.901 .0242149
1070.482 .0242096
1071.062 .0242053
1071.642 .0242027
1072.222 .0242028
1072.803 .0242047
1073.383 .0242074
1073.963 .0242102
1074.544 .0242139
1075.124 .0242166
1075.705 .0242173
1076.286 .0242168
1076.866 .0242154
1077.447 .0242140
1078.028 .0242141
1078.609 .0242169
1079.190 .0242228
1079.771 .0242303
1080.352 .0242395
1080.934 .0242489
1081.515 .0242570
1082.097 .0242641
1082.679 .0242673
1083.260 .0242677
1083.842 .0242657
1084.424 .0242614
1085.007 .0242567
1085.589 .0242528
1086.172 .0242495
1086.754 .0242470
1087.337 .0242452
1087.920 .0242439
1088.503 .0242405
1089.087 .0242357
1089.670 .0242297
1090.254 .0242219
1090.838 .0242144
1091.422 .0242072
1092.006 .0242016
1092.590 .0242001
1093.175 .0242012
1093.760 .0242045
1094.345 .0242083
1094.930 .0242120
1095.516 .0242140
1096.102 .0242133
1096.688 .0242106
1097.274 .0242049
1097.860 .0241999
1098.447 .0241955
1099.034 .0241925
1099.622 .0241911
1100.209 .0241911
1100.797 .0241909
1101.385 .0241897
1101.973 .0241874
1102.562 .0241835
1103.151 .0241785
1103.740 .0241716
1104.330 .0241639
1104.920 .0241540
1105.510 .0241433
1106.101 .0241324
1106.691 .0241206
1107.283 .0241098
1107.874 .0240968
1108.466 .0240825
1109.058 .0240671
1109.651 .0240529
1110.244 .0240388
1110.837 .0240235
1111.431 .0240111
1112.025 .0239986
1112.620 .0239874
1113.215 .0239792
1113.810 .0239751
1114.406 .0239752
1115.002 .0239790
1115.599 .0239856
1116.196 .0239918
1116.793 .0239973
1117.391 .0240005
1117.989 .0240019
1118.588 .0240059
1119.187 .0240085
1119.787 .0240098
1120.387 .0240157
1120.988 .0240275
1121.589 .0240429
1122.190 .0240600
1122.793 .0240791
1123.395 .0240993
1123.998 .0241191
1124.602 .0241389
1125.206 .0241576
1125.811 .0241815
1126.416 .0242102
1127.022 .0242436
1127.628 .0242806
1128.235 .0243187
1128.843 .0243564
1129.451 .0243951
1130.059 .0244305
1130.669 .0244628
1131.278 .0244939
1131.889 .0245268
1132.500 .0245619
1133.112 .0245997
1133.724 .0246369
1134.337 .0246769
1134.950 .0247168
1135.564 .0247579
1136.179 .0247964
1136.795 .0248370
1137.411 .0248792
1138.028 .0249268
1138.645 .0249841
1139.263 .0250517
1139.882 .0251214
1140.502 .0252001
1141.122 .0252899
1141.743 .0253955
1142.365 .0254879
1142.987 .0254431
1143.611 .0256426
1144.235 .0259073
1144.859 .0262116
1145.485 .0256857
