Measurement Sequence started on: 10-20-44-796
Integration time: 35
Scans to Average: 2 
>>>>>Begin Spectral Data<<<<<
432.953 .0338272
433.882 .0392497
434.810 .0362012
435.737 .0319743
436.662 .0321141
437.586 .0336358
438.509 .0334029
439.431 .0331057
440.351 .0329525
441.269 .0329121
442.187 .0328500
443.103 .0327606
444.018 .0327144
444.932 .0327063
445.844 .0327201
446.756 .0327494
447.666 .0327744
448.575 .0328064
449.482 .0328187
450.388 .0328200
451.294 .0328083
452.198 .0327909
453.100 .0327765
454.002 .0327768
454.902 .0327833
455.801 .0327959
456.699 .0328042
457.596 .0328138
458.492 .0328093
459.387 .0327984
460.280 .0327732
461.172 .0327300
462.064 .0326741
462.954 .0326054
463.843 .0325188
464.730 .0324271
465.617 .0323350
466.503 .0322473
467.387 .0321673
468.271 .0320946
469.153 .0320298
470.035 .0319721
470.915 .0319240
471.794 .0318828
472.673 .0318438
473.550 .0318127
474.426 .0317865
475.301 .0317640
476.175 .0317467
477.048 .0317335
477.920 .0317268
478.791 .0317269
479.661 .0317305
480.530 .0317354
481.398 .0317406
482.266 .0317447
483.132 .0317480
483.997 .0317447
484.861 .0317384
485.724 .0317269
486.587 .0317115
487.448 .0316934
488.308 .0316747
489.168 .0316548
490.026 .0316397
490.884 .0316279
491.741 .0316179
492.597 .0316068
493.452 .0315951
494.306 .0315793
495.159 .0315564
496.011 .0315242
496.862 .0314839
497.713 .0314349
498.562 .0313858
499.411 .0313331
500.259 .0312804
501.106 .0312288
501.952 .0311778
502.798 .0311232
503.642 .0310658
504.486 .0309994
505.329 .0309271
506.171 .0308496
507.012 .0307693
507.852 .0306854
508.692 .0305999
509.531 .0305163
510.369 .0304333
511.206 .0303481
512.043 .0302558
512.878 .0301480
513.713 .0300288
514.547 .0298944
515.381 .0297468
516.213 .0295867
517.045 .0294189
517.876 .0292473
518.706 .0290718
519.536 .0288932
520.365 .0287102
521.193 .0285202
522.020 .0283287
522.847 .0281274
523.673 .0279175
524.498 .0276962
525.323 .0274665
526.146 .0272309
526.969 .0269981
527.792 .0267634
528.614 .0265289
529.435 .0263003
530.255 .0260874
531.075 .0258796
531.894 .0256825
532.712 .0254966
533.530 .0253197
534.347 .0251534
535.163 .0249933
535.979 .0248443
536.794 .0247212
537.608 .0246286
538.422 .0245752
539.235 .0245624
540.048 .0245939
540.860 .0246611
541.671 .0247548
542.481 .0248725
543.292 .0249980
544.101 .0251232
544.910 .0252443
545.718 .0253600
546.526 .0254706
547.333 .0255762
548.139 .0256776
548.945 .0257835
549.750 .0258878
550.555 .0259901
551.359 .0260800
552.162 .0261601
552.965 .0262318
553.768 .0262901
554.569 .0263371
555.371 .0263777
556.171 .0264106
556.972 .0264430
557.771 .0264704
558.570 .0264992
559.369 .0265272
560.167 .0265583
560.964 .0265910
561.761 .0266287
562.558 .0266746
563.354 .0267297
564.149 .0267917
564.944 .0268648
565.738 .0269445
566.532 .0270281
567.325 .0271132
568.118 .0271961
568.910 .0272783
569.702 .0273616
570.494 .0274457
571.285 .0275345
572.075 .0276298
572.865 .0277304
573.654 .0278327
574.443 .0279357
575.232 .0280380
576.020 .0281364
576.807 .0282298
577.594 .0283181
578.381 .0284007
579.167 .0284796
579.952 .0285568
580.738 .0286326
581.522 .0287097
582.307 .0287853
583.091 .0288584
583.874 .0289262
584.657 .0289874
585.440 .0290408
586.222 .0290846
587.004 .0291208
587.785 .0291499
588.566 .0291728
589.346 .0291913
590.126 .0292060
590.906 .0292174
591.685 .0292269
592.464 .0292341
593.242 .0292393
594.020 .0292425
594.797 .0292444
595.575 .0292453
596.351 .0292462
597.128 .0292474
597.904 .0292488
598.679 .0292508
599.454 .0292538
600.229 .0292563
601.004 .0292583
601.778 .0292581
602.551 .0292567
603.325 .0292535
604.097 .0292483
604.870 .0292401
605.642 .0292303
606.414 .0292191
607.185 .0292062
607.956 .0291930
608.727 .0291795
609.497 .0291655
610.267 .0291518
611.037 .0291374
611.806 .0291223
612.575 .0291074
613.344 .0290929
614.112 .0290787
614.880 .0290657
615.647 .0290533
616.414 .0290414
617.181 .0290304
617.948 .0290198
618.714 .0290084
619.480 .0289960
620.245 .0289829
621.011 .0289682
621.775 .0289525
622.540 .0289358
623.304 .0289180
624.068 .0289006
624.832 .0288822
625.595 .0288635
626.358 .0288445
627.120 .0288243
627.883 .0288024
628.645 .0287790
629.406 .0287540
630.168 .0287274
630.929 .0287008
631.689 .0286750
632.450 .0286495
633.210 .0286259
633.970 .0286031
634.729 .0285816
635.489 .0285617
636.248 .0285418
637.006 .0285207
637.765 .0284992
638.523 .0284761
639.280 .0284514
640.038 .0284262
640.795 .0284021
641.552 .0283788
642.309 .0283578
643.065 .0283390
643.821 .0283219
644.577 .0283064
645.332 .0282920
646.088 .0282771
646.843 .0282621
647.597 .0282456
648.352 .0282279
649.106 .0282104
649.860 .0281942
650.613 .0281794
651.367 .0281667
652.120 .0281566
652.872 .0281487
653.625 .0281417
654.377 .0281356
655.129 .0281293
655.881 .0281225
656.632 .0281151
657.384 .0281069
658.135 .0280987
658.885 .0280910
659.636 .0280837
660.386 .0280778
661.136 .0280722
661.885 .0280673
662.635 .0280621
663.384 .0280565
664.133 .0280502
664.881 .0280423
665.630 .0280333
666.378 .0280237
667.126 .0280137
667.874 .0280038
668.621 .0279938
669.368 .0279839
670.115 .0279732
670.862 .0279619
671.608 .0279500
672.354 .0279377
673.100 .0279247
673.846 .0279117
674.591 .0278987
675.337 .0278861
676.082 .0278746
676.826 .0278640
677.571 .0278543
678.315 .0278453
679.059 .0278365
679.803 .0278279
680.547 .0278192
681.290 .0278106
682.033 .0278018
682.776 .0277928
683.518 .0277834
684.261 .0277735
685.003 .0277631
685.745 .0277527
686.487 .0277417
687.228 .0277303
687.969 .0277183
688.710 .0277060
689.451 .0276931
690.192 .0276802
690.932 .0276664
691.672 .0276518
692.412 .0276360
693.152 .0276198
693.891 .0276031
694.630 .0275862
695.369 .0275697
696.108 .0275537
696.846 .0275381
697.585 .0275228
698.323 .0275070
699.061 .0274916
699.798 .0274758
700.536 .0274594
701.273 .0274419
702.010 .0274240
702.746 .0274056
703.483 .0273875
704.219 .0273695
704.955 .0273517
705.691 .0273338
706.427 .0273156
707.162 .0272974
707.897 .0272794
708.632 .0272615
709.367 .0272438
710.101 .0272262
710.835 .0272090
711.569 .0271916
712.303 .0271740
713.037 .0271564
713.770 .0271393
714.503 .0271216
715.236 .0271036
715.969 .0270850
716.702 .0270665
717.434 .0270476
718.166 .0270285
718.898 .0270092
719.629 .0269896
720.361 .0269700
721.092 .0269504
721.823 .0269306
722.554 .0269111
723.284 .0268913
724.014 .0268713
724.744 .0268505
725.474 .0268293
726.204 .0268068
726.933 .0267837
727.662 .0267604
728.391 .0267378
729.120 .0267157
729.849 .0266946
730.577 .0266749
731.305 .0266563
732.033 .0266385
732.760 .0266203
733.488 .0266014
734.215 .0265818
734.942 .0265612
735.669 .0265395
736.395 .0265172
737.122 .0264953
737.848 .0264741
738.573 .0264536
739.299 .0264340
740.024 .0264152
740.750 .0263966
741.474 .0263779
742.199 .0263594
742.924 .0263407
743.648 .0263222
744.372 .0263043
745.096 .0262882
745.819 .0262735
746.543 .0262607
747.266 .0262500
747.989 .0262412
748.711 .0262342
749.434 .0262278
750.156 .0262219
750.878 .0262169
751.599 .0262130
752.321 .0262094
753.042 .0262065
753.763 .0262047
754.484 .0262035
755.205 .0262024
755.925 .0262012
756.645 .0261992
757.365 .0261960
758.085 .0261910
758.804 .0261842
759.523 .0261754
760.242 .0261651
760.961 .0261536
761.679 .0261414
762.397 .0261285
763.115 .0261146
763.833 .0260994
764.551 .0260834
765.268 .0260661
765.985 .0260475
766.702 .0260282
767.418 .0260087
768.134 .0259891
768.850 .0259701
769.566 .0259518
770.282 .0259349
770.997 .0259192
771.712 .0259041
772.427 .0258893
773.142 .0258749
773.856 .0258607
774.570 .0258469
775.284 .0258336
775.998 .0258212
776.711 .0258096
777.424 .0257992
778.137 .0257894
778.849 .0257799
779.562 .0257706
780.274 .0257608
780.986 .0257502
781.697 .0257388
782.409 .0257267
783.120 .0257144
783.831 .0257029
784.541 .0256924
785.252 .0256828
785.962 .0256747
786.671 .0256678
787.381 .0256613
788.090 .0256551
788.799 .0256489
789.508 .0256420
790.217 .0256348
790.925 .0256272
791.633 .0256193
792.341 .0256114
793.048 .0256039
793.755 .0255965
794.462 .0255892
795.169 .0255817
795.875 .0255736
796.581 .0255648
797.287 .0255554
797.993 .0255446
798.698 .0255329
799.403 .0255209
800.108 .0255086
800.812 .0254963
801.517 .0254842
802.221 .0254726
802.924 .0254612
803.628 .0254502
804.331 .0254397
805.034 .0254291
805.736 .0254186
806.439 .0254082
807.141 .0253980
807.843 .0253881
808.544 .0253788
809.245 .0253699
809.946 .0253612
810.647 .0253529
811.347 .0253449
812.047 .0253367
812.747 .0253287
813.447 .0253206
814.146 .0253120
814.845 .0253034
815.543 .0252946
816.242 .0252853
816.940 .0252756
817.638 .0252657
818.335 .0252551
819.032 .0252436
819.729 .0252312
820.426 .0252180
821.122 .0252037
821.818 .0251883
822.514 .0251718
823.209 .0251543
823.905 .0251362
824.599 .0251171
825.294 .0250972
825.988 .0250767
826.682 .0250560
827.376 .0250355
828.069 .0250150
828.762 .0249954
829.455 .0249767
830.147 .0249588
830.840 .0249423
831.531 .0249267
832.223 .0249124
832.914 .0248986
833.605 .0248859
834.296 .0248741
834.986 .0248626
835.676 .0248519
836.366 .0248418
837.055 .0248323
837.744 .0248230
838.433 .0248134
839.121 .0248033
839.809 .0247926
840.497 .0247812
841.185 .0247684
841.872 .0247546
842.559 .0247404
843.245 .0247256
843.932 .0247102
844.617 .0246950
845.303 .0246796
845.988 .0246642
846.673 .0246491
847.358 .0246341
848.042 .0246195
848.726 .0246057
849.410 .0245927
850.093 .0245806
850.776 .0245696
851.459 .0245597
852.141 .0245502
852.823 .0245418
853.505 .0245343
854.186 .0245270
854.867 .0245201
855.548 .0245132
856.228 .0245064
856.908 .0244999
857.588 .0244933
858.267 .0244866
858.946 .0244794
859.625 .0244715
860.303 .0244627
860.981 .0244526
861.659 .0244416
862.336 .0244294
863.013 .0244163
863.690 .0244024
864.366 .0243882
865.042 .0243737
865.718 .0243592
866.393 .0243454
867.068 .0243323
867.743 .0243193
868.417 .0243066
869.091 .0242940
869.765 .0242816
870.438 .0242697
871.111 .0242581
871.783 .0242472
872.456 .0242373
873.127 .0242280
873.799 .0242190
874.470 .0242100
875.141 .0242016
875.811 .0241926
876.481 .0241829
877.151 .0241729
877.820 .0241622
878.489 .0241513
879.158 .0241402
879.826 .0241291
880.494 .0241182
881.162 .0241070
881.829 .0240954
882.496 .0240829
883.163 .0240700
883.829 .0240567
884.495 .0240434
885.160 .0240305
885.825 .0240188
886.490 .0240079
887.154 .0239985
887.818 .0239904
888.482 .0239834
889.145 .0239769
889.808 .0239709
890.471 .0239654
891.133 .0239601
891.795 .0239549
892.456 .0239503
893.117 .0239465
893.778 .0239439
894.439 .0239416
895.099 .0239395
895.758 .0239377
896.417 .0239356
897.076 .0239328
897.735 .0239287
898.393 .0239234
899.051 .0239172
899.708 .0239100
900.365 .0239018
901.022 .0238930
901.678 .0238842
902.334 .0238760
902.990 .0238679
903.645 .0238602
904.300 .0238527
904.954 .0238456
905.608 .0238385
906.262 .0238313
906.915 .0238240
907.568 .0238167
908.221 .0238096
908.873 .0238031
909.525 .0237970
910.176 .0237914
910.828 .0237864
911.478 .0237817
912.129 .0237771
912.778 .0237721
913.428 .0237664
914.077 .0237605
914.726 .0237544
915.375 .0237483
916.023 .0237421
916.670 .0237364
917.318 .0237310
917.964 .0237258
918.611 .0237203
919.257 .0237150
919.903 .0237097
920.548 .0237046
921.193 .0236998
921.838 .0236956
922.482 .0236925
923.126 .0236899
923.770 .0236883
924.413 .0236868
925.056 .0236852
925.698 .0236830
926.340 .0236797
926.982 .0236760
927.623 .0236715
928.264 .0236665
928.904 .0236613
929.544 .0236561
930.184 .0236511
930.823 .0236455
931.462 .0236397
932.101 .0236329
932.739 .0236252
933.377 .0236158
934.014 .0236049
934.651 .0235928
935.288 .0235800
935.924 .0235665
936.560 .0235529
937.196 .0235396
937.831 .0235261
938.466 .0235127
939.100 .0234995
939.734 .0234862
940.368 .0234728
941.001 .0234596
941.634 .0234470
942.266 .0234347
942.899 .0234229
943.530 .0234113
944.162 .0233997
944.793 .0233880
945.423 .0233749
946.053 .0233605
946.683 .0233454
947.313 .0233293
947.942 .0233119
948.571 .0232941
949.199 .0232762
949.827 .0232580
950.455 .0232395
951.082 .0232211
951.709 .0232024
952.335 .0231835
952.961 .0231646
953.587 .0231457
954.212 .0231271
954.837 .0231092
955.462 .0230921
956.086 .0230769
956.710 .0230635
957.334 .0230516
957.957 .0230410
958.579 .0230322
959.202 .0230238
959.824 .0230153
960.445 .0230068
961.067 .0229984
961.688 .0229900
962.308 .0229819
962.928 .0229741
963.548 .0229670
964.168 .0229602
964.787 .0229531
965.406 .0229456
966.024 .0229381
966.642 .0229297
967.260 .0229206
967.877 .0229113
968.494 .0229018
969.110 .0228923
969.727 .0228830
970.342 .0228733
970.958 .0228638
971.573 .0228544
972.188 .0228442
972.802 .0228340
973.416 .0228241
974.030 .0228143
974.643 .0228051
975.256 .0227966
975.869 .0227891
976.481 .0227826
977.093 .0227774
977.705 .0227729
978.316 .0227689
978.927 .0227657
979.538 .0227623
980.148 .0227590
980.758 .0227564
981.367 .0227533
981.977 .0227500
982.586 .0227469
983.194 .0227435
983.802 .0227392
984.410 .0227343
985.018 .0227288
985.625 .0227227
986.232 .0227162
986.838 .0227092
987.445 .0227014
988.050 .0226940
988.656 .0226866
989.261 .0226792
989.866 .0226719
990.471 .0226652
991.075 .0226583
991.679 .0226518
992.282 .0226458
992.886 .0226405
993.489 .0226354
994.091 .0226308
994.694 .0226259
995.296 .0226206
995.897 .0226152
996.499 .0226094
997.100 .0226028
997.701 .0225961
998.301 .0225890
998.901 .0225819
999.501 .0225746
1000.101 .0225677
1000.700 .0225612
1001.299 .0225555
1001.898 .0225502
1002.496 .0225448
1003.094 .0225394
1003.692 .0225346
1004.289 .0225297
1004.887 .0225254
1005.484 .0225215
1006.080 .0225181
1006.677 .0225154
1007.273 .0225139
1007.868 .0225129
1008.464 .0225132
1009.059 .0225137
1009.654 .0225153
1010.249 .0225171
1010.843 .0225190
1011.437 .0225205
1012.031 .0225217
1012.625 .0225231
1013.218 .0225240
1013.811 .0225237
1014.404 .0225234
1014.997 .0225233
1015.589 .0225238
1016.181 .0225244
1016.773 .0225256
1017.365 .0225269
1017.956 .0225281
1018.547 .0225280
1019.138 .0225269
1019.728 .0225241
1020.319 .0225202
1020.909 .0225152
1021.499 .0225091
1022.088 .0225033
1022.678 .0224978
1023.267 .0224939
1023.856 .0224919
1024.445 .0224913
1025.033 .0224916
1025.621 .0224924
1026.209 .0224937
1026.797 .0224944
1027.385 .0224947
1027.972 .0224955
1028.560 .0224964
1029.147 .0224980
1029.734 .0225006
1030.320 .0225044
1030.907 .0225093
1031.493 .0225154
1032.079 .0225214
1032.665 .0225274
1033.250 .0225325
1033.836 .0225364
1034.421 .0225390
1035.006 .0225409
1035.591 .0225418
1036.176 .0225412
1036.761 .0225396
1037.345 .0225371
1037.929 .0225326
1038.514 .0225272
1039.097 .0225206
1039.681 .0225138
1040.265 .0225069
1040.848 .0225003
1041.432 .0224943
1042.015 .0224895
1042.598 .0224859
1043.181 .0224834
1043.764 .0224816
1044.346 .0224809
1044.929 .0224803
1045.511 .0224801
1046.094 .0224807
1046.676 .0224823
1047.258 .0224844
1047.840 .0224879
1048.422 .0224917
1049.003 .0224954
1049.585 .0224986
1050.166 .0225003
1050.748 .0225000
1051.329 .0224988
1051.910 .0224949
1052.491 .0224889
1053.072 .0224816
1053.653 .0224735
1054.234 .0224653
1054.815 .0224578
1055.396 .0224520
1055.976 .0224483
1056.557 .0224471
1057.138 .0224486
1057.718 .0224509
1058.298 .0224558
1058.879 .0224619
1059.459 .0224679
1060.039 .0224746
1060.620 .0224806
1061.200 .0224857
1061.780 .0224911
1062.360 .0224955
1062.940 .0224995
1063.520 .0225028
1064.101 .0225045
1064.681 .0225031
1065.261 .0224989
1065.841 .0224916
1066.421 .0224814
1067.001 .0224684
1067.581 .0224542
1068.161 .0224387
1068.741 .0224251
1069.321 .0224127
1069.901 .0224018
1070.482 .0223942
1071.062 .0223876
1071.642 .0223809
1072.222 .0223758
1072.803 .0223692
1073.383 .0223623
1073.963 .0223558
1074.544 .0223494
1075.124 .0223420
1075.705 .0223351
1076.286 .0223279
1076.866 .0223195
1077.447 .0223113
1078.028 .0223014
1078.609 .0222878
1079.190 .0222731
1079.771 .0222570
1080.352 .0222385
1080.934 .0222211
1081.515 .0222050
1082.097 .0221902
1082.679 .0221791
1083.260 .0221715
1083.842 .0221666
1084.424 .0221645
1085.007 .0221658
1085.589 .0221670
1086.172 .0221684
1086.754 .0221705
1087.337 .0221719
1087.920 .0221764
1088.503 .0221835
1089.087 .0221920
1089.670 .0222031
1090.254 .0222175
1090.838 .0222324
1091.422 .0222472
1092.006 .0222617
1092.590 .0222732
1093.175 .0222812
1093.760 .0222862
1094.345 .0222875
1094.930 .0222858
1095.516 .0222844
1096.102 .0222816
1096.688 .0222784
1097.274 .0222755
1097.860 .0222687
1098.447 .0222599
1099.034 .0222498
1099.622 .0222376
1100.209 .0222235
1100.797 .0222112
1101.385 .0222026
1101.973 .0221969
1102.562 .0221962
1103.151 .0221991
1103.740 .0222044
1104.330 .0222123
1104.920 .0222205
1105.510 .0222263
1106.101 .0222319
1106.691 .0222381
1107.283 .0222432
1107.874 .0222491
1108.466 .0222564
1109.058 .0222631
1109.651 .0222700
1110.244 .0222763
1110.837 .0222796
1111.431 .0222767
1112.025 .0222699
1112.620 .0222592
1113.215 .0222428
1113.810 .0222219
1114.406 .0221976
1115.002 .0221692
1115.599 .0221399
1116.196 .0221076
1116.793 .0220713
1117.391 .0220370
1117.989 .0220071
1118.588 .0219812
1119.187 .0219607
1119.787 .0219485
1120.387 .0219448
1120.988 .0219482
1121.589 .0219593
1122.190 .0219742
1122.793 .0219908
1123.395 .0220121
1123.998 .0220346
1124.602 .0220626
1125.206 .0220977
1125.811 .0221397
1126.416 .0221888
1127.022 .0222443
1127.628 .0223007
1128.235 .0223545
1128.843 .0224029
1129.451 .0224483
1130.059 .0224831
1130.669 .0225095
1131.278 .0225294
1131.889 .0225459
1132.500 .0225636
1133.112 .0225817
1133.724 .0226014
1134.337 .0226255
1134.950 .0226519
1135.564 .0226786
1136.179 .0227046
1136.795 .0227358
1137.411 .0227705
1138.028 .0228084
1138.645 .0228517
1139.263 .0229020
1139.882 .0229562
1140.502 .0230112
1141.122 .0230708
1141.743 .0231284
1142.365 .0231851
1142.987 .0232243
1143.611 .0232205
1144.235 .0234194
1144.859 .0233777
1145.485 .0234226
