Measurement Sequence started on: 10-20-44-796
Integration time: 35
Scans to Average: 2 
>>>>>Begin Spectral Data<<<<<
432.953 .0436450
433.882 .0394514
434.810 .0406917
435.737 .0382117
436.662 .0392542
437.586 .0393484
438.509 .0391154
439.431 .0390271
440.351 .0389231
441.269 .0388976
442.187 .0388561
443.103 .0388378
444.018 .0388328
444.932 .0388430
445.844 .0388624
446.756 .0388663
447.666 .0388449
448.575 .0387885
449.482 .0387205
450.388 .0386438
451.294 .0385630
452.198 .0384876
453.100 .0384279
454.002 .0383815
454.902 .0383430
455.801 .0383041
456.699 .0382733
457.596 .0382476
458.492 .0382232
459.387 .0381986
460.280 .0381744
461.172 .0381519
462.064 .0381317
462.954 .0381050
463.843 .0380755
464.730 .0380411
465.617 .0380031
466.503 .0379626
467.387 .0379263
468.271 .0378981
469.153 .0378777
470.035 .0378651
470.915 .0378604
471.794 .0378554
472.673 .0378441
473.550 .0378250
474.426 .0377982
475.301 .0377659
476.175 .0377290
477.048 .0376880
477.920 .0376498
478.791 .0376177
479.661 .0375914
480.530 .0375732
481.398 .0375607
482.266 .0375525
483.132 .0375428
483.997 .0375297
484.861 .0375127
485.724 .0374954
486.587 .0374769
487.448 .0374574
488.308 .0374372
489.168 .0374169
490.026 .0373912
490.884 .0373579
491.741 .0373175
492.597 .0372679
493.452 .0372063
494.306 .0371343
495.159 .0370502
496.011 .0369592
496.862 .0368636
497.713 .0367626
498.562 .0366589
499.411 .0365536
500.259 .0364421
501.106 .0363257
501.952 .0362091
502.798 .0360958
503.642 .0359857
504.486 .0358827
505.329 .0357897
506.171 .0357064
507.012 .0356316
507.852 .0355621
508.692 .0354947
509.531 .0354290
510.369 .0353574
511.206 .0352748
512.043 .0351839
512.878 .0350841
513.713 .0349748
514.547 .0348557
515.381 .0347292
516.213 .0345951
517.045 .0344489
517.876 .0342924
518.706 .0341294
519.536 .0339587
520.365 .0337879
521.193 .0336168
522.020 .0334504
522.847 .0332874
523.673 .0331246
524.498 .0329652
525.323 .0328110
526.146 .0326552
526.969 .0324975
527.792 .0323384
528.614 .0321818
529.435 .0320273
530.255 .0318808
531.075 .0317424
531.894 .0316120
532.712 .0314905
533.530 .0313735
534.347 .0312545
535.163 .0311433
535.979 .0310398
536.794 .0309467
537.608 .0308747
538.422 .0308197
539.235 .0307861
540.048 .0307748
540.860 .0307812
541.671 .0307943
542.481 .0308101
543.292 .0308252
544.101 .0308267
544.910 .0308202
545.718 .0308060
546.526 .0307827
547.333 .0307659
548.139 .0307535
548.945 .0307472
549.750 .0307465
550.555 .0307540
551.359 .0307656
552.162 .0307802
552.965 .0307968
553.768 .0308101
554.569 .0308240
555.371 .0308410
556.171 .0308588
556.972 .0308835
557.771 .0309170
558.570 .0309588
559.369 .0310050
560.167 .0310556
560.964 .0311090
561.761 .0311635
562.558 .0312128
563.354 .0312609
564.149 .0313098
564.944 .0313556
565.738 .0313993
566.532 .0314428
567.325 .0314876
568.118 .0315324
568.910 .0315764
569.702 .0316243
570.494 .0316777
571.285 .0317371
572.075 .0318019
572.865 .0318695
573.654 .0319430
574.443 .0320163
575.232 .0320875
576.020 .0321575
576.807 .0322250
577.594 .0322901
578.381 .0323535
579.167 .0324157
579.952 .0324803
580.738 .0325442
581.522 .0326065
582.307 .0326657
583.091 .0327217
583.874 .0327711
584.657 .0328132
585.440 .0328494
586.222 .0328808
587.004 .0329058
587.785 .0329280
588.566 .0329466
589.346 .0329622
590.126 .0329751
590.906 .0329835
591.685 .0329873
592.464 .0329878
593.242 .0329857
594.020 .0329814
594.797 .0329768
595.575 .0329729
596.351 .0329695
597.128 .0329671
597.904 .0329646
598.679 .0329600
599.454 .0329527
600.229 .0329418
601.004 .0329271
601.778 .0329088
602.551 .0328888
603.325 .0328675
604.097 .0328464
604.870 .0328255
605.642 .0328047
606.414 .0327825
607.185 .0327589
607.956 .0327334
608.727 .0327061
609.497 .0326763
610.267 .0326443
611.037 .0326102
611.806 .0325755
612.575 .0325406
613.344 .0325061
614.112 .0324708
614.880 .0324359
615.647 .0324002
616.414 .0323637
617.181 .0323261
617.948 .0322883
618.714 .0322501
619.480 .0322127
620.245 .0321758
621.011 .0321393
621.775 .0321036
622.540 .0320694
623.304 .0320360
624.068 .0320040
624.832 .0319720
625.595 .0319407
626.358 .0319098
627.120 .0318806
627.883 .0318514
628.645 .0318229
629.406 .0317950
630.168 .0317669
630.929 .0317387
631.689 .0317104
632.450 .0316812
633.210 .0316522
633.970 .0316234
634.729 .0315946
635.489 .0315655
636.248 .0315370
637.006 .0315090
637.765 .0314821
638.523 .0314565
639.280 .0314325
640.038 .0314102
640.795 .0313912
641.552 .0313753
642.309 .0313620
643.065 .0313516
643.821 .0313427
644.577 .0313337
645.332 .0313244
646.088 .0313132
646.843 .0312997
647.597 .0312843
648.352 .0312676
649.106 .0312498
649.860 .0312306
650.613 .0312113
651.367 .0311908
652.120 .0311702
652.872 .0311484
653.625 .0311249
654.377 .0311009
655.129 .0310765
655.881 .0310523
656.632 .0310295
657.384 .0310091
658.135 .0309914
658.885 .0309760
659.636 .0309635
660.386 .0309528
661.136 .0309437
661.885 .0309357
662.635 .0309288
663.384 .0309231
664.133 .0309184
664.881 .0309141
665.630 .0309104
666.378 .0309077
667.126 .0309041
667.874 .0308996
668.621 .0308940
669.368 .0308865
670.115 .0308774
670.862 .0308661
671.608 .0308533
672.354 .0308392
673.100 .0308240
673.846 .0308077
674.591 .0307902
675.337 .0307725
676.082 .0307542
676.826 .0307357
677.571 .0307175
678.315 .0306992
679.059 .0306812
679.803 .0306633
680.547 .0306454
681.290 .0306271
682.033 .0306084
682.776 .0305893
683.518 .0305698
684.261 .0305502
685.003 .0305301
685.745 .0305098
686.487 .0304896
687.228 .0304699
687.969 .0304501
688.710 .0304304
689.451 .0304105
690.192 .0303899
690.932 .0303679
691.672 .0303440
692.412 .0303182
693.152 .0302910
693.891 .0302626
694.630 .0302339
695.369 .0302047
696.108 .0301763
696.846 .0301480
697.585 .0301199
698.323 .0300913
699.061 .0300616
699.798 .0300306
700.536 .0299982
701.273 .0299640
702.010 .0299288
702.746 .0298930
703.483 .0298578
704.219 .0298231
704.955 .0297898
705.691 .0297574
706.427 .0297258
707.162 .0296948
707.897 .0296636
708.632 .0296318
709.367 .0296000
710.101 .0295685
710.835 .0295375
711.569 .0295077
712.303 .0294792
713.037 .0294521
713.770 .0294262
714.503 .0294010
715.236 .0293756
715.969 .0293499
716.702 .0293239
717.434 .0292971
718.166 .0292697
718.898 .0292426
719.629 .0292154
720.361 .0291890
721.092 .0291634
721.823 .0291384
722.554 .0291136
723.284 .0290895
724.014 .0290657
724.744 .0290414
725.474 .0290173
726.204 .0289932
726.933 .0289690
727.662 .0289453
728.391 .0289213
729.120 .0288977
729.849 .0288754
730.577 .0288546
731.305 .0288347
732.033 .0288164
732.760 .0287991
733.488 .0287825
734.215 .0287665
734.942 .0287513
735.669 .0287360
736.395 .0287213
737.122 .0287064
737.848 .0286913
738.573 .0286766
739.299 .0286625
740.024 .0286488
740.750 .0286367
741.474 .0286253
742.199 .0286147
742.924 .0286047
743.648 .0285960
744.372 .0285882
745.096 .0285820
745.819 .0285766
746.543 .0285718
747.266 .0285676
747.989 .0285644
748.711 .0285616
749.434 .0285603
750.156 .0285607
750.878 .0285628
751.599 .0285664
752.321 .0285718
753.042 .0285787
753.763 .0285871
754.484 .0285960
755.205 .0286048
755.925 .0286125
756.645 .0286189
757.365 .0286234
758.085 .0286266
758.804 .0286289
759.523 .0286303
760.242 .0286306
760.961 .0286298
761.679 .0286280
762.397 .0286242
763.115 .0286185
763.833 .0286108
764.551 .0286005
765.268 .0285878
765.985 .0285728
766.702 .0285565
767.418 .0285397
768.134 .0285232
768.850 .0285072
769.566 .0284920
770.282 .0284785
770.997 .0284658
771.712 .0284542
772.427 .0284437
773.142 .0284343
773.856 .0284253
774.570 .0284168
775.284 .0284088
775.998 .0284012
776.711 .0283953
777.424 .0283904
778.137 .0283864
778.849 .0283834
779.562 .0283804
780.274 .0283775
780.986 .0283741
781.697 .0283702
782.409 .0283653
783.120 .0283601
783.831 .0283549
784.541 .0283493
785.252 .0283440
785.962 .0283394
786.671 .0283351
787.381 .0283308
788.090 .0283264
788.799 .0283212
789.508 .0283151
790.217 .0283085
790.925 .0283006
791.633 .0282917
792.341 .0282816
793.048 .0282705
793.755 .0282584
794.462 .0282453
795.169 .0282316
795.875 .0282172
796.581 .0282028
797.287 .0281884
797.993 .0281737
798.698 .0281596
799.403 .0281456
800.108 .0281314
800.812 .0281171
801.517 .0281021
802.221 .0280867
802.924 .0280705
803.628 .0280541
804.331 .0280379
805.034 .0280218
805.736 .0280061
806.439 .0279901
807.141 .0279743
807.843 .0279582
808.544 .0279411
809.245 .0279230
809.946 .0279041
810.647 .0278841
811.347 .0278635
812.047 .0278428
812.747 .0278222
813.447 .0278019
814.146 .0277817
814.845 .0277615
815.543 .0277411
816.242 .0277209
816.940 .0277005
817.638 .0276800
818.335 .0276601
819.032 .0276400
819.729 .0276202
820.426 .0276002
821.122 .0275798
821.818 .0275586
822.514 .0275365
823.209 .0275134
823.905 .0274894
824.599 .0274647
825.294 .0274400
825.988 .0274156
826.682 .0273916
827.376 .0273681
828.069 .0273451
828.762 .0273220
829.455 .0272985
830.147 .0272748
830.840 .0272511
831.531 .0272277
832.223 .0272056
832.914 .0271851
833.605 .0271663
834.296 .0271498
834.986 .0271353
835.676 .0271230
836.366 .0271117
837.055 .0271011
837.744 .0270902
838.433 .0270789
839.121 .0270675
839.809 .0270554
840.497 .0270430
841.185 .0270305
841.872 .0270176
842.559 .0270044
843.245 .0269903
843.932 .0269756
844.617 .0269598
845.303 .0269432
845.988 .0269256
846.673 .0269070
847.358 .0268877
848.042 .0268682
848.726 .0268485
849.410 .0268291
850.093 .0268100
850.776 .0267913
851.459 .0267728
852.141 .0267546
852.823 .0267373
853.505 .0267205
854.186 .0267043
854.867 .0266891
855.548 .0266745
856.228 .0266609
856.908 .0266477
857.588 .0266347
858.267 .0266221
858.946 .0266100
859.625 .0265981
860.303 .0265863
860.981 .0265753
861.659 .0265651
862.336 .0265547
863.013 .0265446
863.690 .0265342
864.366 .0265230
865.042 .0265113
865.718 .0264987
866.393 .0264851
867.068 .0264710
867.743 .0264563
868.417 .0264413
869.091 .0264259
869.765 .0264107
870.438 .0263946
871.111 .0263782
871.783 .0263619
872.456 .0263450
873.127 .0263280
873.799 .0263115
874.470 .0262955
875.141 .0262804
875.811 .0262668
876.481 .0262546
877.151 .0262440
877.820 .0262354
878.489 .0262286
879.158 .0262233
879.826 .0262194
880.494 .0262168
881.162 .0262145
881.829 .0262127
882.496 .0262111
883.163 .0262089
883.829 .0262067
884.495 .0262040
885.160 .0262013
885.825 .0261985
886.490 .0261963
887.154 .0261938
887.818 .0261914
888.482 .0261890
889.145 .0261863
889.808 .0261834
890.471 .0261801
891.133 .0261766
891.795 .0261731
892.456 .0261699
893.117 .0261673
893.778 .0261655
894.439 .0261651
895.099 .0261657
895.758 .0261670
896.417 .0261694
897.076 .0261727
897.735 .0261767
898.393 .0261812
899.051 .0261864
899.708 .0261917
900.365 .0261965
901.022 .0262002
901.678 .0262033
902.334 .0262051
902.990 .0262059
903.645 .0262053
904.300 .0262037
904.954 .0262016
905.608 .0261989
906.262 .0261955
906.915 .0261921
907.568 .0261882
908.221 .0261838
908.873 .0261784
909.525 .0261725
910.176 .0261663
910.828 .0261600
911.478 .0261546
912.129 .0261499
912.778 .0261460
913.428 .0261433
914.077 .0261417
914.726 .0261416
915.375 .0261425
916.023 .0261441
916.670 .0261462
917.318 .0261492
917.964 .0261528
918.611 .0261566
919.257 .0261610
919.903 .0261658
920.548 .0261708
921.193 .0261755
921.838 .0261797
922.482 .0261833
923.126 .0261863
923.770 .0261885
924.413 .0261894
925.056 .0261890
925.698 .0261875
926.340 .0261851
926.982 .0261816
927.623 .0261771
928.264 .0261718
928.904 .0261656
929.544 .0261588
930.184 .0261512
930.823 .0261430
931.462 .0261346
932.101 .0261259
932.739 .0261170
933.377 .0261077
934.014 .0260987
934.651 .0260899
935.288 .0260814
935.924 .0260737
936.560 .0260668
937.196 .0260600
937.831 .0260535
938.466 .0260473
939.100 .0260415
939.734 .0260356
940.368 .0260299
941.001 .0260238
941.634 .0260173
942.266 .0260102
942.899 .0260022
943.530 .0259927
944.162 .0259826
944.793 .0259707
945.423 .0259568
946.053 .0259419
946.683 .0259260
947.313 .0259089
947.942 .0258917
948.571 .0258742
949.199 .0258560
949.827 .0258369
950.455 .0258177
951.082 .0257982
951.709 .0257790
952.335 .0257604
952.961 .0257423
953.587 .0257253
954.212 .0257102
954.837 .0256959
955.462 .0256829
956.086 .0256717
956.710 .0256615
957.334 .0256516
957.957 .0256420
958.579 .0256324
959.202 .0256228
959.824 .0256130
960.445 .0256031
961.067 .0255930
961.688 .0255829
962.308 .0255724
962.928 .0255614
963.548 .0255500
964.168 .0255382
964.787 .0255254
965.406 .0255116
966.024 .0254972
966.642 .0254817
967.260 .0254655
967.877 .0254488
968.494 .0254322
969.110 .0254155
969.727 .0253990
970.342 .0253829
970.958 .0253676
971.573 .0253533
972.188 .0253398
972.802 .0253275
973.416 .0253171
974.030 .0253076
974.643 .0252984
975.256 .0252899
975.869 .0252826
976.481 .0252757
977.093 .0252697
977.705 .0252649
978.316 .0252614
978.927 .0252589
979.538 .0252568
980.148 .0252548
980.758 .0252532
981.367 .0252512
981.977 .0252478
982.586 .0252435
983.194 .0252386
983.802 .0252328
984.410 .0252261
985.018 .0252191
985.625 .0252111
986.232 .0252017
986.838 .0251908
987.445 .0251780
988.050 .0251636
988.656 .0251476
989.261 .0251302
989.866 .0251122
990.471 .0250935
991.075 .0250745
991.679 .0250550
992.282 .0250356
992.886 .0250156
993.489 .0249946
994.091 .0249731
994.694 .0249515
995.296 .0249299
995.897 .0249084
996.499 .0248880
997.100 .0248686
997.701 .0248506
998.301 .0248339
998.901 .0248189
999.501 .0248054
1000.101 .0247933
1000.700 .0247830
1001.299 .0247729
1001.898 .0247638
1002.496 .0247551
1003.094 .0247467
1003.692 .0247392
1004.289 .0247320
1004.887 .0247255
1005.484 .0247196
1006.080 .0247149
1006.677 .0247106
1007.273 .0247059
1007.868 .0247013
1008.464 .0246957
1009.059 .0246886
1009.654 .0246799
1010.249 .0246696
1010.843 .0246577
1011.437 .0246458
1012.031 .0246333
1012.625 .0246210
1013.218 .0246090
1013.811 .0245977
1014.404 .0245863
1014.997 .0245752
1015.589 .0245641
1016.181 .0245530
1016.773 .0245424
1017.365 .0245331
1017.956 .0245236
1018.547 .0245152
1019.138 .0245074
1019.728 .0245000
1020.319 .0244927
1020.909 .0244859
1021.499 .0244785
1022.088 .0244708
1022.678 .0244622
1023.267 .0244534
1023.856 .0244433
1024.445 .0244329
1025.033 .0244213
1025.621 .0244082
1026.209 .0243942
1026.797 .0243781
1027.385 .0243605
1027.972 .0243430
1028.560 .0243259
1029.147 .0243101
1029.734 .0242960
1030.320 .0242842
1030.907 .0242743
1031.493 .0242660
1032.079 .0242593
1032.665 .0242533
1033.250 .0242483
1033.836 .0242438
1034.421 .0242396
1035.006 .0242365
1035.591 .0242345
1036.176 .0242334
1036.761 .0242326
1037.345 .0242316
1037.929 .0242294
1038.514 .0242255
1039.097 .0242203
1039.681 .0242139
1040.265 .0242073
1040.848 .0242009
1041.432 .0241959
1042.015 .0241926
1042.598 .0241907
1043.181 .0241899
1043.764 .0241888
1044.346 .0241879
1044.929 .0241858
1045.511 .0241828
1046.094 .0241787
1046.676 .0241748
1047.258 .0241709
1047.840 .0241678
1048.422 .0241658
1049.003 .0241643
1049.585 .0241623
1050.166 .0241596
1050.748 .0241551
1051.329 .0241477
1051.910 .0241377
1052.491 .0241249
1053.072 .0241086
1053.653 .0240902
1054.234 .0240692
1054.815 .0240469
1055.396 .0240254
1055.976 .0240059
1056.557 .0239882
1057.138 .0239742
1057.718 .0239637
1058.298 .0239554
1058.879 .0239481
1059.459 .0239410
1060.039 .0239330
1060.620 .0239219
1061.200 .0239077
1061.780 .0238902
1062.360 .0238709
1062.940 .0238517
1063.520 .0238343
1064.101 .0238203
1064.681 .0238094
1065.261 .0238014
1065.841 .0237935
1066.421 .0237857
1067.001 .0237770
1067.581 .0237661
1068.161 .0237524
1068.741 .0237386
1069.321 .0237255
1069.901 .0237150
1070.482 .0237096
1071.062 .0237092
1071.642 .0237136
1072.222 .0237209
1072.803 .0237289
1073.383 .0237352
1073.963 .0237374
1074.544 .0237368
1075.124 .0237313
1075.705 .0237227
1076.286 .0237110
1076.866 .0236973
1077.447 .0236822
1078.028 .0236665
1078.609 .0236503
1079.190 .0236343
1079.771 .0236196
1080.352 .0236053
1080.934 .0235909
1081.515 .0235794
1082.097 .0235718
1082.679 .0235668
1083.260 .0235652
1083.842 .0235689
1084.424 .0235748
1085.007 .0235830
1085.589 .0235920
1086.172 .0236024
1086.754 .0236131
1087.337 .0236239
1087.920 .0236337
1088.503 .0236426
1089.087 .0236527
1089.670 .0236613
1090.254 .0236698
1090.838 .0236795
1091.422 .0236874
1092.006 .0236931
1092.590 .0236959
1093.175 .0236972
1093.760 .0236954
1094.345 .0236910
1094.930 .0236852
1095.516 .0236794
1096.102 .0236768
1096.688 .0236759
1097.274 .0236796
1097.860 .0236872
1098.447 .0236979
1099.034 .0237089
1099.622 .0237178
1100.209 .0237240
1100.797 .0237275
1101.385 .0237289
1101.973 .0237293
1102.562 .0237298
1103.151 .0237325
1103.740 .0237366
1104.330 .0237448
1104.920 .0237550
1105.510 .0237671
1106.101 .0237822
1106.691 .0237995
1107.283 .0238174
1107.874 .0238392
1108.466 .0238622
1109.058 .0238877
1109.651 .0239137
1110.244 .0239386
1110.837 .0239603
1111.431 .0239794
1112.025 .0239966
1112.620 .0240115
1113.215 .0240263
1113.810 .0240434
1114.406 .0240604
1115.002 .0240794
1115.599 .0240988
1116.196 .0241134
1116.793 .0241242
1117.391 .0241309
1117.989 .0241312
1118.588 .0241287
1119.187 .0241214
1119.787 .0241145
1120.387 .0241089
1120.988 .0241061
1121.589 .0241083
1122.190 .0241134
1122.793 .0241266
1123.395 .0241444
1123.998 .0241660
1124.602 .0241921
1125.206 .0242240
1125.811 .0242618
1126.416 .0243019
1127.022 .0243426
1127.628 .0243817
1128.235 .0244208
1128.843 .0244587
1129.451 .0244989
1130.059 .0245409
1130.669 .0245899
1131.278 .0246489
1131.889 .0247102
1132.500 .0247769
1133.112 .0248474
1133.724 .0249181
1134.337 .0249884
1134.950 .0250491
1135.564 .0251050
1136.179 .0251537
1136.795 .0252015
1137.411 .0252480
1138.028 .0252973
1138.645 .0253520
1139.263 .0254087
1139.882 .0254607
1140.502 .0255174
1141.122 .0255629
1141.743 .0256192
1142.365 .0256524
1142.987 .0255818
1143.611 .0258238
1144.235 .0255973
1144.859 .0260857
1145.485 .0254799
