Measurement Sequence started on: 10-20-44-796
Integration time: 35
Scans to Average: 2 
>>>>>Begin Spectral Data<<<<<
432.953 .0363588
433.882 .0402493
434.810 .0380742
435.737 .0358089
436.662 .0371154
437.586 .0364655
438.509 .0361843
439.431 .0358533
440.351 .0356375
441.269 .0355119
442.187 .0353966
443.103 .0353396
444.018 .0353076
444.932 .0353146
445.844 .0353513
446.756 .0354124
447.666 .0354673
448.575 .0355168
449.482 .0355404
450.388 .0355441
451.294 .0355269
452.198 .0354906
453.100 .0354553
454.002 .0354225
454.902 .0353927
455.801 .0353822
456.699 .0353922
457.596 .0354214
458.492 .0354461
459.387 .0354574
460.280 .0354484
461.172 .0354054
462.064 .0353323
462.954 .0352499
463.843 .0351527
464.730 .0350594
465.617 .0349771
466.503 .0349059
467.387 .0348515
468.271 .0348085
469.153 .0347744
470.035 .0347397
470.915 .0347026
471.794 .0346559
472.673 .0345977
473.550 .0345388
474.426 .0344823
475.301 .0344333
476.175 .0344048
477.048 .0343934
477.920 .0343953
478.791 .0344093
479.661 .0344281
480.530 .0344443
481.398 .0344507
482.266 .0344444
483.132 .0344292
483.997 .0344082
484.861 .0343886
485.724 .0343749
486.587 .0343765
487.448 .0343888
488.308 .0344089
489.168 .0344315
490.026 .0344500
490.884 .0344612
491.741 .0344610
492.597 .0344476
493.452 .0344244
494.306 .0343961
495.159 .0343670
496.011 .0343402
496.862 .0343199
497.713 .0342976
498.562 .0342654
499.411 .0342201
500.259 .0341613
501.106 .0340812
501.952 .0339860
502.798 .0338789
503.642 .0337677
504.486 .0336579
505.329 .0335409
506.171 .0334177
507.012 .0332922
507.852 .0331630
508.692 .0330208
509.531 .0328627
510.369 .0327039
511.206 .0325429
512.043 .0323874
512.878 .0322390
513.713 .0320959
514.547 .0319567
515.381 .0318102
516.213 .0316538
517.045 .0314821
517.876 .0312999
518.706 .0311111
519.536 .0309283
520.365 .0307627
521.193 .0306122
522.020 .0304822
522.847 .0303748
523.673 .0302824
524.498 .0301929
525.323 .0300916
526.146 .0299887
526.969 .0298849
527.792 .0297845
528.614 .0296836
529.435 .0296050
530.255 .0295535
531.075 .0295172
531.894 .0294887
532.712 .0294541
533.530 .0294108
534.347 .0293523
535.163 .0292657
535.979 .0291622
536.794 .0290559
537.608 .0289533
538.422 .0288512
539.235 .0287624
540.048 .0286798
540.860 .0286040
541.671 .0285336
542.481 .0284642
543.292 .0283990
544.101 .0283456
544.910 .0283123
545.718 .0282994
546.526 .0283121
547.333 .0283479
548.139 .0283963
548.945 .0284640
549.750 .0285312
550.555 .0286045
551.359 .0286839
552.162 .0287693
552.965 .0288570
553.768 .0289425
554.569 .0290266
555.371 .0291045
556.171 .0291707
556.972 .0292248
557.771 .0292613
558.570 .0292847
559.369 .0292954
560.167 .0292964
560.964 .0292971
561.761 .0293074
562.558 .0293250
563.354 .0293542
564.149 .0293921
564.944 .0294358
565.738 .0294901
566.532 .0295505
567.325 .0296153
568.118 .0296851
568.910 .0297605
569.702 .0298408
570.494 .0299238
571.285 .0300074
572.075 .0300932
572.865 .0301758
573.654 .0302562
574.443 .0303260
575.232 .0303905
576.020 .0304514
576.807 .0305076
577.594 .0305631
578.381 .0306177
579.167 .0306675
579.952 .0307165
580.738 .0307637
581.522 .0308108
582.307 .0308539
583.091 .0308949
583.874 .0309344
584.657 .0309698
585.440 .0310009
586.222 .0310280
587.004 .0310531
587.785 .0310784
588.566 .0311013
589.346 .0311215
590.126 .0311403
590.906 .0311571
591.685 .0311713
592.464 .0311812
593.242 .0311893
594.020 .0311948
594.797 .0311986
595.575 .0312012
596.351 .0312046
597.128 .0312088
597.904 .0312142
598.679 .0312198
599.454 .0312243
600.229 .0312276
601.004 .0312284
601.778 .0312266
602.551 .0312217
603.325 .0312148
604.097 .0312056
604.870 .0311944
605.642 .0311817
606.414 .0311653
607.185 .0311468
607.956 .0311255
608.727 .0311016
609.497 .0310744
610.267 .0310448
611.037 .0310139
611.806 .0309825
612.575 .0309523
613.344 .0309225
614.112 .0308950
614.880 .0308694
615.647 .0308453
616.414 .0308226
617.181 .0308004
617.948 .0307799
618.714 .0307608
619.480 .0307431
620.245 .0307259
621.011 .0307096
621.775 .0306933
622.540 .0306771
623.304 .0306613
624.068 .0306462
624.832 .0306319
625.595 .0306186
626.358 .0306067
627.120 .0305954
627.883 .0305841
628.645 .0305714
629.406 .0305563
630.168 .0305389
630.929 .0305180
631.689 .0304936
632.450 .0304674
633.210 .0304411
633.970 .0304157
634.729 .0303919
635.489 .0303697
636.248 .0303486
637.006 .0303269
637.765 .0303042
638.523 .0302795
639.280 .0302525
640.038 .0302226
640.795 .0301912
641.552 .0301595
642.309 .0301284
643.065 .0300986
643.821 .0300708
644.577 .0300458
645.332 .0300229
646.088 .0300009
646.843 .0299792
647.597 .0299581
648.352 .0299375
649.106 .0299163
649.860 .0298946
650.613 .0298729
651.367 .0298517
652.120 .0298318
652.872 .0298141
653.625 .0297984
654.377 .0297851
655.129 .0297735
655.881 .0297630
656.632 .0297534
657.384 .0297430
658.135 .0297328
658.885 .0297214
659.636 .0297090
660.386 .0296962
661.136 .0296827
661.885 .0296709
662.635 .0296612
663.384 .0296535
664.133 .0296471
664.881 .0296411
665.630 .0296350
666.378 .0296285
667.126 .0296211
667.874 .0296122
668.621 .0296020
669.368 .0295907
670.115 .0295788
670.862 .0295656
671.608 .0295530
672.354 .0295401
673.100 .0295267
673.846 .0295131
674.591 .0294977
675.337 .0294814
676.082 .0294642
676.826 .0294454
677.571 .0294261
678.315 .0294058
679.059 .0293849
679.803 .0293635
680.547 .0293422
681.290 .0293212
682.033 .0292997
682.776 .0292788
683.518 .0292581
684.261 .0292369
685.003 .0292158
685.745 .0291947
686.487 .0291739
687.228 .0291540
687.969 .0291339
688.710 .0291135
689.451 .0290930
690.192 .0290721
690.932 .0290505
691.672 .0290284
692.412 .0290065
693.152 .0289851
693.891 .0289642
694.630 .0289446
695.369 .0289259
696.108 .0289078
696.846 .0288900
697.585 .0288718
698.323 .0288531
699.061 .0288334
699.798 .0288126
700.536 .0287912
701.273 .0287700
702.010 .0287490
702.746 .0287290
703.483 .0287100
704.219 .0286919
704.955 .0286742
705.691 .0286558
706.427 .0286369
707.162 .0286173
707.897 .0285969
708.632 .0285763
709.367 .0285558
710.101 .0285362
710.835 .0285166
711.569 .0284976
712.303 .0284784
713.037 .0284584
713.770 .0284371
714.503 .0284153
715.236 .0283928
715.969 .0283705
716.702 .0283492
717.434 .0283292
718.166 .0283114
718.898 .0282952
719.629 .0282795
720.361 .0282639
721.092 .0282477
721.823 .0282307
722.554 .0282120
723.284 .0281930
724.014 .0281736
724.744 .0281543
725.474 .0281354
726.204 .0281175
726.933 .0281003
727.662 .0280835
728.391 .0280665
729.120 .0280486
729.849 .0280304
730.577 .0280120
731.305 .0279933
732.033 .0279754
732.760 .0279585
733.488 .0279429
734.215 .0279279
734.942 .0279142
735.669 .0279009
736.395 .0278880
737.122 .0278750
737.848 .0278613
738.573 .0278462
739.299 .0278301
740.024 .0278126
740.750 .0277943
741.474 .0277755
742.199 .0277558
742.924 .0277355
743.648 .0277155
744.372 .0276954
745.096 .0276760
745.819 .0276574
746.543 .0276389
747.266 .0276210
747.989 .0276040
748.711 .0275876
749.434 .0275726
750.156 .0275604
750.878 .0275504
751.599 .0275427
752.321 .0275372
753.042 .0275333
753.763 .0275308
754.484 .0275298
755.205 .0275283
755.925 .0275263
756.645 .0275233
757.365 .0275184
758.085 .0275109
758.804 .0275019
759.523 .0274906
760.242 .0274771
760.961 .0274624
761.679 .0274462
762.397 .0274289
763.115 .0274113
763.833 .0273932
764.551 .0273754
765.268 .0273574
765.985 .0273386
766.702 .0273188
767.418 .0272986
768.134 .0272778
768.850 .0272560
769.566 .0272347
770.282 .0272143
770.997 .0271952
771.712 .0271776
772.427 .0271620
773.142 .0271477
773.856 .0271349
774.570 .0271226
775.284 .0271101
775.998 .0270973
776.711 .0270838
777.424 .0270696
778.137 .0270551
778.849 .0270409
779.562 .0270275
780.274 .0270149
780.986 .0270046
781.697 .0269953
782.409 .0269876
783.120 .0269812
783.831 .0269761
784.541 .0269714
785.252 .0269672
785.962 .0269628
786.671 .0269581
787.381 .0269535
788.090 .0269484
788.799 .0269426
789.508 .0269362
790.217 .0269288
790.925 .0269199
791.633 .0269091
792.341 .0268966
793.048 .0268817
793.755 .0268649
794.462 .0268457
795.169 .0268244
795.875 .0268018
796.581 .0267791
797.287 .0267565
797.993 .0267348
798.698 .0267146
799.403 .0266957
800.108 .0266781
800.812 .0266621
801.517 .0266468
802.221 .0266331
802.924 .0266208
803.628 .0266105
804.331 .0266017
805.034 .0265955
805.736 .0265913
806.439 .0265895
807.141 .0265901
807.843 .0265923
808.544 .0265946
809.245 .0265969
809.946 .0265977
810.647 .0265968
811.347 .0265932
812.047 .0265874
812.747 .0265786
813.447 .0265676
814.146 .0265552
814.845 .0265413
815.543 .0265272
816.242 .0265138
816.940 .0265008
817.638 .0264885
818.335 .0264767
819.032 .0264643
819.729 .0264512
820.426 .0264380
821.122 .0264237
821.818 .0264082
822.514 .0263922
823.209 .0263765
823.905 .0263618
824.599 .0263488
825.294 .0263372
825.988 .0263264
826.682 .0263169
827.376 .0263065
828.069 .0262948
828.762 .0262814
829.455 .0262663
830.147 .0262496
830.840 .0262325
831.531 .0262159
832.223 .0262001
832.914 .0261859
833.605 .0261737
834.296 .0261626
834.986 .0261527
835.676 .0261431
836.366 .0261338
837.055 .0261249
837.744 .0261166
838.433 .0261083
839.121 .0261010
839.809 .0260948
840.497 .0260902
841.185 .0260863
841.872 .0260833
842.559 .0260802
843.245 .0260768
843.932 .0260725
844.617 .0260669
845.303 .0260600
845.988 .0260522
846.673 .0260436
847.358 .0260346
848.042 .0260256
848.726 .0260171
849.410 .0260084
850.093 .0259995
850.776 .0259899
851.459 .0259790
852.141 .0259664
852.823 .0259526
853.505 .0259377
854.186 .0259223
854.867 .0259072
855.548 .0258927
856.228 .0258792
856.908 .0258676
857.588 .0258571
858.267 .0258471
858.946 .0258374
859.625 .0258273
860.303 .0258169
860.981 .0258063
861.659 .0257962
862.336 .0257867
863.013 .0257784
863.690 .0257712
864.366 .0257647
865.042 .0257592
865.718 .0257543
866.393 .0257494
867.068 .0257445
867.743 .0257389
868.417 .0257332
869.091 .0257279
869.765 .0257230
870.438 .0257184
871.111 .0257143
871.783 .0257100
872.456 .0257050
873.127 .0256990
873.799 .0256918
874.470 .0256836
875.141 .0256752
875.811 .0256665
876.481 .0256580
877.151 .0256502
877.820 .0256427
878.489 .0256355
879.158 .0256285
879.826 .0256208
880.494 .0256122
881.162 .0256029
881.829 .0255926
882.496 .0255809
883.163 .0255690
883.829 .0255569
884.495 .0255448
885.160 .0255335
885.825 .0255233
886.490 .0255140
887.154 .0255060
887.818 .0254985
888.482 .0254916
889.145 .0254843
889.808 .0254766
890.471 .0254681
891.133 .0254591
891.795 .0254495
892.456 .0254397
893.117 .0254303
893.778 .0254224
894.439 .0254157
895.099 .0254109
895.758 .0254076
896.417 .0254059
897.076 .0254052
897.735 .0254046
898.393 .0254043
899.051 .0254045
899.708 .0254037
900.365 .0254027
901.022 .0254010
901.678 .0253993
902.334 .0253970
902.990 .0253946
903.645 .0253920
904.300 .0253898
904.954 .0253871
905.608 .0253833
906.262 .0253783
906.915 .0253726
907.568 .0253655
908.221 .0253572
908.873 .0253484
909.525 .0253390
910.176 .0253295
910.828 .0253209
911.478 .0253128
912.129 .0253058
912.778 .0252997
913.428 .0252937
914.077 .0252875
914.726 .0252812
915.375 .0252747
916.023 .0252689
916.670 .0252640
917.318 .0252595
917.964 .0252552
918.611 .0252511
919.257 .0252467
919.903 .0252414
920.548 .0252352
921.193 .0252271
921.838 .0252177
922.482 .0252074
923.126 .0251966
923.770 .0251865
924.413 .0251774
925.056 .0251696
925.698 .0251630
926.340 .0251569
926.982 .0251509
927.623 .0251445
928.264 .0251382
928.904 .0251311
929.544 .0251230
930.184 .0251145
930.823 .0251053
931.462 .0250961
932.101 .0250872
932.739 .0250783
933.377 .0250693
934.014 .0250598
934.651 .0250497
935.288 .0250393
935.924 .0250290
936.560 .0250187
937.196 .0250089
937.831 .0249989
938.466 .0249890
939.100 .0249782
939.734 .0249669
940.368 .0249550
941.001 .0249423
941.634 .0249291
942.266 .0249150
942.899 .0249004
943.530 .0248855
944.162 .0248705
944.793 .0248556
945.423 .0248397
946.053 .0248230
946.683 .0248050
947.313 .0247851
947.942 .0247635
948.571 .0247404
949.199 .0247162
949.827 .0246914
950.455 .0246670
951.082 .0246434
951.709 .0246215
952.335 .0246013
952.961 .0245825
953.587 .0245650
954.212 .0245483
954.837 .0245315
955.462 .0245149
956.086 .0244983
956.710 .0244818
957.334 .0244661
957.957 .0244513
958.579 .0244371
959.202 .0244239
959.824 .0244112
960.445 .0243991
961.067 .0243870
961.688 .0243746
962.308 .0243614
962.928 .0243481
963.548 .0243347
964.168 .0243210
964.787 .0243077
965.406 .0242945
966.024 .0242816
966.642 .0242694
967.260 .0242570
967.877 .0242437
968.494 .0242303
969.110 .0242169
969.727 .0242028
970.342 .0241886
970.958 .0241747
971.573 .0241620
972.188 .0241510
972.802 .0241413
973.416 .0241326
974.030 .0241245
974.643 .0241169
975.256 .0241087
975.869 .0240998
976.481 .0240908
977.093 .0240816
977.705 .0240731
978.316 .0240660
978.927 .0240604
979.538 .0240557
980.148 .0240522
980.758 .0240499
981.367 .0240472
981.977 .0240432
982.586 .0240377
983.194 .0240304
983.802 .0240219
984.410 .0240125
985.018 .0240030
985.625 .0239944
986.232 .0239870
986.838 .0239808
987.445 .0239757
988.050 .0239717
988.656 .0239682
989.261 .0239646
989.866 .0239603
990.471 .0239553
991.075 .0239488
991.679 .0239416
992.282 .0239339
992.886 .0239261
993.489 .0239182
994.091 .0239095
994.694 .0239009
995.296 .0238911
995.897 .0238803
996.499 .0238690
997.100 .0238563
997.701 .0238436
998.301 .0238313
998.901 .0238197
999.501 .0238099
1000.101 .0238022
1000.700 .0237962
1001.299 .0237915
1001.898 .0237879
1002.496 .0237842
1003.094 .0237798
1003.692 .0237750
1004.289 .0237702
1004.887 .0237651
1005.484 .0237612
1006.080 .0237581
1006.677 .0237558
1007.273 .0237544
1007.868 .0237529
1008.464 .0237515
1009.059 .0237491
1009.654 .0237451
1010.249 .0237395
1010.843 .0237331
1011.437 .0237265
1012.031 .0237202
1012.625 .0237154
1013.218 .0237126
1013.811 .0237117
1014.404 .0237124
1014.997 .0237137
1015.589 .0237158
1016.181 .0237181
1016.773 .0237202
1017.365 .0237217
1017.956 .0237231
1018.547 .0237238
1019.138 .0237248
1019.728 .0237260
1020.319 .0237276
1020.909 .0237291
1021.499 .0237297
1022.088 .0237281
1022.678 .0237245
1023.267 .0237186
1023.856 .0237114
1024.445 .0237026
1025.033 .0236945
1025.621 .0236864
1026.209 .0236797
1026.797 .0236740
1027.385 .0236709
1027.972 .0236690
1028.560 .0236682
1029.147 .0236678
1029.734 .0236678
1030.320 .0236677
1030.907 .0236685
1031.493 .0236703
1032.079 .0236748
1032.665 .0236802
1033.250 .0236880
1033.836 .0236950
1034.421 .0237032
1035.006 .0237098
1035.591 .0237137
1036.176 .0237149
1036.761 .0237138
1037.345 .0237096
1037.929 .0237020
1038.514 .0236921
1039.097 .0236812
1039.681 .0236688
1040.265 .0236567
1040.848 .0236434
1041.432 .0236302
1042.015 .0236166
1042.598 .0236035
1043.181 .0235903
1043.764 .0235789
1044.346 .0235690
1044.929 .0235606
1045.511 .0235537
1046.094 .0235472
1046.676 .0235415
1047.258 .0235353
1047.840 .0235301
1048.422 .0235248
1049.003 .0235179
1049.585 .0235108
1050.166 .0235026
1050.748 .0234945
1051.329 .0234859
1051.910 .0234771
1052.491 .0234677
1053.072 .0234579
1053.653 .0234475
1054.234 .0234357
1054.815 .0234244
1055.396 .0234153
1055.976 .0234080
1056.557 .0234017
1057.138 .0233968
1057.718 .0233921
1058.298 .0233871
1058.879 .0233820
1059.459 .0233751
1060.039 .0233682
1060.620 .0233603
1061.200 .0233525
1061.780 .0233457
1062.360 .0233410
1062.940 .0233386
1063.520 .0233372
1064.101 .0233364
1064.681 .0233361
1065.261 .0233327
1065.841 .0233269
1066.421 .0233194
1067.001 .0233098
1067.581 .0232989
1068.161 .0232871
1068.741 .0232770
1069.321 .0232707
1069.901 .0232693
1070.482 .0232732
1071.062 .0232817
1071.642 .0232978
1072.222 .0233190
1072.803 .0233414
1073.383 .0233662
1073.963 .0233901
1074.544 .0234118
1075.124 .0234300
1075.705 .0234435
1076.286 .0234533
1076.866 .0234614
1077.447 .0234679
1078.028 .0234736
1078.609 .0234800
1079.190 .0234872
1079.771 .0234908
1080.352 .0234917
1080.934 .0234881
1081.515 .0234762
1082.097 .0234563
1082.679 .0234331
1083.260 .0234085
1083.842 .0233855
1084.424 .0233683
1085.007 .0233609
1085.589 .0233638
1086.172 .0233752
1086.754 .0233916
1087.337 .0234093
1087.920 .0234288
1088.503 .0234458
1089.087 .0234564
1089.670 .0234644
1090.254 .0234709
1090.838 .0234759
1091.422 .0234789
1092.006 .0234846
1092.590 .0234883
1093.175 .0234870
1093.760 .0234814
1094.345 .0234672
1094.930 .0234445
1095.516 .0234159
1096.102 .0233846
1096.688 .0233534
1097.274 .0233264
1097.860 .0233046
1098.447 .0232870
1099.034 .0232774
1099.622 .0232706
1100.209 .0232623
1100.797 .0232509
1101.385 .0232406
1101.973 .0232257
1102.562 .0232097
1103.151 .0231977
1103.740 .0231884
1104.330 .0231847
1104.920 .0231852
1105.510 .0231864
1106.101 .0231891
1106.691 .0231891
1107.283 .0231877
1107.874 .0231819
1108.466 .0231764
1109.058 .0231712
1109.651 .0231661
1110.244 .0231656
1110.837 .0231710
1111.431 .0231770
1112.025 .0231881
1112.620 .0232018
1113.215 .0232186
1113.810 .0232376
1114.406 .0232549
1115.002 .0232737
1115.599 .0232922
1116.196 .0233050
1116.793 .0233139
1117.391 .0233166
1117.989 .0233157
1118.588 .0233090
1119.187 .0232999
1119.787 .0232915
1120.387 .0232855
1120.988 .0232867
1121.589 .0232926
1122.190 .0233011
1122.793 .0233138
1123.395 .0233245
1123.998 .0233316
1124.602 .0233407
1125.206 .0233454
1125.811 .0233526
1126.416 .0233673
1127.022 .0233900
1127.628 .0234196
1128.235 .0234581
1128.843 .0235057
1129.451 .0235597
1130.059 .0236169
1130.669 .0236794
1131.278 .0237381
1131.889 .0238012
1132.500 .0238599
1133.112 .0239179
1133.724 .0239750
1134.337 .0240340
1134.950 .0240899
1135.564 .0241516
1136.179 .0242148
1136.795 .0242821
1137.411 .0243549
1138.028 .0244367
1138.645 .0245186
1139.263 .0246011
1139.882 .0246816
1140.502 .0247713
1141.122 .0248674
1141.743 .0249886
1142.365 .0251138
1142.987 .0250546
1143.611 .0254169
1144.235 .0255646
1144.859 .0260847
1145.485 .0258614
