Measurement Sequence started on: 10-20-44-796
Integration time: 35
Scans to Average: 2 
>>>>>Begin Spectral Data<<<<<
432.953 .0478385
433.882 .0408928
434.810 .0331790
435.737 .0321586
436.662 .0327622
437.586 .0339244
438.509 .0332099
439.431 .0329020
440.351 .0328425
441.269 .0327715
442.187 .0326654
443.103 .0325592
444.018 .0324692
444.932 .0323891
445.844 .0323298
446.756 .0323002
447.666 .0322744
448.575 .0322391
449.482 .0321872
450.388 .0321185
451.294 .0320390
452.198 .0319482
453.100 .0318623
454.002 .0317965
454.902 .0317481
455.801 .0317124
456.699 .0316880
457.596 .0316805
458.492 .0316777
459.387 .0316764
460.280 .0316751
461.172 .0316703
462.064 .0316659
462.954 .0316563
463.843 .0316458
464.730 .0316401
465.617 .0316337
466.503 .0316256
467.387 .0316093
468.271 .0315876
469.153 .0315602
470.035 .0315315
470.915 .0315075
471.794 .0314883
472.673 .0314745
473.550 .0314650
474.426 .0314583
475.301 .0314533
476.175 .0314467
477.048 .0314334
477.920 .0314148
478.791 .0313911
479.661 .0313622
480.530 .0313322
481.398 .0313035
482.266 .0312836
483.132 .0312700
483.997 .0312608
484.861 .0312553
485.724 .0312546
486.587 .0312577
487.448 .0312603
488.308 .0312637
489.168 .0312679
490.026 .0312711
490.884 .0312754
491.741 .0312783
492.597 .0312818
493.452 .0312837
494.306 .0312826
495.159 .0312764
496.011 .0312664
496.862 .0312513
497.713 .0312279
498.562 .0311959
499.411 .0311566
500.259 .0311061
501.106 .0310442
501.952 .0309728
502.798 .0308909
503.642 .0307998
504.486 .0306983
505.329 .0305889
506.171 .0304760
507.012 .0303633
507.852 .0302529
508.692 .0301462
509.531 .0300445
510.369 .0299498
511.206 .0298586
512.043 .0297689
512.878 .0296784
513.713 .0295804
514.547 .0294722
515.381 .0293550
516.213 .0292263
517.045 .0290895
517.876 .0289431
518.706 .0287955
519.536 .0286444
520.365 .0284956
521.193 .0283452
522.020 .0281932
522.847 .0280379
523.673 .0278742
524.498 .0276917
525.323 .0274973
526.146 .0272905
526.969 .0270819
527.792 .0268772
528.614 .0266839
529.435 .0265079
530.255 .0263625
531.075 .0262412
531.894 .0261472
532.712 .0260766
533.530 .0260229
534.347 .0259750
535.163 .0259302
535.979 .0258853
536.794 .0258421
537.608 .0258099
538.422 .0257862
539.235 .0257686
540.048 .0257592
540.860 .0257526
541.671 .0257495
542.481 .0257507
543.292 .0257499
544.101 .0257440
544.910 .0257371
545.718 .0257323
546.526 .0257346
547.333 .0257478
548.139 .0257725
548.945 .0258062
549.750 .0258465
550.555 .0258890
551.359 .0259302
552.162 .0259735
552.965 .0260190
553.768 .0260702
554.569 .0261260
555.371 .0261860
556.171 .0262528
556.972 .0263227
557.771 .0263952
558.570 .0264651
559.369 .0265295
560.167 .0265883
560.964 .0266409
561.761 .0266930
562.558 .0267458
563.354 .0268073
564.149 .0268763
564.944 .0269527
565.738 .0270384
566.532 .0271271
567.325 .0272161
568.118 .0273052
568.910 .0273941
569.702 .0274798
570.494 .0275644
571.285 .0276469
572.075 .0277300
572.865 .0278157
573.654 .0279014
574.443 .0279844
575.232 .0280657
576.020 .0281469
576.807 .0282260
577.594 .0283027
578.381 .0283794
579.167 .0284524
579.952 .0285242
580.738 .0285947
581.522 .0286633
582.307 .0287295
583.091 .0287941
583.874 .0288573
584.657 .0289176
585.440 .0289742
586.222 .0290257
587.004 .0290708
587.785 .0291116
588.566 .0291456
589.346 .0291737
590.126 .0291964
590.906 .0292169
591.685 .0292348
592.464 .0292508
593.242 .0292656
594.020 .0292788
594.797 .0292905
595.575 .0293002
596.351 .0293075
597.128 .0293128
597.904 .0293159
598.679 .0293182
599.454 .0293191
600.229 .0293201
601.004 .0293210
601.778 .0293211
602.551 .0293208
603.325 .0293190
604.097 .0293156
604.870 .0293103
605.642 .0293028
606.414 .0292928
607.185 .0292805
607.956 .0292668
608.727 .0292522
609.497 .0292376
610.267 .0292224
611.037 .0292077
611.806 .0291937
612.575 .0291803
613.344 .0291674
614.112 .0291551
614.880 .0291430
615.647 .0291300
616.414 .0291164
617.181 .0291015
617.948 .0290856
618.714 .0290702
619.480 .0290548
620.245 .0290397
621.011 .0290255
621.775 .0290119
622.540 .0289989
623.304 .0289860
624.068 .0289730
624.832 .0289587
625.595 .0289435
626.358 .0289277
627.120 .0289115
627.883 .0288960
628.645 .0288820
629.406 .0288693
630.168 .0288586
630.929 .0288492
631.689 .0288408
632.450 .0288325
633.210 .0288240
633.970 .0288145
634.729 .0288043
635.489 .0287930
636.248 .0287809
637.006 .0287684
637.765 .0287551
638.523 .0287409
639.280 .0287257
640.038 .0287091
640.795 .0286917
641.552 .0286741
642.309 .0286569
643.065 .0286401
643.821 .0286248
644.577 .0286105
645.332 .0285973
646.088 .0285851
646.843 .0285728
647.597 .0285595
648.352 .0285453
649.106 .0285303
649.860 .0285143
650.613 .0284990
651.367 .0284846
652.120 .0284710
652.872 .0284588
653.625 .0284469
654.377 .0284348
655.129 .0284218
655.881 .0284076
656.632 .0283914
657.384 .0283734
658.135 .0283548
658.885 .0283356
659.636 .0283169
660.386 .0282992
661.136 .0282822
661.885 .0282663
662.635 .0282512
663.384 .0282364
664.133 .0282221
664.881 .0282085
665.630 .0281953
666.378 .0281830
667.126 .0281720
667.874 .0281619
668.621 .0281524
669.368 .0281435
670.115 .0281343
670.862 .0281246
671.608 .0281149
672.354 .0281049
673.100 .0280946
673.846 .0280847
674.591 .0280750
675.337 .0280655
676.082 .0280566
676.826 .0280480
677.571 .0280390
678.315 .0280301
679.059 .0280208
679.803 .0280110
680.547 .0280005
681.290 .0279896
682.033 .0279778
682.776 .0279655
683.518 .0279525
684.261 .0279388
685.003 .0279249
685.745 .0279110
686.487 .0278970
687.228 .0278826
687.969 .0278680
688.710 .0278529
689.451 .0278372
690.192 .0278212
690.932 .0278042
691.672 .0277868
692.412 .0277690
693.152 .0277512
693.891 .0277337
694.630 .0277168
695.369 .0277007
696.108 .0276846
696.846 .0276685
697.585 .0276521
698.323 .0276350
699.061 .0276176
699.798 .0276002
700.536 .0275833
701.273 .0275671
702.010 .0275519
702.746 .0275381
703.483 .0275258
704.219 .0275148
704.955 .0275042
705.691 .0274938
706.427 .0274828
707.162 .0274713
707.897 .0274588
708.632 .0274459
709.367 .0274329
710.101 .0274196
710.835 .0274066
711.569 .0273932
712.303 .0273797
713.037 .0273658
713.770 .0273508
714.503 .0273347
715.236 .0273167
715.969 .0272971
716.702 .0272756
717.434 .0272530
718.166 .0272301
718.898 .0272072
719.629 .0271854
720.361 .0271650
721.092 .0271462
721.823 .0271290
722.554 .0271131
723.284 .0270981
724.014 .0270834
724.744 .0270685
725.474 .0270528
726.204 .0270366
726.933 .0270201
727.662 .0270036
728.391 .0269875
729.120 .0269721
729.849 .0269577
730.577 .0269435
731.305 .0269296
732.033 .0269151
732.760 .0268995
733.488 .0268829
734.215 .0268650
734.942 .0268458
735.669 .0268260
736.395 .0268061
737.122 .0267862
737.848 .0267668
738.573 .0267486
739.299 .0267307
740.024 .0267135
740.750 .0266967
741.474 .0266801
742.199 .0266633
742.924 .0266467
743.648 .0266301
744.372 .0266138
745.096 .0265986
745.819 .0265838
746.543 .0265698
747.266 .0265572
747.989 .0265458
748.711 .0265357
749.434 .0265266
750.156 .0265189
750.878 .0265116
751.599 .0265052
752.321 .0264990
753.042 .0264932
753.763 .0264881
754.484 .0264833
755.205 .0264787
755.925 .0264747
756.645 .0264708
757.365 .0264670
758.085 .0264633
758.804 .0264600
759.523 .0264558
760.242 .0264508
760.961 .0264444
761.679 .0264364
762.397 .0264264
763.115 .0264143
763.833 .0263998
764.551 .0263831
765.268 .0263643
765.985 .0263440
766.702 .0263222
767.418 .0263002
768.134 .0262779
768.850 .0262558
769.566 .0262341
770.282 .0262127
770.997 .0261912
771.712 .0261700
772.427 .0261491
773.142 .0261286
773.856 .0261081
774.570 .0260876
775.284 .0260675
775.998 .0260482
776.711 .0260298
777.424 .0260122
778.137 .0259955
778.849 .0259798
779.562 .0259647
780.274 .0259500
780.986 .0259356
781.697 .0259211
782.409 .0259071
783.120 .0258930
783.831 .0258790
784.541 .0258651
785.252 .0258521
785.962 .0258400
786.671 .0258287
787.381 .0258182
788.090 .0258084
788.799 .0257991
789.508 .0257901
790.217 .0257807
790.925 .0257711
791.633 .0257611
792.341 .0257505
793.048 .0257396
793.755 .0257283
794.462 .0257166
795.169 .0257050
795.875 .0256936
796.581 .0256820
797.287 .0256706
797.993 .0256594
798.698 .0256485
799.403 .0256375
800.108 .0256266
800.812 .0256154
801.517 .0256040
802.221 .0255925
802.924 .0255805
803.628 .0255681
804.331 .0255562
805.034 .0255445
805.736 .0255329
806.439 .0255217
807.141 .0255108
807.843 .0254996
808.544 .0254881
809.245 .0254758
809.946 .0254626
810.647 .0254489
811.347 .0254350
812.047 .0254210
812.747 .0254076
813.447 .0253950
814.146 .0253830
814.845 .0253721
815.543 .0253618
816.242 .0253520
816.940 .0253422
817.638 .0253321
818.335 .0253214
819.032 .0253102
819.729 .0252984
820.426 .0252861
821.122 .0252738
821.818 .0252618
822.514 .0252502
823.209 .0252396
823.905 .0252296
824.599 .0252200
825.294 .0252103
825.988 .0251998
826.682 .0251881
827.376 .0251754
828.069 .0251614
828.762 .0251463
829.455 .0251307
830.147 .0251149
830.840 .0250988
831.531 .0250833
832.223 .0250686
832.914 .0250541
833.605 .0250400
834.296 .0250258
834.986 .0250112
835.676 .0249964
836.366 .0249813
837.055 .0249655
837.744 .0249498
838.433 .0249338
839.121 .0249177
839.809 .0249015
840.497 .0248855
841.185 .0248702
841.872 .0248551
842.559 .0248413
843.245 .0248282
843.932 .0248161
844.617 .0248056
845.303 .0247961
845.988 .0247875
846.673 .0247796
847.358 .0247717
848.042 .0247635
848.726 .0247553
849.410 .0247470
850.093 .0247385
850.776 .0247303
851.459 .0247227
852.141 .0247151
852.823 .0247076
853.505 .0247005
854.186 .0246931
854.867 .0246853
855.548 .0246771
856.228 .0246679
856.908 .0246580
857.588 .0246478
858.267 .0246370
858.946 .0246258
859.625 .0246150
860.303 .0246045
860.981 .0245946
861.659 .0245855
862.336 .0245765
863.013 .0245675
863.690 .0245586
864.366 .0245491
865.042 .0245389
865.718 .0245280
866.393 .0245169
867.068 .0245051
867.743 .0244934
868.417 .0244810
869.091 .0244682
869.765 .0244552
870.438 .0244416
871.111 .0244275
871.783 .0244134
872.456 .0243992
873.127 .0243857
873.799 .0243727
874.470 .0243608
875.141 .0243497
875.811 .0243399
876.481 .0243306
877.151 .0243219
877.820 .0243131
878.489 .0243044
879.158 .0242956
879.826 .0242870
880.494 .0242784
881.162 .0242699
881.829 .0242624
882.496 .0242552
883.163 .0242480
883.829 .0242410
884.495 .0242337
885.160 .0242263
885.825 .0242187
886.490 .0242109
887.154 .0242030
887.818 .0241954
888.482 .0241880
889.145 .0241806
889.808 .0241737
890.471 .0241670
891.133 .0241602
891.795 .0241531
892.456 .0241459
893.117 .0241383
893.778 .0241309
894.439 .0241240
895.099 .0241169
895.758 .0241101
896.417 .0241035
897.076 .0240967
897.735 .0240902
898.393 .0240835
899.051 .0240772
899.708 .0240709
900.365 .0240651
901.022 .0240593
901.678 .0240537
902.334 .0240486
902.990 .0240440
903.645 .0240397
904.300 .0240359
904.954 .0240321
905.608 .0240285
906.262 .0240247
906.915 .0240212
907.568 .0240172
908.221 .0240130
908.873 .0240083
909.525 .0240032
910.176 .0239975
910.828 .0239919
911.478 .0239863
912.129 .0239806
912.778 .0239751
913.428 .0239692
914.077 .0239631
914.726 .0239566
915.375 .0239497
916.023 .0239426
916.670 .0239358
917.318 .0239290
917.964 .0239220
918.611 .0239154
919.257 .0239086
919.903 .0239011
920.548 .0238930
921.193 .0238842
921.838 .0238747
922.482 .0238644
923.126 .0238543
923.770 .0238440
924.413 .0238341
925.056 .0238248
925.698 .0238160
926.340 .0238077
926.982 .0237995
927.623 .0237911
928.264 .0237827
928.904 .0237743
929.544 .0237658
930.184 .0237570
930.823 .0237485
931.462 .0237399
932.101 .0237307
932.739 .0237207
933.377 .0237094
934.014 .0236962
934.651 .0236818
935.288 .0236660
935.924 .0236498
936.560 .0236336
937.196 .0236173
937.831 .0236015
938.466 .0235860
939.100 .0235703
939.734 .0235541
940.368 .0235374
941.001 .0235207
941.634 .0235037
942.266 .0234872
942.899 .0234723
943.530 .0234588
944.162 .0234471
944.793 .0234368
945.423 .0234268
946.053 .0234165
946.683 .0234049
947.313 .0233916
947.942 .0233766
948.571 .0233596
949.199 .0233409
949.827 .0233211
950.455 .0233010
951.082 .0232807
951.709 .0232602
952.335 .0232405
952.961 .0232209
953.587 .0232010
954.212 .0231806
954.837 .0231595
955.462 .0231382
956.086 .0231168
956.710 .0230958
957.334 .0230756
957.957 .0230564
958.579 .0230379
959.202 .0230205
959.824 .0230041
960.445 .0229886
961.067 .0229736
961.688 .0229593
962.308 .0229455
962.928 .0229328
963.548 .0229213
964.168 .0229110
964.787 .0229022
965.406 .0228949
966.024 .0228886
966.642 .0228828
967.260 .0228779
967.877 .0228738
968.494 .0228698
969.110 .0228667
969.727 .0228639
970.342 .0228619
970.958 .0228609
971.573 .0228607
972.188 .0228610
972.802 .0228614
973.416 .0228611
974.030 .0228593
974.643 .0228560
975.256 .0228514
975.869 .0228452
976.481 .0228386
977.093 .0228321
977.705 .0228261
978.316 .0228206
978.927 .0228163
979.538 .0228123
980.148 .0228083
980.758 .0228033
981.367 .0227970
981.977 .0227899
982.586 .0227821
983.194 .0227743
983.802 .0227666
984.410 .0227596
985.018 .0227533
985.625 .0227473
986.232 .0227416
986.838 .0227360
987.445 .0227305
988.050 .0227248
988.656 .0227190
989.261 .0227137
989.866 .0227084
990.471 .0227038
991.075 .0226999
991.679 .0226960
992.282 .0226916
992.886 .0226867
993.489 .0226812
994.091 .0226752
994.694 .0226690
995.296 .0226627
995.897 .0226569
996.499 .0226515
997.100 .0226462
997.701 .0226413
998.301 .0226366
998.901 .0226318
999.501 .0226270
1000.101 .0226225
1000.700 .0226184
1001.299 .0226145
1001.898 .0226112
1002.496 .0226087
1003.094 .0226066
1003.692 .0226048
1004.289 .0226031
1004.887 .0226018
1005.484 .0226005
1006.080 .0225991
1006.677 .0225978
1007.273 .0225963
1007.868 .0225946
1008.464 .0225923
1009.059 .0225895
1009.654 .0225866
1010.249 .0225836
1010.843 .0225806
1011.437 .0225784
1012.031 .0225774
1012.625 .0225774
1013.218 .0225785
1013.811 .0225806
1014.404 .0225837
1014.997 .0225873
1015.589 .0225914
1016.181 .0225959
1016.773 .0226008
1017.365 .0226060
1017.956 .0226114
1018.547 .0226170
1019.138 .0226229
1019.728 .0226287
1020.319 .0226350
1020.909 .0226414
1021.499 .0226472
1022.088 .0226525
1022.678 .0226567
1023.267 .0226599
1023.856 .0226620
1024.445 .0226627
1025.033 .0226621
1025.621 .0226608
1026.209 .0226586
1026.797 .0226562
1027.385 .0226536
1027.972 .0226509
1028.560 .0226486
1029.147 .0226466
1029.734 .0226447
1030.320 .0226428
1030.907 .0226412
1031.493 .0226407
1032.079 .0226405
1032.665 .0226412
1033.250 .0226417
1033.836 .0226422
1034.421 .0226425
1035.006 .0226425
1035.591 .0226419
1036.176 .0226413
1036.761 .0226403
1037.345 .0226396
1037.929 .0226388
1038.514 .0226385
1039.097 .0226382
1039.681 .0226380
1040.265 .0226368
1040.848 .0226346
1041.432 .0226304
1042.015 .0226258
1042.598 .0226206
1043.181 .0226160
1043.764 .0226130
1044.346 .0226119
1044.929 .0226131
1045.511 .0226162
1046.094 .0226206
1046.676 .0226257
1047.258 .0226304
1047.840 .0226342
1048.422 .0226359
1049.003 .0226366
1049.585 .0226355
1050.166 .0226336
1050.748 .0226317
1051.329 .0226303
1051.910 .0226293
1052.491 .0226285
1053.072 .0226287
1053.653 .0226292
1054.234 .0226302
1054.815 .0226316
1055.396 .0226318
1055.976 .0226326
1056.557 .0226326
1057.138 .0226322
1057.718 .0226312
1058.298 .0226305
1058.879 .0226302
1059.459 .0226299
1060.039 .0226297
1060.620 .0226292
1061.200 .0226272
1061.780 .0226241
1062.360 .0226181
1062.940 .0226097
1063.520 .0225997
1064.101 .0225880
1064.681 .0225742
1065.261 .0225606
1065.841 .0225464
1066.421 .0225335
1067.001 .0225208
1067.581 .0225095
1068.161 .0224987
1068.741 .0224887
1069.321 .0224793
1069.901 .0224708
1070.482 .0224627
1071.062 .0224560
1071.642 .0224487
1072.222 .0224410
1072.803 .0224316
1073.383 .0224202
1073.963 .0224058
1074.544 .0223907
1075.124 .0223744
1075.705 .0223584
1076.286 .0223439
1076.866 .0223324
1077.447 .0223235
1078.028 .0223161
1078.609 .0223100
1079.190 .0223039
1079.771 .0222978
1080.352 .0222921
1080.934 .0222867
1081.515 .0222842
1082.097 .0222872
1082.679 .0222960
1083.260 .0223106
1083.842 .0223305
1084.424 .0223520
1085.007 .0223742
1085.589 .0223935
1086.172 .0224076
1086.754 .0224165
1087.337 .0224210
1087.920 .0224226
1088.503 .0224219
1089.087 .0224214
1089.670 .0224223
1090.254 .0224239
1090.838 .0224258
1091.422 .0224259
1092.006 .0224241
1092.590 .0224193
1093.175 .0224103
1093.760 .0223985
1094.345 .0223847
1094.930 .0223686
1095.516 .0223526
1096.102 .0223387
1096.688 .0223288
1097.274 .0223232
1097.860 .0223208
1098.447 .0223210
1099.034 .0223251
1099.622 .0223309
1100.209 .0223374
1100.797 .0223455
1101.385 .0223538
1101.973 .0223599
1102.562 .0223643
1103.151 .0223665
1103.740 .0223666
1104.330 .0223643
1104.920 .0223599
1105.510 .0223520
1106.101 .0223405
1106.691 .0223253
1107.283 .0223063
1107.874 .0222866
1108.466 .0222660
1109.058 .0222448
1109.651 .0222245
1110.244 .0222069
1110.837 .0221925
1111.431 .0221837
1112.025 .0221812
1112.620 .0221841
1113.215 .0221940
1113.810 .0222104
1114.406 .0222332
1115.002 .0222617
1115.599 .0222935
1116.196 .0223260
1116.793 .0223569
1117.391 .0223860
1117.989 .0224114
1118.588 .0224365
1119.187 .0224598
1119.787 .0224805
1120.387 .0224993
1120.988 .0225138
1121.589 .0225230
1122.190 .0225258
1122.793 .0225226
1123.395 .0225132
1123.998 .0225000
1124.602 .0224881
1125.206 .0224798
1125.811 .0224813
1126.416 .0224952
1127.022 .0225172
1127.628 .0225484
1128.235 .0225860
1128.843 .0226249
1129.451 .0226665
1130.059 .0227083
1130.669 .0227482
1131.278 .0227878
1131.889 .0228279
1132.500 .0228699
1133.112 .0229144
1133.724 .0229645
1134.337 .0230151
1134.950 .0230651
1135.564 .0231172
1136.179 .0231633
1136.795 .0232037
1137.411 .0232441
1138.028 .0232787
1138.645 .0233126
1139.263 .0233460
1139.882 .0233822
1140.502 .0234269
1141.122 .0234760
1141.743 .0235312
1142.365 .0235898
1142.987 .0236751
1143.611 .0238247
1144.235 .0237503
1144.859 .0238223
1145.485 .0239038
