Measurement Sequence started on: 10-20-44-796
Integration time: 35
Scans to Average: 2 
>>>>>Begin Spectral Data<<<<<
432.953 .0204616
433.882 .0360955
434.810 .0341163
435.737 .0330182
436.662 .0328933
437.586 .0327963
438.509 .0330943
439.431 .0329025
440.351 .0328048
441.269 .0327479
442.187 .0326914
443.103 .0326316
444.018 .0325823
444.932 .0325433
445.844 .0324993
446.756 .0324563
447.666 .0324224
448.575 .0323963
449.482 .0323756
450.388 .0323618
451.294 .0323543
452.198 .0323536
453.100 .0323475
454.002 .0323465
454.902 .0323354
455.801 .0323220
456.699 .0323058
457.596 .0322970
458.492 .0322908
459.387 .0322852
460.280 .0322826
461.172 .0322748
462.064 .0322621
462.954 .0322423
463.843 .0322126
464.730 .0321764
465.617 .0321340
466.503 .0320862
467.387 .0320308
468.271 .0319731
469.153 .0319156
470.035 .0318618
470.915 .0318131
471.794 .0317673
472.673 .0317261
473.550 .0316920
474.426 .0316694
475.301 .0316509
476.175 .0316414
477.048 .0316346
477.920 .0316300
478.791 .0316261
479.661 .0316233
480.530 .0316226
481.398 .0316245
482.266 .0316318
483.132 .0316431
483.997 .0316534
484.861 .0316649
485.724 .0316748
486.587 .0316843
487.448 .0316889
488.308 .0316864
489.168 .0316769
490.026 .0316649
490.884 .0316473
491.741 .0316246
492.597 .0315976
493.452 .0315661
494.306 .0315278
495.159 .0314814
496.011 .0314289
496.862 .0313695
497.713 .0313076
498.562 .0312446
499.411 .0311770
500.259 .0311074
501.106 .0310337
501.952 .0309596
502.798 .0308844
503.642 .0308076
504.486 .0307295
505.329 .0306519
506.171 .0305775
507.012 .0305050
507.852 .0304339
508.692 .0303660
509.531 .0302950
510.369 .0302220
511.206 .0301421
512.043 .0300515
512.878 .0299461
513.713 .0298297
514.547 .0297014
515.381 .0295661
516.213 .0294163
517.045 .0292552
517.876 .0290849
518.706 .0289059
519.536 .0287155
520.365 .0285178
521.193 .0283139
522.020 .0281129
522.847 .0279125
523.673 .0277234
524.498 .0275381
525.323 .0273722
526.146 .0272225
526.969 .0270863
527.792 .0269612
528.614 .0268424
529.435 .0267250
530.255 .0266154
531.075 .0265061
531.894 .0263973
532.712 .0262834
533.530 .0261777
534.347 .0260744
535.163 .0259764
535.979 .0258877
536.794 .0258117
537.608 .0257487
538.422 .0257007
539.235 .0256581
540.048 .0256150
540.860 .0255786
541.671 .0255483
542.481 .0255174
543.292 .0254901
544.101 .0254774
544.910 .0254791
545.718 .0254963
546.526 .0255339
547.333 .0255869
548.139 .0256529
548.945 .0257300
549.750 .0258033
550.555 .0258719
551.359 .0259333
552.162 .0259843
552.965 .0260243
553.768 .0260620
554.569 .0260973
555.371 .0261324
556.171 .0261717
556.972 .0262181
557.771 .0262654
558.570 .0263149
559.369 .0263621
560.167 .0264064
560.964 .0264461
561.761 .0264812
562.558 .0265132
563.354 .0265458
564.149 .0265789
564.944 .0266171
565.738 .0266605
566.532 .0267118
567.325 .0267699
568.118 .0268354
568.910 .0269051
569.702 .0269806
570.494 .0270594
571.285 .0271403
572.075 .0272245
572.865 .0273101
573.654 .0273946
574.443 .0274789
575.232 .0275656
576.020 .0276523
576.807 .0277394
577.594 .0278283
578.381 .0279143
579.167 .0279987
579.952 .0280788
580.738 .0281548
581.522 .0282272
582.307 .0282974
583.091 .0283657
583.874 .0284296
584.657 .0284900
585.440 .0285463
586.222 .0285954
587.004 .0286376
587.785 .0286718
588.566 .0286983
589.346 .0287172
590.126 .0287309
590.906 .0287403
591.685 .0287460
592.464 .0287489
593.242 .0287505
594.020 .0287494
594.797 .0287465
595.575 .0287427
596.351 .0287383
597.128 .0287341
597.904 .0287306
598.679 .0287278
599.454 .0287262
600.229 .0287252
601.004 .0287232
601.778 .0287187
602.551 .0287130
603.325 .0287050
604.097 .0286951
604.870 .0286847
605.642 .0286745
606.414 .0286647
607.185 .0286557
607.956 .0286490
608.727 .0286423
609.497 .0286349
610.267 .0286261
611.037 .0286148
611.806 .0286006
612.575 .0285833
613.344 .0285636
614.112 .0285435
614.880 .0285235
615.647 .0285034
616.414 .0284834
617.181 .0284647
617.948 .0284470
618.714 .0284294
619.480 .0284116
620.245 .0283939
621.011 .0283748
621.775 .0283551
622.540 .0283348
623.304 .0283150
624.068 .0282963
624.832 .0282792
625.595 .0282650
626.358 .0282533
627.120 .0282438
627.883 .0282362
628.645 .0282304
629.406 .0282251
630.168 .0282193
630.929 .0282123
631.689 .0282048
632.450 .0281962
633.210 .0281870
633.970 .0281771
634.729 .0281668
635.489 .0281563
636.248 .0281446
637.006 .0281316
637.765 .0281177
638.523 .0281021
639.280 .0280853
640.038 .0280677
640.795 .0280509
641.552 .0280344
642.309 .0280194
643.065 .0280060
643.821 .0279937
644.577 .0279816
645.332 .0279690
646.088 .0279549
646.843 .0279393
647.597 .0279220
648.352 .0279030
649.106 .0278838
649.860 .0278651
650.613 .0278470
651.367 .0278306
652.120 .0278158
652.872 .0278022
653.625 .0277889
654.377 .0277760
655.129 .0277627
655.881 .0277489
656.632 .0277346
657.384 .0277195
658.135 .0277044
658.885 .0276895
659.636 .0276743
660.386 .0276593
661.136 .0276448
661.885 .0276305
662.635 .0276165
663.384 .0276031
664.133 .0275896
664.881 .0275760
665.630 .0275620
666.378 .0275473
667.126 .0275313
667.874 .0275145
668.621 .0274968
669.368 .0274788
670.115 .0274609
670.862 .0274437
671.608 .0274280
672.354 .0274136
673.100 .0274000
673.846 .0273874
674.591 .0273748
675.337 .0273618
676.082 .0273480
676.826 .0273338
677.571 .0273185
678.315 .0273027
679.059 .0272860
679.803 .0272688
680.547 .0272511
681.290 .0272329
682.033 .0272132
682.776 .0271930
683.518 .0271722
684.261 .0271508
685.003 .0271293
685.745 .0271088
686.487 .0270890
687.228 .0270705
687.969 .0270527
688.710 .0270356
689.451 .0270185
690.192 .0270017
690.932 .0269846
691.672 .0269672
692.412 .0269502
693.152 .0269336
693.891 .0269173
694.630 .0269023
695.369 .0268875
696.108 .0268728
696.846 .0268580
697.585 .0268428
698.323 .0268267
699.061 .0268102
699.798 .0267933
700.536 .0267768
701.273 .0267609
702.010 .0267460
702.746 .0267319
703.483 .0267187
704.219 .0267060
704.955 .0266935
705.691 .0266808
706.427 .0266674
707.162 .0266532
707.897 .0266387
708.632 .0266233
709.367 .0266077
710.101 .0265916
710.835 .0265755
711.569 .0265590
712.303 .0265422
713.037 .0265253
713.770 .0265084
714.503 .0264912
715.236 .0264741
715.969 .0264567
716.702 .0264393
717.434 .0264218
718.166 .0264040
718.898 .0263866
719.629 .0263700
720.361 .0263537
721.092 .0263385
721.823 .0263244
722.554 .0263120
723.284 .0263006
724.014 .0262897
724.744 .0262788
725.474 .0262669
726.204 .0262539
726.933 .0262393
727.662 .0262231
728.391 .0262066
729.120 .0261899
729.849 .0261740
730.577 .0261597
731.305 .0261470
732.033 .0261365
732.760 .0261278
733.488 .0261204
734.215 .0261128
734.942 .0261047
735.669 .0260958
736.395 .0260859
737.122 .0260754
737.848 .0260643
738.573 .0260530
739.299 .0260422
740.024 .0260321
740.750 .0260225
741.474 .0260133
742.199 .0260042
742.924 .0259947
743.648 .0259845
744.372 .0259731
745.096 .0259610
745.819 .0259485
746.543 .0259362
747.266 .0259246
747.989 .0259138
748.711 .0259046
749.434 .0258970
750.156 .0258906
750.878 .0258850
751.599 .0258804
752.321 .0258761
753.042 .0258723
753.763 .0258693
754.484 .0258668
755.205 .0258646
755.925 .0258629
756.645 .0258611
757.365 .0258591
758.085 .0258566
758.804 .0258531
759.523 .0258483
760.242 .0258422
760.961 .0258345
761.679 .0258251
762.397 .0258140
763.115 .0258016
763.833 .0257871
764.551 .0257704
765.268 .0257514
765.985 .0257307
766.702 .0257081
767.418 .0256847
768.134 .0256608
768.850 .0256367
769.566 .0256130
770.282 .0255902
770.997 .0255679
771.712 .0255465
772.427 .0255262
773.142 .0255065
773.856 .0254873
774.570 .0254692
775.284 .0254522
775.998 .0254369
776.711 .0254238
777.424 .0254121
778.137 .0254015
778.849 .0253918
779.562 .0253822
780.274 .0253724
780.986 .0253627
781.697 .0253522
782.409 .0253410
783.120 .0253298
783.831 .0253184
784.541 .0253071
785.252 .0252963
785.962 .0252862
786.671 .0252763
787.381 .0252665
788.090 .0252566
788.799 .0252458
789.508 .0252349
790.217 .0252232
790.925 .0252105
791.633 .0251972
792.341 .0251830
793.048 .0251682
793.755 .0251528
794.462 .0251373
795.169 .0251212
795.875 .0251052
796.581 .0250892
797.287 .0250728
797.993 .0250565
798.698 .0250408
799.403 .0250253
800.108 .0250103
800.812 .0249961
801.517 .0249826
802.221 .0249699
802.924 .0249579
803.628 .0249465
804.331 .0249358
805.034 .0249255
805.736 .0249150
806.439 .0249042
807.141 .0248933
807.843 .0248823
808.544 .0248708
809.245 .0248594
809.946 .0248477
810.647 .0248358
811.347 .0248238
812.047 .0248112
812.747 .0247986
813.447 .0247859
814.146 .0247731
814.845 .0247608
815.543 .0247492
816.242 .0247382
816.940 .0247278
817.638 .0247180
818.335 .0247084
819.032 .0246983
819.729 .0246874
820.426 .0246751
821.122 .0246614
821.818 .0246461
822.514 .0246292
823.209 .0246114
823.905 .0245931
824.599 .0245744
825.294 .0245553
825.988 .0245364
826.682 .0245174
827.376 .0244985
828.069 .0244794
828.762 .0244602
829.455 .0244410
830.147 .0244223
830.840 .0244044
831.531 .0243877
832.223 .0243727
832.914 .0243591
833.605 .0243467
834.296 .0243353
834.986 .0243244
835.676 .0243137
836.366 .0243029
837.055 .0242920
837.744 .0242806
838.433 .0242688
839.121 .0242569
839.809 .0242453
840.497 .0242342
841.185 .0242240
841.872 .0242149
842.559 .0242067
843.245 .0241994
843.932 .0241928
844.617 .0241869
845.303 .0241816
845.988 .0241767
846.673 .0241719
847.358 .0241674
848.042 .0241634
848.726 .0241595
849.410 .0241560
850.093 .0241527
850.776 .0241494
851.459 .0241457
852.141 .0241412
852.823 .0241362
853.505 .0241306
854.186 .0241248
854.867 .0241190
855.548 .0241126
856.228 .0241065
856.908 .0241004
857.588 .0240946
858.267 .0240890
858.946 .0240836
859.625 .0240782
860.303 .0240726
860.981 .0240667
861.659 .0240606
862.336 .0240541
863.013 .0240484
863.690 .0240431
864.366 .0240387
865.042 .0240353
865.718 .0240323
866.393 .0240297
867.068 .0240277
867.743 .0240255
868.417 .0240228
869.091 .0240191
869.765 .0240148
870.438 .0240099
871.111 .0240050
871.783 .0240004
872.456 .0239968
873.127 .0239941
873.799 .0239922
874.470 .0239902
875.141 .0239883
875.811 .0239856
876.481 .0239814
877.151 .0239759
877.820 .0239690
878.489 .0239608
879.158 .0239518
879.826 .0239429
880.494 .0239348
881.162 .0239274
881.829 .0239207
882.496 .0239146
883.163 .0239089
883.829 .0239030
884.495 .0238969
885.160 .0238912
885.825 .0238857
886.490 .0238808
887.154 .0238770
887.818 .0238746
888.482 .0238736
889.145 .0238740
889.808 .0238756
890.471 .0238783
891.133 .0238814
891.795 .0238845
892.456 .0238874
893.117 .0238903
893.778 .0238930
894.439 .0238952
895.099 .0238975
895.758 .0238998
896.417 .0239020
897.076 .0239038
897.735 .0239053
898.393 .0239063
899.051 .0239064
899.708 .0239056
900.365 .0239038
901.022 .0239011
901.678 .0238977
902.334 .0238938
902.990 .0238896
903.645 .0238856
904.300 .0238819
904.954 .0238784
905.608 .0238751
906.262 .0238718
906.915 .0238680
907.568 .0238634
908.221 .0238581
908.873 .0238519
909.525 .0238448
910.176 .0238372
910.828 .0238294
911.478 .0238217
912.129 .0238143
912.778 .0238074
913.428 .0238010
914.077 .0237947
914.726 .0237882
915.375 .0237812
916.023 .0237739
916.670 .0237663
917.318 .0237585
917.964 .0237507
918.611 .0237434
919.257 .0237365
919.903 .0237300
920.548 .0237244
921.193 .0237195
921.838 .0237152
922.482 .0237116
923.126 .0237086
923.770 .0237059
924.413 .0237033
925.056 .0237008
925.698 .0236986
926.340 .0236970
926.982 .0236956
927.623 .0236941
928.264 .0236927
928.904 .0236910
929.544 .0236887
930.184 .0236855
930.823 .0236810
931.462 .0236744
932.101 .0236661
932.739 .0236555
933.377 .0236428
934.014 .0236283
934.651 .0236127
935.288 .0235963
935.924 .0235795
936.560 .0235622
937.196 .0235445
937.831 .0235264
938.466 .0235083
939.100 .0234894
939.734 .0234705
940.368 .0234514
941.001 .0234326
941.634 .0234147
942.266 .0233977
942.899 .0233815
943.530 .0233660
944.162 .0233511
944.793 .0233357
945.423 .0233187
946.053 .0233001
946.683 .0232798
947.313 .0232583
947.942 .0232361
948.571 .0232136
949.199 .0231918
949.827 .0231708
950.455 .0231509
951.082 .0231315
951.709 .0231125
952.335 .0230933
952.961 .0230734
953.587 .0230524
954.212 .0230307
954.837 .0230090
955.462 .0229880
956.086 .0229686
956.710 .0229513
957.334 .0229356
957.957 .0229211
958.579 .0229069
959.202 .0228922
959.824 .0228758
960.445 .0228581
961.067 .0228388
961.688 .0228185
962.308 .0227980
962.928 .0227782
963.548 .0227594
964.168 .0227420
964.787 .0227258
965.406 .0227099
966.024 .0226945
966.642 .0226793
967.260 .0226640
967.877 .0226491
968.494 .0226348
969.110 .0226212
969.727 .0226084
970.342 .0225964
970.958 .0225851
971.573 .0225744
972.188 .0225639
972.802 .0225533
973.416 .0225425
974.030 .0225314
974.643 .0225203
975.256 .0225088
975.869 .0224971
976.481 .0224853
977.093 .0224737
977.705 .0224617
978.316 .0224500
978.927 .0224385
979.538 .0224272
980.148 .0224160
980.758 .0224054
981.367 .0223952
981.977 .0223857
982.586 .0223770
983.194 .0223690
983.802 .0223621
984.410 .0223562
985.018 .0223510
985.625 .0223467
986.232 .0223427
986.838 .0223384
987.445 .0223335
988.050 .0223280
988.656 .0223212
989.261 .0223131
989.866 .0223039
990.471 .0222938
991.075 .0222835
991.679 .0222727
992.282 .0222615
992.886 .0222507
993.489 .0222397
994.091 .0222283
994.694 .0222163
995.296 .0222036
995.897 .0221899
996.499 .0221754
997.100 .0221603
997.701 .0221450
998.301 .0221305
998.901 .0221174
999.501 .0221057
1000.101 .0220959
1000.700 .0220876
1001.299 .0220800
1001.898 .0220727
1002.496 .0220651
1003.094 .0220562
1003.692 .0220459
1004.289 .0220347
1004.887 .0220232
1005.484 .0220128
1006.080 .0220040
1006.677 .0219976
1007.273 .0219932
1007.868 .0219908
1008.464 .0219894
1009.059 .0219883
1009.654 .0219869
1010.249 .0219848
1010.843 .0219817
1011.437 .0219783
1012.031 .0219746
1012.625 .0219715
1013.218 .0219703
1013.811 .0219714
1014.404 .0219743
1014.997 .0219792
1015.589 .0219848
1016.181 .0219912
1016.773 .0219970
1017.365 .0220027
1017.956 .0220072
1018.547 .0220105
1019.138 .0220123
1019.728 .0220125
1020.319 .0220113
1020.909 .0220093
1021.499 .0220060
1022.088 .0220019
1022.678 .0219966
1023.267 .0219898
1023.856 .0219814
1024.445 .0219722
1025.033 .0219622
1025.621 .0219517
1026.209 .0219406
1026.797 .0219295
1027.385 .0219183
1027.972 .0219081
1028.560 .0218997
1029.147 .0218925
1029.734 .0218876
1030.320 .0218846
1030.907 .0218830
1031.493 .0218833
1032.079 .0218852
1032.665 .0218887
1033.250 .0218929
1033.836 .0218983
1034.421 .0219037
1035.006 .0219089
1035.591 .0219142
1036.176 .0219191
1036.761 .0219237
1037.345 .0219279
1037.929 .0219310
1038.514 .0219326
1039.097 .0219330
1039.681 .0219325
1040.265 .0219308
1040.848 .0219282
1041.432 .0219249
1042.015 .0219211
1042.598 .0219172
1043.181 .0219142
1043.764 .0219116
1044.346 .0219100
1044.929 .0219095
1045.511 .0219090
1046.094 .0219086
1046.676 .0219077
1047.258 .0219069
1047.840 .0219062
1048.422 .0219051
1049.003 .0219043
1049.585 .0219038
1050.166 .0219044
1050.748 .0219056
1051.329 .0219075
1051.910 .0219106
1052.491 .0219130
1053.072 .0219146
1053.653 .0219148
1054.234 .0219132
1054.815 .0219102
1055.396 .0219063
1055.976 .0219011
1056.557 .0218956
1057.138 .0218907
1057.718 .0218872
1058.298 .0218851
1058.879 .0218857
1059.459 .0218881
1060.039 .0218917
1060.620 .0218959
1061.200 .0218999
1061.780 .0219031
1062.360 .0219062
1062.940 .0219082
1063.520 .0219094
1064.101 .0219094
1064.681 .0219092
1065.261 .0219085
1065.841 .0219068
1066.421 .0219058
1067.001 .0219039
1067.581 .0219004
1068.161 .0218964
1068.741 .0218925
1069.321 .0218886
1069.901 .0218857
1070.482 .0218851
1071.062 .0218869
1071.642 .0218912
1072.222 .0218984
1072.803 .0219082
1073.383 .0219217
1073.963 .0219379
1074.544 .0219553
1075.124 .0219734
1075.705 .0219930
1076.286 .0220110
1076.866 .0220287
1077.447 .0220453
1078.028 .0220612
1078.609 .0220746
1079.190 .0220865
1079.771 .0220964
1080.352 .0221038
1080.934 .0221077
1081.515 .0221081
1082.097 .0221049
1082.679 .0220988
1083.260 .0220888
1083.842 .0220793
1084.424 .0220691
1085.007 .0220609
1085.589 .0220539
1086.172 .0220507
1086.754 .0220498
1087.337 .0220507
1087.920 .0220512
1088.503 .0220522
1089.087 .0220527
1089.670 .0220531
1090.254 .0220529
1090.838 .0220558
1091.422 .0220602
1092.006 .0220664
1092.590 .0220746
1093.175 .0220852
1093.760 .0220950
1094.345 .0221055
1094.930 .0221137
1095.516 .0221225
1096.102 .0221306
1096.688 .0221407
1097.274 .0221534
1097.860 .0221695
1098.447 .0221882
1099.034 .0222066
1099.622 .0222243
1100.209 .0222402
1100.797 .0222526
1101.385 .0222625
1101.973 .0222708
1102.562 .0222784
1103.151 .0222854
1103.740 .0222957
1104.330 .0223071
1104.920 .0223198
1105.510 .0223304
1106.101 .0223376
1106.691 .0223399
1107.283 .0223373
1107.874 .0223319
1108.466 .0223241
1109.058 .0223197
1109.651 .0223184
1110.244 .0223208
1110.837 .0223276
1111.431 .0223361
1112.025 .0223467
1112.620 .0223572
1113.215 .0223664
1113.810 .0223716
1114.406 .0223768
1115.002 .0223832
1115.599 .0223916
1116.196 .0224031
1116.793 .0224161
1117.391 .0224292
1117.989 .0224394
1118.588 .0224441
1119.187 .0224406
1119.787 .0224318
1120.387 .0224187
1120.988 .0224021
1121.589 .0223864
1122.190 .0223706
1122.793 .0223580
1123.395 .0223482
1123.998 .0223426
1124.602 .0223381
1125.206 .0223327
1125.811 .0223288
1126.416 .0223255
1127.022 .0223242
1127.628 .0223282
1128.235 .0223379
1128.843 .0223562
1129.451 .0223796
1130.059 .0224073
1130.669 .0224378
1131.278 .0224698
1131.889 .0224999
1132.500 .0225250
1133.112 .0225444
1133.724 .0225596
1134.337 .0225691
1134.950 .0225747
1135.564 .0225816
1136.179 .0225896
1136.795 .0226021
1137.411 .0226179
1138.028 .0226358
1138.645 .0226592
1139.263 .0226870
1139.882 .0227152
1140.502 .0227547
1141.122 .0228025
1141.743 .0228625
1142.365 .0229350
1142.987 .0228440
1143.611 .0231872
1144.235 .0232399
1144.859 .0233366
1145.485 .0234794
