Measurement Sequence started on: 10-20-44-796
Integration time: 35
Scans to Average: 2 
>>>>>Begin Spectral Data<<<<<
432.953 .0277567
433.882 .0185806
434.810 .0203492
435.737 .0255652
436.662 .0273076
437.586 .0276878
438.509 .0286197
439.431 .0296342
440.351 .0303819
441.269 .0308403
442.187 .0311842
443.103 .0314577
444.018 .0316466
444.932 .0318160
445.844 .0319493
446.756 .0320242
447.666 .0320402
448.575 .0319912
449.482 .0319148
450.388 .0318257
451.294 .0317540
452.198 .0316958
453.100 .0316601
454.002 .0316492
454.902 .0316675
455.801 .0316985
456.699 .0317364
457.596 .0317696
458.492 .0317948
459.387 .0318063
460.280 .0318089
461.172 .0318047
462.064 .0317969
462.954 .0317868
463.843 .0317772
464.730 .0317599
465.617 .0317396
466.503 .0317150
467.387 .0316911
468.271 .0316615
469.153 .0316263
470.035 .0315833
470.915 .0315385
471.794 .0314911
472.673 .0314384
473.550 .0313819
474.426 .0313263
475.301 .0312779
476.175 .0312340
477.048 .0311968
477.920 .0311716
478.791 .0311527
479.661 .0311413
480.530 .0311332
481.398 .0311239
482.266 .0311146
483.132 .0311065
483.997 .0310967
484.861 .0310856
485.724 .0310762
486.587 .0310721
487.448 .0310675
488.308 .0310619
489.168 .0310551
490.026 .0310412
490.884 .0310266
491.741 .0310090
492.597 .0309834
493.452 .0309618
494.306 .0309382
495.159 .0309166
496.011 .0308951
496.862 .0308742
497.713 .0308480
498.562 .0308156
499.411 .0307738
500.259 .0307190
501.106 .0306504
501.952 .0305820
502.798 .0305068
503.642 .0304324
504.486 .0303568
505.329 .0302781
506.171 .0301990
507.012 .0301201
507.852 .0300293
508.692 .0299305
509.531 .0298162
510.369 .0296897
511.206 .0295479
512.043 .0294024
512.878 .0292516
513.713 .0290989
514.547 .0289495
515.381 .0288006
516.213 .0286487
517.045 .0285074
517.876 .0283650
518.706 .0282227
519.536 .0280739
520.365 .0279084
521.193 .0277237
522.020 .0275260
522.847 .0273134
523.673 .0270862
524.498 .0268496
525.323 .0266143
526.146 .0263775
526.969 .0261528
527.792 .0259458
528.614 .0257558
529.435 .0255820
530.255 .0254185
531.075 .0252534
531.894 .0250944
532.712 .0249430
533.530 .0247995
534.347 .0246720
535.163 .0245630
535.979 .0244783
536.794 .0244193
537.608 .0243852
538.422 .0243786
539.235 .0243848
540.048 .0243963
540.860 .0244051
541.671 .0244159
542.481 .0244287
543.292 .0244461
544.101 .0244734
544.910 .0245203
545.718 .0245781
546.526 .0246497
547.333 .0247384
548.139 .0248404
548.945 .0249608
549.750 .0250836
550.555 .0252132
551.359 .0253491
552.162 .0254860
552.965 .0256176
553.768 .0257358
554.569 .0258494
555.371 .0259436
556.171 .0260171
556.972 .0260826
557.771 .0261365
558.570 .0261844
559.369 .0262233
560.167 .0262622
560.964 .0262939
561.761 .0263252
562.558 .0263510
563.354 .0263741
564.149 .0264006
564.944 .0264275
565.738 .0264559
566.532 .0264912
567.325 .0265384
568.118 .0265912
568.910 .0266519
569.702 .0267247
570.494 .0268043
571.285 .0268879
572.075 .0269763
572.865 .0270672
573.654 .0271551
574.443 .0272396
575.232 .0273209
576.020 .0273960
576.807 .0274681
577.594 .0275370
578.381 .0276048
579.167 .0276718
579.952 .0277420
580.738 .0278134
581.522 .0278874
582.307 .0279618
583.091 .0280333
583.874 .0280991
584.657 .0281611
585.440 .0282156
586.222 .0282615
587.004 .0283011
587.785 .0283357
588.566 .0283638
589.346 .0283895
590.126 .0284135
590.906 .0284340
591.685 .0284533
592.464 .0284707
593.242 .0284857
594.020 .0284971
594.797 .0285040
595.575 .0285079
596.351 .0285089
597.128 .0285075
597.904 .0285031
598.679 .0284964
599.454 .0284889
600.229 .0284792
601.004 .0284683
601.778 .0284566
602.551 .0284439
603.325 .0284303
604.097 .0284168
604.870 .0284019
605.642 .0283873
606.414 .0283723
607.185 .0283573
607.956 .0283428
608.727 .0283278
609.497 .0283122
610.267 .0282964
611.037 .0282805
611.806 .0282651
612.575 .0282507
613.344 .0282381
614.112 .0282269
614.880 .0282172
615.647 .0282093
616.414 .0282019
617.181 .0281948
617.948 .0281879
618.714 .0281799
619.480 .0281721
620.245 .0281642
621.011 .0281554
621.775 .0281472
622.540 .0281398
623.304 .0281326
624.068 .0281255
624.832 .0281185
625.595 .0281107
626.358 .0281022
627.120 .0280934
627.883 .0280838
628.645 .0280741
629.406 .0280643
630.168 .0280539
630.929 .0280423
631.689 .0280308
632.450 .0280164
633.210 .0280007
633.970 .0279833
634.729 .0279651
635.489 .0279458
636.248 .0279255
637.006 .0279048
637.765 .0278836
638.523 .0278615
639.280 .0278387
640.038 .0278136
640.795 .0277885
641.552 .0277619
642.309 .0277362
643.065 .0277114
643.821 .0276889
644.577 .0276676
645.332 .0276490
646.088 .0276325
646.843 .0276177
647.597 .0276036
648.352 .0275912
649.106 .0275803
649.860 .0275707
650.613 .0275626
651.367 .0275565
652.120 .0275523
652.872 .0275505
653.625 .0275489
654.377 .0275480
655.129 .0275464
655.881 .0275443
656.632 .0275407
657.384 .0275355
658.135 .0275288
658.885 .0275203
659.636 .0275104
660.386 .0274988
661.136 .0274854
661.885 .0274709
662.635 .0274560
663.384 .0274415
664.133 .0274275
664.881 .0274140
665.630 .0274014
666.378 .0273894
667.126 .0273768
667.874 .0273628
668.621 .0273472
669.368 .0273297
670.115 .0273105
670.862 .0272905
671.608 .0272709
672.354 .0272530
673.100 .0272379
673.846 .0272253
674.591 .0272148
675.337 .0272058
676.082 .0271963
676.826 .0271853
677.571 .0271723
678.315 .0271572
679.059 .0271403
679.803 .0271233
680.547 .0271069
681.290 .0270918
682.033 .0270790
682.776 .0270681
683.518 .0270584
684.261 .0270490
685.003 .0270390
685.745 .0270265
686.487 .0270118
687.228 .0269944
687.969 .0269747
688.710 .0269541
689.451 .0269331
690.192 .0269120
690.932 .0268921
691.672 .0268737
692.412 .0268566
693.152 .0268406
693.891 .0268263
694.630 .0268120
695.369 .0267978
696.108 .0267827
696.846 .0267663
697.585 .0267483
698.323 .0267300
699.061 .0267106
699.798 .0266916
700.536 .0266731
701.273 .0266554
702.010 .0266393
702.746 .0266245
703.483 .0266103
704.219 .0265957
704.955 .0265806
705.691 .0265643
706.427 .0265465
707.162 .0265282
707.897 .0265097
708.632 .0264923
709.367 .0264759
710.101 .0264607
710.835 .0264467
711.569 .0264341
712.303 .0264221
713.037 .0264101
713.770 .0263980
714.503 .0263857
715.236 .0263734
715.969 .0263610
716.702 .0263489
717.434 .0263378
718.166 .0263270
718.898 .0263168
719.629 .0263069
720.361 .0262973
721.092 .0262882
721.823 .0262793
722.554 .0262706
723.284 .0262617
724.014 .0262523
724.744 .0262413
725.474 .0262287
726.204 .0262139
726.933 .0261967
727.662 .0261768
728.391 .0261553
729.120 .0261320
729.849 .0261084
730.577 .0260849
731.305 .0260619
732.033 .0260400
732.760 .0260194
733.488 .0259994
734.215 .0259802
734.942 .0259621
735.669 .0259452
736.395 .0259291
737.122 .0259147
737.848 .0259017
738.573 .0258907
739.299 .0258809
740.024 .0258724
740.750 .0258644
741.474 .0258572
742.199 .0258498
742.924 .0258417
743.648 .0258335
744.372 .0258252
745.096 .0258168
745.819 .0258080
746.543 .0257993
747.266 .0257907
747.989 .0257816
748.711 .0257724
749.434 .0257630
750.156 .0257548
750.878 .0257475
751.599 .0257413
752.321 .0257368
753.042 .0257344
753.763 .0257337
754.484 .0257341
755.205 .0257355
755.925 .0257368
756.645 .0257372
757.365 .0257366
758.085 .0257346
758.804 .0257313
759.523 .0257263
760.242 .0257204
760.961 .0257137
761.679 .0257070
762.397 .0256996
763.115 .0256916
763.833 .0256834
764.551 .0256743
765.268 .0256634
765.985 .0256508
766.702 .0256364
767.418 .0256211
768.134 .0256039
768.850 .0255858
769.566 .0255670
770.282 .0255481
770.997 .0255293
771.712 .0255104
772.427 .0254916
773.142 .0254731
773.856 .0254542
774.570 .0254351
775.284 .0254155
775.998 .0253960
776.711 .0253765
777.424 .0253574
778.137 .0253390
778.849 .0253211
779.562 .0253038
780.274 .0252873
780.986 .0252707
781.697 .0252540
782.409 .0252373
783.120 .0252204
783.831 .0252040
784.541 .0251879
785.252 .0251727
785.962 .0251587
786.671 .0251454
787.381 .0251326
788.090 .0251202
788.799 .0251080
789.508 .0250955
790.217 .0250822
790.925 .0250688
791.633 .0250543
792.341 .0250390
793.048 .0250234
793.755 .0250070
794.462 .0249899
795.169 .0249723
795.875 .0249544
796.581 .0249366
797.287 .0249190
797.993 .0249018
798.698 .0248848
799.403 .0248687
800.108 .0248524
800.812 .0248353
801.517 .0248186
802.221 .0248017
802.924 .0247841
803.628 .0247666
804.331 .0247498
805.034 .0247337
805.736 .0247189
806.439 .0247051
807.141 .0246926
807.843 .0246816
808.544 .0246709
809.245 .0246593
809.946 .0246471
810.647 .0246344
811.347 .0246208
812.047 .0246069
812.747 .0245939
813.447 .0245808
814.146 .0245686
814.845 .0245571
815.543 .0245459
816.242 .0245354
816.940 .0245252
817.638 .0245146
818.335 .0245039
819.032 .0244925
819.729 .0244800
820.426 .0244665
821.122 .0244523
821.818 .0244371
822.514 .0244205
823.209 .0244028
823.905 .0243845
824.599 .0243659
825.294 .0243476
825.988 .0243296
826.682 .0243125
827.376 .0242961
828.069 .0242802
828.762 .0242643
829.455 .0242483
830.147 .0242325
830.840 .0242169
831.531 .0242013
832.223 .0241867
832.914 .0241736
833.605 .0241613
834.296 .0241506
834.986 .0241415
835.676 .0241330
836.366 .0241247
837.055 .0241161
837.744 .0241070
838.433 .0240975
839.121 .0240879
839.809 .0240783
840.497 .0240695
841.185 .0240622
841.872 .0240554
842.559 .0240494
843.245 .0240442
843.932 .0240388
844.617 .0240333
845.303 .0240275
845.988 .0240208
846.673 .0240138
847.358 .0240063
848.042 .0239985
848.726 .0239908
849.410 .0239837
850.093 .0239765
850.776 .0239696
851.459 .0239628
852.141 .0239555
852.823 .0239478
853.505 .0239401
854.186 .0239320
854.867 .0239239
855.548 .0239162
856.228 .0239088
856.908 .0239024
857.588 .0238974
858.267 .0238933
858.946 .0238901
859.625 .0238879
860.303 .0238860
860.981 .0238836
861.659 .0238808
862.336 .0238766
863.013 .0238711
863.690 .0238647
864.366 .0238572
865.042 .0238499
865.718 .0238432
866.393 .0238375
867.068 .0238326
867.743 .0238284
868.417 .0238247
869.091 .0238203
869.765 .0238153
870.438 .0238094
871.111 .0238025
871.783 .0237953
872.456 .0237881
873.127 .0237822
873.799 .0237780
874.470 .0237751
875.141 .0237742
875.811 .0237745
876.481 .0237750
877.151 .0237748
877.820 .0237734
878.489 .0237708
879.158 .0237670
879.826 .0237617
880.494 .0237554
881.162 .0237487
881.829 .0237427
882.496 .0237364
883.163 .0237307
883.829 .0237253
884.495 .0237197
885.160 .0237145
885.825 .0237096
886.490 .0237046
887.154 .0237003
887.818 .0236968
888.482 .0236943
889.145 .0236923
889.808 .0236911
890.471 .0236903
891.133 .0236904
891.795 .0236907
892.456 .0236909
893.117 .0236904
893.778 .0236900
894.439 .0236888
895.099 .0236864
895.758 .0236826
896.417 .0236778
897.076 .0236721
897.735 .0236656
898.393 .0236585
899.051 .0236516
899.708 .0236448
900.365 .0236388
901.022 .0236335
901.678 .0236285
902.334 .0236241
902.990 .0236208
903.645 .0236183
904.300 .0236173
904.954 .0236176
905.608 .0236188
906.262 .0236217
906.915 .0236257
907.568 .0236297
908.221 .0236333
908.873 .0236369
909.525 .0236395
910.176 .0236401
910.828 .0236397
911.478 .0236379
912.129 .0236343
912.778 .0236298
913.428 .0236234
914.077 .0236160
914.726 .0236078
915.375 .0235980
916.023 .0235867
916.670 .0235746
917.318 .0235618
917.964 .0235481
918.611 .0235334
919.257 .0235188
919.903 .0235036
920.548 .0234884
921.193 .0234737
921.838 .0234600
922.482 .0234479
923.126 .0234375
923.770 .0234289
924.413 .0234226
925.056 .0234181
925.698 .0234149
926.340 .0234131
926.982 .0234122
927.623 .0234115
928.264 .0234108
928.904 .0234101
929.544 .0234097
930.184 .0234091
930.823 .0234086
931.462 .0234073
932.101 .0234052
932.739 .0234013
933.377 .0233944
934.014 .0233850
934.651 .0233731
935.288 .0233589
935.924 .0233427
936.560 .0233255
937.196 .0233078
937.831 .0232903
938.466 .0232734
939.100 .0232570
939.734 .0232409
940.368 .0232249
941.001 .0232080
941.634 .0231903
942.266 .0231718
942.899 .0231530
943.530 .0231339
944.162 .0231155
944.793 .0230976
945.423 .0230805
946.053 .0230636
946.683 .0230470
947.313 .0230303
947.942 .0230132
948.571 .0229948
949.199 .0229752
949.827 .0229538
950.455 .0229311
951.082 .0229076
951.709 .0228837
952.335 .0228592
952.961 .0228352
953.587 .0228112
954.212 .0227877
954.837 .0227651
955.462 .0227436
956.086 .0227225
956.710 .0227023
957.334 .0226828
957.957 .0226630
958.579 .0226432
959.202 .0226241
959.824 .0226052
960.445 .0225874
961.067 .0225715
961.688 .0225572
962.308 .0225451
962.928 .0225355
963.548 .0225271
964.168 .0225190
964.787 .0225114
965.406 .0225025
966.024 .0224919
966.642 .0224801
967.260 .0224673
967.877 .0224531
968.494 .0224390
969.110 .0224248
969.727 .0224101
970.342 .0223950
970.958 .0223796
971.573 .0223627
972.188 .0223453
972.802 .0223270
973.416 .0223082
974.030 .0222899
974.643 .0222729
975.256 .0222573
975.869 .0222434
976.481 .0222317
977.093 .0222221
977.705 .0222135
978.316 .0222063
978.927 .0221998
979.538 .0221933
980.148 .0221867
980.758 .0221807
981.367 .0221748
981.977 .0221691
982.586 .0221633
983.194 .0221572
983.802 .0221501
984.410 .0221419
985.018 .0221319
985.625 .0221196
986.232 .0221065
986.838 .0220921
987.445 .0220768
988.050 .0220621
988.656 .0220483
989.261 .0220359
989.866 .0220245
990.471 .0220142
991.075 .0220037
991.679 .0219930
992.282 .0219817
992.886 .0219696
993.489 .0219580
994.091 .0219477
994.694 .0219389
995.296 .0219324
995.897 .0219277
996.499 .0219237
997.100 .0219202
997.701 .0219165
998.301 .0219114
998.901 .0219045
999.501 .0218958
1000.101 .0218866
1000.700 .0218770
1001.299 .0218674
1001.898 .0218588
1002.496 .0218514
1003.094 .0218450
1003.692 .0218384
1004.289 .0218317
1004.887 .0218246
1005.484 .0218173
1006.080 .0218098
1006.677 .0218029
1007.273 .0217965
1007.868 .0217915
1008.464 .0217877
1009.059 .0217854
1009.654 .0217842
1010.249 .0217833
1010.843 .0217830
1011.437 .0217833
1012.031 .0217830
1012.625 .0217826
1013.218 .0217822
1013.811 .0217817
1014.404 .0217804
1014.997 .0217786
1015.589 .0217760
1016.181 .0217732
1016.773 .0217699
1017.365 .0217665
1017.956 .0217631
1018.547 .0217605
1019.138 .0217580
1019.728 .0217555
1020.319 .0217535
1020.909 .0217507
1021.499 .0217469
1022.088 .0217423
1022.678 .0217373
1023.267 .0217321
1023.856 .0217269
1024.445 .0217222
1025.033 .0217178
1025.621 .0217137
1026.209 .0217096
1026.797 .0217055
1027.385 .0217008
1027.972 .0216954
1028.560 .0216890
1029.147 .0216823
1029.734 .0216762
1030.320 .0216708
1030.907 .0216675
1031.493 .0216662
1032.079 .0216676
1032.665 .0216708
1033.250 .0216753
1033.836 .0216808
1034.421 .0216864
1035.006 .0216927
1035.591 .0216992
1036.176 .0217056
1036.761 .0217116
1037.345 .0217183
1037.929 .0217249
1038.514 .0217315
1039.097 .0217374
1039.681 .0217427
1040.265 .0217467
1040.848 .0217501
1041.432 .0217519
1042.015 .0217529
1042.598 .0217547
1043.181 .0217575
1043.764 .0217608
1044.346 .0217661
1044.929 .0217724
1045.511 .0217801
1046.094 .0217886
1046.676 .0217977
1047.258 .0218065
1047.840 .0218151
1048.422 .0218217
1049.003 .0218270
1049.585 .0218307
1050.166 .0218328
1050.748 .0218326
1051.329 .0218312
1051.910 .0218290
1052.491 .0218245
1053.072 .0218192
1053.653 .0218138
1054.234 .0218082
1054.815 .0218023
1055.396 .0217958
1055.976 .0217889
1056.557 .0217816
1057.138 .0217745
1057.718 .0217666
1058.298 .0217601
1058.879 .0217564
1059.459 .0217542
1060.039 .0217547
1060.620 .0217580
1061.200 .0217636
1061.780 .0217692
1062.360 .0217750
1062.940 .0217804
1063.520 .0217844
1064.101 .0217884
1064.681 .0217918
1065.261 .0217959
1065.841 .0218022
1066.421 .0218105
1067.001 .0218197
1067.581 .0218291
1068.161 .0218386
1068.741 .0218459
1069.321 .0218513
1069.901 .0218542
1070.482 .0218545
1071.062 .0218528
1071.642 .0218498
1072.222 .0218456
1072.803 .0218399
1073.383 .0218352
1073.963 .0218311
1074.544 .0218269
1075.124 .0218238
1075.705 .0218212
1076.286 .0218185
1076.866 .0218170
1077.447 .0218178
1078.028 .0218196
1078.609 .0218214
1079.190 .0218254
1079.771 .0218305
1080.352 .0218370
1080.934 .0218448
1081.515 .0218559
1082.097 .0218701
1082.679 .0218877
1083.260 .0219053
1083.842 .0219227
1084.424 .0219406
1085.007 .0219581
1085.589 .0219685
1086.172 .0219722
1086.754 .0219676
1087.337 .0219553
1087.920 .0219353
1088.503 .0219114
1089.087 .0218852
1089.670 .0218584
1090.254 .0218326
1090.838 .0218089
1091.422 .0217854
1092.006 .0217643
1092.590 .0217440
1093.175 .0217266
1093.760 .0217100
1094.345 .0216964
1094.930 .0216837
1095.516 .0216805
1096.102 .0216859
1096.688 .0216985
1097.274 .0217197
1097.860 .0217485
1098.447 .0217831
1099.034 .0218191
1099.622 .0218548
1100.209 .0218910
1100.797 .0219265
1101.385 .0219612
1101.973 .0219903
1102.562 .0220163
1103.151 .0220391
1103.740 .0220577
1104.330 .0220705
1104.920 .0220781
1105.510 .0220799
1106.101 .0220785
1106.691 .0220757
1107.283 .0220705
1107.874 .0220652
1108.466 .0220609
1109.058 .0220562
1109.651 .0220517
1110.244 .0220459
1110.837 .0220404
1111.431 .0220355
1112.025 .0220341
1112.620 .0220364
1113.215 .0220410
1113.810 .0220511
1114.406 .0220631
1115.002 .0220752
1115.599 .0220851
1116.196 .0220897
1116.793 .0220876
1117.391 .0220784
1117.989 .0220675
1118.588 .0220542
1119.187 .0220412
1119.787 .0220344
1120.387 .0220310
1120.988 .0220314
1121.589 .0220324
1122.190 .0220353
1122.793 .0220368
1123.395 .0220352
1123.998 .0220280
1124.602 .0220170
1125.206 .0220071
1125.811 .0219982
1126.416 .0219929
1127.022 .0219960
1127.628 .0220077
1128.235 .0220246
1128.843 .0220440
1129.451 .0220701
1130.059 .0220997
1130.669 .0221321
1131.278 .0221668
1131.889 .0222058
1132.500 .0222489
1133.112 .0222959
1133.724 .0223484
1134.337 .0224087
1134.950 .0224734
1135.564 .0225394
1136.179 .0226019
1136.795 .0226607
1137.411 .0227148
1138.028 .0227607
1138.645 .0228029
1139.263 .0228394
1139.882 .0228666
1140.502 .0228854
1141.122 .0228912
1141.743 .0228893
1142.365 .0228800
1142.987 .0228595
1143.611 .0228666
1144.235 .0227298
1144.859 .0227428
1145.485 .0227931
