Measurement Sequence started on: 10-20-44-796
Integration time: 35
Scans to Average: 2 
>>>>>Begin Spectral Data<<<<<
432.953 .0552131
433.882 .0364601
434.810 .0400475
435.737 .0406115
436.662 .0362208
437.586 .0387558
438.509 .0379444
439.431 .0377319
440.351 .0374060
441.269 .0370896
442.187 .0368957
443.103 .0366454
444.018 .0364317
444.932 .0362646
445.844 .0361234
446.756 .0359858
447.666 .0358383
448.575 .0356798
449.482 .0355228
450.388 .0353696
451.294 .0352183
452.198 .0350629
453.100 .0349224
454.002 .0348049
454.902 .0347235
455.801 .0346624
456.699 .0346395
457.596 .0346405
458.492 .0346643
459.387 .0347109
460.280 .0347692
461.172 .0348294
462.064 .0348967
462.954 .0349477
463.843 .0349844
464.730 .0350112
465.617 .0350275
466.503 .0350329
467.387 .0350372
468.271 .0350299
469.153 .0350136
470.035 .0349921
470.915 .0349623
471.794 .0349104
472.673 .0348488
473.550 .0347730
474.426 .0346880
475.301 .0346013
476.175 .0345180
477.048 .0344345
477.920 .0343613
478.791 .0342969
479.661 .0342384
480.530 .0341888
481.398 .0341494
482.266 .0341173
483.132 .0340928
483.997 .0340717
484.861 .0340504
485.724 .0340311
486.587 .0340163
487.448 .0339979
488.308 .0339776
489.168 .0339539
490.026 .0339271
490.884 .0338942
491.741 .0338544
492.597 .0338112
493.452 .0337640
494.306 .0337105
495.159 .0336489
496.011 .0335825
496.862 .0335126
497.713 .0334389
498.562 .0333644
499.411 .0332896
500.259 .0332178
501.106 .0331493
501.952 .0330873
502.798 .0330329
503.642 .0329891
504.486 .0329519
505.329 .0329171
506.171 .0328841
507.012 .0328499
507.852 .0328111
508.692 .0327680
509.531 .0327192
510.369 .0326638
511.206 .0326025
512.043 .0325403
512.878 .0324744
513.713 .0324055
514.547 .0323291
515.381 .0322443
516.213 .0321402
517.045 .0320160
517.876 .0318662
518.706 .0316958
519.536 .0315168
520.365 .0313323
521.193 .0311423
522.020 .0309584
522.847 .0307852
523.673 .0306217
524.498 .0304620
525.323 .0303026
526.146 .0301368
526.969 .0299704
527.792 .0297973
528.614 .0296194
529.435 .0294490
530.255 .0292920
531.075 .0291441
531.894 .0290139
532.712 .0288967
533.530 .0287869
534.347 .0286937
535.163 .0286095
535.979 .0285353
536.794 .0284732
537.608 .0284254
538.422 .0283902
539.235 .0283710
540.048 .0283608
540.860 .0283550
541.671 .0283506
542.481 .0283387
543.292 .0283086
544.101 .0282611
544.910 .0282027
545.718 .0281366
546.526 .0280703
547.333 .0280107
548.139 .0279614
548.945 .0279314
549.750 .0279146
550.555 .0279163
551.359 .0279366
552.162 .0279674
552.965 .0280060
553.768 .0280445
554.569 .0280867
555.371 .0281267
556.171 .0281703
556.972 .0282155
557.771 .0282654
558.570 .0283197
559.369 .0283803
560.167 .0284477
560.964 .0285247
561.761 .0286041
562.558 .0286863
563.354 .0287685
564.149 .0288474
564.944 .0289185
565.738 .0289866
566.532 .0290479
567.325 .0291082
568.118 .0291660
568.910 .0292292
569.702 .0293004
570.494 .0293854
571.285 .0294790
572.075 .0295838
572.865 .0296927
573.654 .0298017
574.443 .0299028
575.232 .0299960
576.020 .0300790
576.807 .0301536
577.594 .0302202
578.381 .0302851
579.167 .0303534
579.952 .0304276
580.738 .0305086
581.522 .0305958
582.307 .0306849
583.091 .0307735
583.874 .0308568
584.657 .0309327
585.440 .0309983
586.222 .0310527
587.004 .0310976
587.785 .0311341
588.566 .0311649
589.346 .0311919
590.126 .0312175
590.906 .0312403
591.685 .0312608
592.464 .0312760
593.242 .0312847
594.020 .0312857
594.797 .0312794
595.575 .0312661
596.351 .0312471
597.128 .0312221
597.904 .0311927
598.679 .0311618
599.454 .0311306
600.229 .0310996
601.004 .0310708
601.778 .0310446
602.551 .0310202
603.325 .0309968
604.097 .0309751
604.870 .0309536
605.642 .0309319
606.414 .0309096
607.185 .0308855
607.956 .0308611
608.727 .0308368
609.497 .0308132
610.267 .0307920
611.037 .0307742
611.806 .0307589
612.575 .0307454
613.344 .0307330
614.112 .0307206
614.880 .0307068
615.647 .0306907
616.414 .0306720
617.181 .0306507
617.948 .0306269
618.714 .0306020
619.480 .0305776
620.245 .0305547
621.011 .0305322
621.775 .0305094
622.540 .0304865
623.304 .0304618
624.068 .0304356
624.832 .0304074
625.595 .0303775
626.358 .0303469
627.120 .0303156
627.883 .0302838
628.645 .0302530
629.406 .0302234
630.168 .0301945
630.929 .0301657
631.689 .0301373
632.450 .0301080
633.210 .0300786
633.970 .0300496
634.729 .0300214
635.489 .0299943
636.248 .0299683
637.006 .0299428
637.765 .0299181
638.523 .0298943
639.280 .0298702
640.038 .0298464
640.795 .0298235
641.552 .0298001
642.309 .0297778
643.065 .0297567
643.821 .0297375
644.577 .0297205
645.332 .0297058
646.088 .0296934
646.843 .0296829
647.597 .0296750
648.352 .0296687
649.106 .0296649
649.860 .0296629
650.613 .0296616
651.367 .0296606
652.120 .0296600
652.872 .0296589
653.625 .0296569
654.377 .0296538
655.129 .0296483
655.881 .0296408
656.632 .0296319
657.384 .0296213
658.135 .0296098
658.885 .0295972
659.636 .0295841
660.386 .0295699
661.136 .0295548
661.885 .0295378
662.635 .0295196
663.384 .0295008
664.133 .0294808
664.881 .0294599
665.630 .0294386
666.378 .0294179
667.126 .0293985
667.874 .0293810
668.621 .0293657
669.368 .0293526
670.115 .0293415
670.862 .0293322
671.608 .0293239
672.354 .0293174
673.100 .0293114
673.846 .0293057
674.591 .0292999
675.337 .0292935
676.082 .0292864
676.826 .0292794
677.571 .0292729
678.315 .0292673
679.059 .0292622
679.803 .0292575
680.547 .0292525
681.290 .0292474
682.033 .0292407
682.776 .0292313
683.518 .0292191
684.261 .0292042
685.003 .0291857
685.745 .0291654
686.487 .0291449
687.228 .0291252
687.969 .0291072
688.710 .0290902
689.451 .0290737
690.192 .0290568
690.932 .0290383
691.672 .0290168
692.412 .0289924
693.152 .0289666
693.891 .0289391
694.630 .0289112
695.369 .0288845
696.108 .0288595
696.846 .0288366
697.585 .0288156
698.323 .0287958
699.061 .0287764
699.798 .0287566
700.536 .0287364
701.273 .0287161
702.010 .0286958
702.746 .0286757
703.483 .0286563
704.219 .0286378
704.955 .0286198
705.691 .0286015
706.427 .0285826
707.162 .0285633
707.897 .0285427
708.632 .0285210
709.367 .0284979
710.101 .0284738
710.835 .0284483
711.569 .0284216
712.303 .0283940
713.037 .0283656
713.770 .0283365
714.503 .0283069
715.236 .0282772
715.969 .0282479
716.702 .0282193
717.434 .0281922
718.166 .0281655
718.898 .0281398
719.629 .0281146
720.361 .0280905
721.092 .0280668
721.823 .0280439
722.554 .0280218
723.284 .0280005
724.014 .0279791
724.744 .0279579
725.474 .0279355
726.204 .0279130
726.933 .0278900
727.662 .0278662
728.391 .0278420
729.120 .0278181
729.849 .0277946
730.577 .0277724
731.305 .0277509
732.033 .0277310
732.760 .0277110
733.488 .0276923
734.215 .0276738
734.942 .0276551
735.669 .0276363
736.395 .0276179
737.122 .0275990
737.848 .0275802
738.573 .0275611
739.299 .0275421
740.024 .0275240
740.750 .0275064
741.474 .0274887
742.199 .0274716
742.924 .0274548
743.648 .0274383
744.372 .0274213
745.096 .0274055
745.819 .0273896
746.543 .0273742
747.266 .0273595
747.989 .0273454
748.711 .0273325
749.434 .0273213
750.156 .0273114
750.878 .0273037
751.599 .0272980
752.321 .0272934
753.042 .0272897
753.763 .0272870
754.484 .0272840
755.205 .0272803
755.925 .0272753
756.645 .0272684
757.365 .0272591
758.085 .0272471
758.804 .0272329
759.523 .0272170
760.242 .0271999
760.961 .0271815
761.679 .0271622
762.397 .0271430
763.115 .0271230
763.833 .0271026
764.551 .0270824
765.268 .0270620
765.985 .0270418
766.702 .0270219
767.418 .0270025
768.134 .0269838
768.850 .0269667
769.566 .0269503
770.282 .0269352
770.997 .0269212
771.712 .0269077
772.427 .0268951
773.142 .0268838
773.856 .0268736
774.570 .0268644
775.284 .0268561
775.998 .0268486
776.711 .0268409
777.424 .0268338
778.137 .0268261
778.849 .0268183
779.562 .0268104
780.274 .0268023
780.986 .0267947
781.697 .0267888
782.409 .0267843
783.120 .0267818
783.831 .0267816
784.541 .0267831
785.252 .0267853
785.962 .0267876
786.671 .0267884
787.381 .0267873
788.090 .0267833
788.799 .0267764
789.508 .0267664
790.217 .0267551
790.925 .0267430
791.633 .0267312
792.341 .0267204
793.048 .0267106
793.755 .0267014
794.462 .0266927
795.169 .0266834
795.875 .0266731
796.581 .0266619
797.287 .0266497
797.993 .0266374
798.698 .0266261
799.403 .0266168
800.108 .0266106
800.812 .0266076
801.517 .0266080
802.221 .0266105
802.924 .0266145
803.628 .0266184
804.331 .0266219
805.034 .0266240
805.736 .0266238
806.439 .0266212
807.141 .0266166
807.843 .0266099
808.544 .0266014
809.245 .0265922
809.946 .0265820
810.647 .0265713
811.347 .0265606
812.047 .0265496
812.747 .0265391
813.447 .0265281
814.146 .0265170
814.845 .0265059
815.543 .0264946
816.242 .0264830
816.940 .0264711
817.638 .0264601
818.335 .0264497
819.032 .0264400
819.729 .0264311
820.426 .0264226
821.122 .0264146
821.818 .0264066
822.514 .0263981
823.209 .0263896
823.905 .0263810
824.599 .0263715
825.294 .0263610
825.988 .0263501
826.682 .0263378
827.376 .0263246
828.069 .0263109
828.762 .0262966
829.455 .0262817
830.147 .0262670
830.840 .0262529
831.531 .0262403
832.223 .0262295
832.914 .0262201
833.605 .0262116
834.296 .0262041
834.986 .0261963
835.676 .0261872
836.366 .0261775
837.055 .0261675
837.744 .0261567
838.433 .0261457
839.121 .0261349
839.809 .0261248
840.497 .0261162
841.185 .0261082
841.872 .0261009
842.559 .0260941
843.245 .0260875
843.932 .0260799
844.617 .0260708
845.303 .0260612
845.988 .0260500
846.673 .0260376
847.358 .0260247
848.042 .0260107
848.726 .0259968
849.410 .0259833
850.093 .0259699
850.776 .0259567
851.459 .0259432
852.141 .0259289
852.823 .0259135
853.505 .0258970
854.186 .0258794
854.867 .0258604
855.548 .0258410
856.228 .0258219
856.908 .0258027
857.588 .0257841
858.267 .0257660
858.946 .0257487
859.625 .0257328
860.303 .0257173
860.981 .0257022
861.659 .0256880
862.336 .0256750
863.013 .0256632
863.690 .0256520
864.366 .0256419
865.042 .0256328
865.718 .0256242
866.393 .0256156
867.068 .0256063
867.743 .0255962
868.417 .0255855
869.091 .0255732
869.765 .0255593
870.438 .0255440
871.111 .0255279
871.783 .0255112
872.456 .0254940
873.127 .0254767
873.799 .0254591
874.470 .0254413
875.141 .0254240
875.811 .0254067
876.481 .0253894
877.151 .0253721
877.820 .0253547
878.489 .0253373
879.158 .0253202
879.826 .0253033
880.494 .0252876
881.162 .0252735
881.829 .0252605
882.496 .0252474
883.163 .0252350
883.829 .0252227
884.495 .0252102
885.160 .0251977
885.825 .0251851
886.490 .0251729
887.154 .0251614
887.818 .0251507
888.482 .0251412
889.145 .0251330
889.808 .0251267
890.471 .0251206
891.133 .0251154
891.795 .0251104
892.456 .0251053
893.117 .0251005
893.778 .0250957
894.439 .0250901
895.099 .0250837
895.758 .0250766
896.417 .0250683
897.076 .0250582
897.735 .0250472
898.393 .0250348
899.051 .0250215
899.708 .0250081
900.365 .0249942
901.022 .0249814
901.678 .0249704
902.334 .0249605
902.990 .0249517
903.645 .0249445
904.300 .0249378
904.954 .0249315
905.608 .0249249
906.262 .0249180
906.915 .0249101
907.568 .0249017
908.221 .0248929
908.873 .0248840
909.525 .0248756
910.176 .0248672
910.828 .0248584
911.478 .0248497
912.129 .0248392
912.778 .0248270
913.428 .0248127
914.077 .0247962
914.726 .0247774
915.375 .0247572
916.023 .0247354
916.670 .0247140
917.318 .0246933
917.964 .0246734
918.611 .0246544
919.257 .0246367
919.903 .0246191
920.548 .0246013
921.193 .0245835
921.838 .0245658
922.482 .0245476
923.126 .0245297
923.770 .0245123
924.413 .0244957
925.056 .0244811
925.698 .0244683
926.340 .0244574
926.982 .0244495
927.623 .0244429
928.264 .0244379
928.904 .0244339
929.544 .0244304
930.184 .0244272
930.823 .0244232
931.462 .0244188
932.101 .0244129
932.739 .0244059
933.377 .0243980
934.014 .0243894
934.651 .0243809
935.288 .0243718
935.924 .0243626
936.560 .0243531
937.196 .0243427
937.831 .0243312
938.466 .0243182
939.100 .0243039
939.734 .0242882
940.368 .0242717
941.001 .0242548
941.634 .0242386
942.266 .0242238
942.899 .0242103
943.530 .0241982
944.162 .0241865
944.793 .0241742
945.423 .0241602
946.053 .0241452
946.683 .0241278
947.313 .0241084
947.942 .0240882
948.571 .0240675
949.199 .0240475
949.827 .0240280
950.455 .0240096
951.082 .0239925
951.709 .0239760
952.335 .0239602
952.961 .0239437
953.587 .0239274
954.212 .0239105
954.837 .0238940
955.462 .0238785
956.086 .0238644
956.710 .0238522
957.334 .0238423
957.957 .0238351
958.579 .0238304
959.202 .0238283
959.824 .0238270
960.445 .0238273
961.067 .0238277
961.688 .0238271
962.308 .0238253
962.928 .0238225
963.548 .0238190
964.168 .0238143
964.787 .0238088
965.406 .0238026
966.024 .0237951
966.642 .0237881
967.260 .0237798
967.877 .0237712
968.494 .0237618
969.110 .0237516
969.727 .0237402
970.342 .0237290
970.958 .0237181
971.573 .0237073
972.188 .0236975
972.802 .0236894
973.416 .0236820
974.030 .0236757
974.643 .0236706
975.256 .0236668
975.869 .0236637
976.481 .0236613
977.093 .0236585
977.705 .0236570
978.316 .0236568
978.927 .0236569
979.538 .0236572
980.148 .0236578
980.758 .0236584
981.367 .0236574
981.977 .0236561
982.586 .0236541
983.194 .0236509
983.802 .0236479
984.410 .0236441
985.018 .0236411
985.625 .0236386
986.232 .0236372
986.838 .0236375
987.445 .0236387
988.050 .0236409
988.656 .0236421
989.261 .0236434
989.866 .0236436
990.471 .0236432
991.075 .0236420
991.679 .0236405
992.282 .0236399
992.886 .0236408
993.489 .0236438
994.091 .0236482
994.694 .0236543
995.296 .0236613
995.897 .0236674
996.499 .0236731
997.100 .0236770
997.701 .0236803
998.301 .0236827
998.901 .0236853
999.501 .0236886
1000.101 .0236936
1000.700 .0236999
1001.299 .0237069
1001.898 .0237146
1002.496 .0237223
1003.094 .0237292
1003.692 .0237350
1004.289 .0237402
1004.887 .0237453
1005.484 .0237497
1006.080 .0237538
1006.677 .0237572
1007.273 .0237606
1007.868 .0237627
1008.464 .0237640
1009.059 .0237644
1009.654 .0237646
1010.249 .0237650
1010.843 .0237658
1011.437 .0237681
1012.031 .0237717
1012.625 .0237759
1013.218 .0237806
1013.811 .0237849
1014.404 .0237888
1014.997 .0237919
1015.589 .0237948
1016.181 .0237982
1016.773 .0238031
1017.365 .0238099
1017.956 .0238175
1018.547 .0238263
1019.138 .0238359
1019.728 .0238446
1020.319 .0238525
1020.909 .0238585
1021.499 .0238627
1022.088 .0238650
1022.678 .0238653
1023.267 .0238644
1023.856 .0238630
1024.445 .0238621
1025.033 .0238606
1025.621 .0238596
1026.209 .0238596
1026.797 .0238599
1027.385 .0238610
1027.972 .0238638
1028.560 .0238682
1029.147 .0238729
1029.734 .0238783
1030.320 .0238841
1030.907 .0238902
1031.493 .0238967
1032.079 .0239039
1032.665 .0239121
1033.250 .0239209
1033.836 .0239307
1034.421 .0239405
1035.006 .0239514
1035.591 .0239623
1036.176 .0239719
1036.761 .0239803
1037.345 .0239873
1037.929 .0239925
1038.514 .0239946
1039.097 .0239959
1039.681 .0239966
1040.265 .0239947
1040.848 .0239921
1041.432 .0239875
1042.015 .0239811
1042.598 .0239735
1043.181 .0239645
1043.764 .0239542
1044.346 .0239437
1044.929 .0239329
1045.511 .0239220
1046.094 .0239123
1046.676 .0239056
1047.258 .0239001
1047.840 .0238961
1048.422 .0238945
1049.003 .0238938
1049.585 .0238925
1050.166 .0238916
1050.748 .0238896
1051.329 .0238886
1051.910 .0238887
1052.491 .0238904
1053.072 .0238935
1053.653 .0238997
1054.234 .0239082
1054.815 .0239167
1055.396 .0239249
1055.976 .0239327
1056.557 .0239362
1057.138 .0239362
1057.718 .0239313
1058.298 .0239225
1058.879 .0239107
1059.459 .0238984
1060.039 .0238857
1060.620 .0238734
1061.200 .0238614
1061.780 .0238494
1062.360 .0238364
1062.940 .0238242
1063.520 .0238102
1064.101 .0237944
1064.681 .0237780
1065.261 .0237631
1065.841 .0237480
1066.421 .0237376
1067.001 .0237322
1067.581 .0237320
1068.161 .0237364
1068.741 .0237443
1069.321 .0237544
1069.901 .0237671
1070.482 .0237801
1071.062 .0237939
1071.642 .0238064
1072.222 .0238184
1072.803 .0238274
1073.383 .0238364
1073.963 .0238443
1074.544 .0238517
1075.124 .0238568
1075.705 .0238619
1076.286 .0238662
1076.866 .0238699
1077.447 .0238723
1078.028 .0238741
1078.609 .0238762
1079.190 .0238763
1079.771 .0238749
1080.352 .0238747
1080.934 .0238732
1081.515 .0238740
1082.097 .0238751
1082.679 .0238788
1083.260 .0238832
1083.842 .0238881
1084.424 .0238924
1085.007 .0238954
1085.589 .0238957
1086.172 .0238911
1086.754 .0238821
1087.337 .0238702
1087.920 .0238555
1088.503 .0238384
1089.087 .0238201
1089.670 .0238018
1090.254 .0237805
1090.838 .0237583
1091.422 .0237332
1092.006 .0237084
1092.590 .0236835
1093.175 .0236577
1093.760 .0236323
1094.345 .0236068
1094.930 .0235811
1095.516 .0235534
1096.102 .0235261
1096.688 .0234992
1097.274 .0234733
1097.860 .0234497
1098.447 .0234285
1099.034 .0234122
1099.622 .0233996
1100.209 .0233920
1100.797 .0233865
1101.385 .0233828
1101.973 .0233817
1102.562 .0233833
1103.151 .0233877
1103.740 .0233956
1104.330 .0234102
1104.920 .0234285
1105.510 .0234521
1106.101 .0234771
1106.691 .0235009
1107.283 .0235241
1107.874 .0235456
1108.466 .0235667
1109.058 .0235873
1109.651 .0236098
1110.244 .0236326
1110.837 .0236567
1111.431 .0236818
1112.025 .0237040
1112.620 .0237212
1113.215 .0237362
1113.810 .0237456
1114.406 .0237487
1115.002 .0237481
1115.599 .0237401
1116.196 .0237267
1116.793 .0237061
1117.391 .0236774
1117.989 .0236429
1118.588 .0236005
1119.187 .0235563
1119.787 .0235099
1120.387 .0234698
1120.988 .0234348
1121.589 .0234060
1122.190 .0233869
1122.793 .0233735
1123.395 .0233623
1123.998 .0233542
1124.602 .0233465
1125.206 .0233419
1125.811 .0233474
1126.416 .0233572
1127.022 .0233802
1127.628 .0234206
1128.235 .0234699
1128.843 .0235303
1129.451 .0235928
1130.059 .0236544
1130.669 .0237093
1131.278 .0237574
1131.889 .0237945
1132.500 .0238155
1133.112 .0238312
1133.724 .0238391
1134.337 .0238390
1134.950 .0238394
1135.564 .0238395
1136.179 .0238384
1136.795 .0238414
1137.411 .0238426
1138.028 .0238417
1138.645 .0238416
1139.263 .0238455
1139.882 .0238404
1140.502 .0238347
1141.122 .0238313
1141.743 .0238359
1142.365 .0238284
1142.987 .0237060
1143.611 .0238631
1144.235 .0238749
1144.859 .0240846
1145.485 .0235602
