Measurement Sequence started on: 10-20-44-796
Integration time: 35
Scans to Average: 2 
>>>>>Begin Spectral Data<<<<<
432.953 .0421690
433.882 .0350538
434.810 .0352466
435.737 .0346601
436.662 .0321475
437.586 .0332757
438.509 .0326278
439.431 .0322765
440.351 .0319747
441.269 .0317317
442.187 .0315714
443.103 .0314342
444.018 .0313458
444.932 .0313012
445.844 .0313084
446.756 .0313565
447.666 .0314214
448.575 .0314864
449.482 .0315470
450.388 .0315868
451.294 .0316097
452.198 .0316253
453.100 .0316207
454.002 .0316228
454.902 .0316357
455.801 .0316609
456.699 .0316963
457.596 .0317370
458.492 .0317711
459.387 .0317939
460.280 .0318073
461.172 .0318093
462.064 .0318009
462.954 .0317882
463.843 .0317738
464.730 .0317610
465.617 .0317520
466.503 .0317427
467.387 .0317283
468.271 .0317153
469.153 .0316963
470.035 .0316741
470.915 .0316519
471.794 .0316237
472.673 .0315969
473.550 .0315714
474.426 .0315487
475.301 .0315272
476.175 .0315034
477.048 .0314802
477.920 .0314536
478.791 .0314226
479.661 .0313851
480.530 .0313432
481.398 .0313014
482.266 .0312603
483.132 .0312211
483.997 .0311857
484.861 .0311567
485.724 .0311364
486.587 .0311231
487.448 .0311136
488.308 .0311069
489.168 .0310973
490.026 .0310821
490.884 .0310626
491.741 .0310333
492.597 .0309994
493.452 .0309635
494.306 .0309262
495.159 .0308894
496.011 .0308540
496.862 .0308210
497.713 .0307865
498.562 .0307495
499.411 .0307052
500.259 .0306479
501.106 .0305821
501.952 .0305061
502.798 .0304210
503.642 .0303332
504.486 .0302452
505.329 .0301589
506.171 .0300775
507.012 .0300005
507.852 .0299269
508.692 .0298564
509.531 .0297899
510.369 .0297224
511.206 .0296526
512.043 .0295814
512.878 .0295042
513.713 .0294193
514.547 .0293244
515.381 .0292212
516.213 .0291088
517.045 .0289871
517.876 .0288565
518.706 .0287188
519.536 .0285826
520.365 .0284469
521.193 .0283119
522.020 .0281793
522.847 .0280506
523.673 .0279175
524.498 .0277730
525.323 .0276179
526.146 .0274541
526.969 .0272819
527.792 .0271012
528.614 .0269192
529.435 .0267431
530.255 .0265803
531.075 .0264284
531.894 .0262902
532.712 .0261677
533.530 .0260494
534.347 .0259358
535.163 .0258203
535.979 .0257065
536.794 .0255950
537.608 .0254879
538.422 .0253958
539.235 .0253156
540.048 .0252512
540.860 .0252046
541.671 .0251802
542.481 .0251784
543.292 .0251879
544.101 .0252052
544.910 .0252351
545.718 .0252665
546.526 .0252940
547.333 .0253174
548.139 .0253390
548.945 .0253609
549.750 .0253792
550.555 .0254000
551.359 .0254257
552.162 .0254545
552.965 .0254914
553.768 .0255259
554.569 .0255649
555.371 .0256036
556.171 .0256387
556.972 .0256761
557.771 .0257175
558.570 .0257622
559.369 .0258154
560.167 .0258803
560.964 .0259576
561.761 .0260408
562.558 .0261313
563.354 .0262258
564.149 .0263202
564.944 .0264143
565.738 .0265084
566.532 .0265996
567.325 .0266911
568.118 .0267794
568.910 .0268690
569.702 .0269602
570.494 .0270525
571.285 .0271422
572.075 .0272311
572.865 .0273182
573.654 .0273992
574.443 .0274727
575.232 .0275425
576.020 .0276095
576.807 .0276729
577.594 .0277324
578.381 .0277922
579.167 .0278525
579.952 .0279156
580.738 .0279812
581.522 .0280482
582.307 .0281173
583.091 .0281845
583.874 .0282495
584.657 .0283102
585.440 .0283672
586.222 .0284186
587.004 .0284640
587.785 .0285050
588.566 .0285424
589.346 .0285768
590.126 .0286096
590.906 .0286407
591.685 .0286712
592.464 .0286989
593.242 .0287227
594.020 .0287422
594.797 .0287563
595.575 .0287638
596.351 .0287674
597.128 .0287664
597.904 .0287621
598.679 .0287563
599.454 .0287495
600.229 .0287424
601.004 .0287347
601.778 .0287258
602.551 .0287148
603.325 .0287014
604.097 .0286864
604.870 .0286678
605.642 .0286480
606.414 .0286288
607.185 .0286096
607.956 .0285919
608.727 .0285761
609.497 .0285616
610.267 .0285488
611.037 .0285363
611.806 .0285235
612.575 .0285096
613.344 .0284949
614.112 .0284792
614.880 .0284619
615.647 .0284440
616.414 .0284264
617.181 .0284080
617.948 .0283900
618.714 .0283717
619.480 .0283536
620.245 .0283358
621.011 .0283181
621.775 .0283007
622.540 .0282835
623.304 .0282668
624.068 .0282511
624.832 .0282354
625.595 .0282211
626.358 .0282075
627.120 .0281947
627.883 .0281829
628.645 .0281725
629.406 .0281628
630.168 .0281539
630.929 .0281454
631.689 .0281374
632.450 .0281289
633.210 .0281198
633.970 .0281099
634.729 .0280988
635.489 .0280868
636.248 .0280734
637.006 .0280589
637.765 .0280439
638.523 .0280278
639.280 .0280109
640.038 .0279936
640.795 .0279771
641.552 .0279603
642.309 .0279439
643.065 .0279290
643.821 .0279144
644.577 .0279013
645.332 .0278890
646.088 .0278779
646.843 .0278677
647.597 .0278586
648.352 .0278506
649.106 .0278424
649.860 .0278347
650.613 .0278267
651.367 .0278178
652.120 .0278093
652.872 .0278005
653.625 .0277910
654.377 .0277812
655.129 .0277708
655.881 .0277597
656.632 .0277480
657.384 .0277353
658.135 .0277214
658.885 .0277063
659.636 .0276907
660.386 .0276740
661.136 .0276570
661.885 .0276410
662.635 .0276264
663.384 .0276139
664.133 .0276036
664.881 .0275951
665.630 .0275881
666.378 .0275823
667.126 .0275765
667.874 .0275699
668.621 .0275615
669.368 .0275516
670.115 .0275394
670.862 .0275252
671.608 .0275099
672.354 .0274939
673.100 .0274779
673.846 .0274619
674.591 .0274453
675.337 .0274278
676.082 .0274096
676.826 .0273904
677.571 .0273699
678.315 .0273482
679.059 .0273257
679.803 .0273033
680.547 .0272816
681.290 .0272611
682.033 .0272423
682.776 .0272250
683.518 .0272090
684.261 .0271938
685.003 .0271793
685.745 .0271649
686.487 .0271506
687.228 .0271363
687.969 .0271215
688.710 .0271062
689.451 .0270903
690.192 .0270737
690.932 .0270563
691.672 .0270384
692.412 .0270197
693.152 .0270011
693.891 .0269832
694.630 .0269665
695.369 .0269514
696.108 .0269375
696.846 .0269245
697.585 .0269118
698.323 .0268987
699.061 .0268848
699.798 .0268698
700.536 .0268539
701.273 .0268370
702.010 .0268199
702.746 .0268031
703.483 .0267870
704.219 .0267717
704.955 .0267571
705.691 .0267425
706.427 .0267270
707.162 .0267103
707.897 .0266924
708.632 .0266735
709.367 .0266541
710.101 .0266339
710.835 .0266140
711.569 .0265944
712.303 .0265755
713.037 .0265572
713.770 .0265396
714.503 .0265224
715.236 .0265053
715.969 .0264879
716.702 .0264698
717.434 .0264515
718.166 .0264329
718.898 .0264140
719.629 .0263952
720.361 .0263765
721.092 .0263580
721.823 .0263400
722.554 .0263230
723.284 .0263067
724.014 .0262910
724.744 .0262759
725.474 .0262613
726.204 .0262472
726.933 .0262333
727.662 .0262195
728.391 .0262065
729.120 .0261941
729.849 .0261825
730.577 .0261717
731.305 .0261616
732.033 .0261520
732.760 .0261424
733.488 .0261329
734.215 .0261232
734.942 .0261131
735.669 .0261027
736.395 .0260916
737.122 .0260805
737.848 .0260690
738.573 .0260577
739.299 .0260462
740.024 .0260343
740.750 .0260221
741.474 .0260090
742.199 .0259959
742.924 .0259831
743.648 .0259708
744.372 .0259593
745.096 .0259488
745.819 .0259393
746.543 .0259301
747.266 .0259216
747.989 .0259134
748.711 .0259058
749.434 .0258986
750.156 .0258920
750.878 .0258862
751.599 .0258824
752.321 .0258809
753.042 .0258812
753.763 .0258834
754.484 .0258865
755.205 .0258896
755.925 .0258922
756.645 .0258931
757.365 .0258923
758.085 .0258895
758.804 .0258851
759.523 .0258784
760.242 .0258702
760.961 .0258611
761.679 .0258510
762.397 .0258400
763.115 .0258276
763.833 .0258132
764.551 .0257970
765.268 .0257789
765.985 .0257589
766.702 .0257374
767.418 .0257149
768.134 .0256919
768.850 .0256691
769.566 .0256473
770.282 .0256267
770.997 .0256078
771.712 .0255908
772.427 .0255757
773.142 .0255617
773.856 .0255489
774.570 .0255368
775.284 .0255252
775.998 .0255139
776.711 .0255022
777.424 .0254903
778.137 .0254788
778.849 .0254675
779.562 .0254566
780.274 .0254462
780.986 .0254367
781.697 .0254273
782.409 .0254179
783.120 .0254080
783.831 .0253977
784.541 .0253866
785.252 .0253747
785.962 .0253620
786.671 .0253491
787.381 .0253363
788.090 .0253240
788.799 .0253120
789.508 .0253005
790.217 .0252890
790.925 .0252771
791.633 .0252644
792.341 .0252507
793.048 .0252359
793.755 .0252203
794.462 .0252043
795.169 .0251881
795.875 .0251721
796.581 .0251561
797.287 .0251405
797.993 .0251249
798.698 .0251087
799.403 .0250918
800.108 .0250739
800.812 .0250550
801.517 .0250353
802.221 .0250154
802.924 .0249956
803.628 .0249766
804.331 .0249588
805.034 .0249423
805.736 .0249267
806.439 .0249124
807.141 .0248991
807.843 .0248868
808.544 .0248748
809.245 .0248630
809.946 .0248512
810.647 .0248398
811.347 .0248286
812.047 .0248176
812.747 .0248071
813.447 .0247970
814.146 .0247869
814.845 .0247770
815.543 .0247664
816.242 .0247555
816.940 .0247435
817.638 .0247306
818.335 .0247163
819.032 .0247007
819.729 .0246839
820.426 .0246663
821.122 .0246479
821.818 .0246292
822.514 .0246099
823.209 .0245910
823.905 .0245722
824.599 .0245536
825.294 .0245353
825.988 .0245173
826.682 .0244998
827.376 .0244827
828.069 .0244659
828.762 .0244495
829.455 .0244338
830.147 .0244186
830.840 .0244039
831.531 .0243899
832.223 .0243767
832.914 .0243640
833.605 .0243516
834.296 .0243401
834.986 .0243288
835.676 .0243181
836.366 .0243078
837.055 .0242975
837.744 .0242875
838.433 .0242771
839.121 .0242665
839.809 .0242554
840.497 .0242439
841.185 .0242322
841.872 .0242197
842.559 .0242073
843.245 .0241945
843.932 .0241817
844.617 .0241688
845.303 .0241558
845.988 .0241426
846.673 .0241296
847.358 .0241168
848.042 .0241044
848.726 .0240927
849.410 .0240819
850.093 .0240720
850.776 .0240631
851.459 .0240550
852.141 .0240474
852.823 .0240398
853.505 .0240327
854.186 .0240250
854.867 .0240173
855.548 .0240093
856.228 .0240016
856.908 .0239949
857.588 .0239884
858.267 .0239826
858.946 .0239771
859.625 .0239719
860.303 .0239668
860.981 .0239613
861.659 .0239555
862.336 .0239491
863.013 .0239421
863.690 .0239347
864.366 .0239264
865.042 .0239182
865.718 .0239102
866.393 .0239023
867.068 .0238948
867.743 .0238879
868.417 .0238812
869.091 .0238751
869.765 .0238690
870.438 .0238632
871.111 .0238574
871.783 .0238515
872.456 .0238455
873.127 .0238395
873.799 .0238337
874.470 .0238280
875.141 .0238224
875.811 .0238177
876.481 .0238132
877.151 .0238091
877.820 .0238052
878.489 .0238017
879.158 .0237980
879.826 .0237941
880.494 .0237896
881.162 .0237849
881.829 .0237802
882.496 .0237756
883.163 .0237710
883.829 .0237670
884.495 .0237638
885.160 .0237612
885.825 .0237595
886.490 .0237587
887.154 .0237587
887.818 .0237594
888.482 .0237605
889.145 .0237617
889.808 .0237633
890.471 .0237650
891.133 .0237669
891.795 .0237687
892.456 .0237703
893.117 .0237715
893.778 .0237723
894.439 .0237723
895.099 .0237718
895.758 .0237704
896.417 .0237685
897.076 .0237657
897.735 .0237623
898.393 .0237583
899.051 .0237543
899.708 .0237504
900.365 .0237472
901.022 .0237443
901.678 .0237420
902.334 .0237406
902.990 .0237401
903.645 .0237403
904.300 .0237410
904.954 .0237422
905.608 .0237436
906.262 .0237451
906.915 .0237467
907.568 .0237478
908.221 .0237493
908.873 .0237510
909.525 .0237526
910.176 .0237539
910.828 .0237554
911.478 .0237564
912.129 .0237565
912.778 .0237557
913.428 .0237538
914.077 .0237508
914.726 .0237467
915.375 .0237410
916.023 .0237344
916.670 .0237277
917.318 .0237206
917.964 .0237133
918.611 .0237063
919.257 .0236992
919.903 .0236914
920.548 .0236831
921.193 .0236741
921.838 .0236645
922.482 .0236544
923.126 .0236442
923.770 .0236342
924.413 .0236244
925.056 .0236156
925.698 .0236079
926.340 .0236021
926.982 .0235970
927.623 .0235925
928.264 .0235888
928.904 .0235849
929.544 .0235807
930.184 .0235758
930.823 .0235708
931.462 .0235657
932.101 .0235602
932.739 .0235541
933.377 .0235475
934.014 .0235409
934.651 .0235337
935.288 .0235255
935.924 .0235164
936.560 .0235062
937.196 .0234952
937.831 .0234836
938.466 .0234716
939.100 .0234592
939.734 .0234469
940.368 .0234346
941.001 .0234223
941.634 .0234100
942.266 .0233977
942.899 .0233851
943.530 .0233721
944.162 .0233584
944.793 .0233437
945.423 .0233282
946.053 .0233118
946.683 .0232947
947.313 .0232765
947.942 .0232572
948.571 .0232370
949.199 .0232159
949.827 .0231938
950.455 .0231712
951.082 .0231482
951.709 .0231253
952.335 .0231027
952.961 .0230802
953.587 .0230582
954.212 .0230371
954.837 .0230166
955.462 .0229968
956.086 .0229780
956.710 .0229605
957.334 .0229439
957.957 .0229283
958.579 .0229135
959.202 .0228997
959.824 .0228865
960.445 .0228735
961.067 .0228602
961.688 .0228474
962.308 .0228343
962.928 .0228208
963.548 .0228068
964.168 .0227924
964.787 .0227776
965.406 .0227627
966.024 .0227471
966.642 .0227314
967.260 .0227151
967.877 .0226987
968.494 .0226818
969.110 .0226649
969.727 .0226479
970.342 .0226307
970.958 .0226136
971.573 .0225969
972.188 .0225811
972.802 .0225668
973.416 .0225538
974.030 .0225423
974.643 .0225319
975.256 .0225223
975.869 .0225129
976.481 .0225041
977.093 .0224958
977.705 .0224877
978.316 .0224800
978.927 .0224729
979.538 .0224658
980.148 .0224587
980.758 .0224515
981.367 .0224438
981.977 .0224356
982.586 .0224263
983.194 .0224157
983.802 .0224048
984.410 .0223936
985.018 .0223828
985.625 .0223722
986.232 .0223628
986.838 .0223539
987.445 .0223449
988.050 .0223360
988.656 .0223270
989.261 .0223182
989.866 .0223091
990.471 .0223000
991.075 .0222914
991.679 .0222835
992.282 .0222763
992.886 .0222700
993.489 .0222648
994.091 .0222604
994.694 .0222564
995.296 .0222524
995.897 .0222480
996.499 .0222429
997.100 .0222366
997.701 .0222295
998.301 .0222218
998.901 .0222136
999.501 .0222049
1000.101 .0221964
1000.700 .0221882
1001.299 .0221800
1001.898 .0221721
1002.496 .0221645
1003.094 .0221564
1003.692 .0221479
1004.289 .0221384
1004.887 .0221285
1005.484 .0221185
1006.080 .0221085
1006.677 .0220985
1007.273 .0220889
1007.868 .0220800
1008.464 .0220718
1009.059 .0220640
1009.654 .0220567
1010.249 .0220498
1010.843 .0220430
1011.437 .0220362
1012.031 .0220295
1012.625 .0220226
1013.218 .0220163
1013.811 .0220107
1014.404 .0220062
1014.997 .0220028
1015.589 .0220010
1016.181 .0220009
1016.773 .0220017
1017.365 .0220034
1017.956 .0220049
1018.547 .0220056
1019.138 .0220057
1019.728 .0220053
1020.319 .0220047
1020.909 .0220045
1021.499 .0220049
1022.088 .0220061
1022.678 .0220079
1023.267 .0220102
1023.856 .0220119
1024.445 .0220128
1025.033 .0220120
1025.621 .0220090
1026.209 .0220040
1026.797 .0219974
1027.385 .0219895
1027.972 .0219823
1028.560 .0219754
1029.147 .0219694
1029.734 .0219641
1030.320 .0219595
1030.907 .0219556
1031.493 .0219519
1032.079 .0219482
1032.665 .0219446
1033.250 .0219407
1033.836 .0219370
1034.421 .0219334
1035.006 .0219306
1035.591 .0219286
1036.176 .0219274
1036.761 .0219269
1037.345 .0219270
1037.929 .0219269
1038.514 .0219269
1039.097 .0219257
1039.681 .0219247
1040.265 .0219231
1040.848 .0219205
1041.432 .0219181
1042.015 .0219155
1042.598 .0219131
1043.181 .0219116
1043.764 .0219099
1044.346 .0219094
1044.929 .0219092
1045.511 .0219091
1046.094 .0219081
1046.676 .0219074
1047.258 .0219067
1047.840 .0219060
1048.422 .0219065
1049.003 .0219080
1049.585 .0219103
1050.166 .0219134
1050.748 .0219166
1051.329 .0219190
1051.910 .0219214
1052.491 .0219230
1053.072 .0219226
1053.653 .0219217
1054.234 .0219195
1054.815 .0219169
1055.396 .0219139
1055.976 .0219110
1056.557 .0219077
1057.138 .0219049
1057.718 .0219016
1058.298 .0218972
1058.879 .0218931
1059.459 .0218888
1060.039 .0218841
1060.620 .0218792
1061.200 .0218744
1061.780 .0218696
1062.360 .0218646
1062.940 .0218610
1063.520 .0218579
1064.101 .0218561
1064.681 .0218543
1065.261 .0218520
1065.841 .0218494
1066.421 .0218465
1067.001 .0218426
1067.581 .0218378
1068.161 .0218342
1068.741 .0218323
1069.321 .0218317
1069.901 .0218336
1070.482 .0218389
1071.062 .0218458
1071.642 .0218536
1072.222 .0218619
1072.803 .0218685
1073.383 .0218739
1073.963 .0218785
1074.544 .0218823
1075.124 .0218860
1075.705 .0218906
1076.286 .0218957
1076.866 .0219010
1077.447 .0219079
1078.028 .0219135
1078.609 .0219172
1079.190 .0219199
1079.771 .0219210
1080.352 .0219202
1080.934 .0219196
1081.515 .0219185
1082.097 .0219189
1082.679 .0219214
1083.260 .0219245
1083.842 .0219285
1084.424 .0219334
1085.007 .0219406
1085.589 .0219497
1086.172 .0219604
1086.754 .0219742
1087.337 .0219903
1087.920 .0220098
1088.503 .0220308
1089.087 .0220529
1089.670 .0220758
1090.254 .0220964
1090.838 .0221132
1091.422 .0221282
1092.006 .0221386
1092.590 .0221460
1093.175 .0221519
1093.760 .0221554
1094.345 .0221581
1094.930 .0221584
1095.516 .0221588
1096.102 .0221601
1096.688 .0221609
1097.274 .0221632
1097.860 .0221634
1098.447 .0221649
1099.034 .0221661
1099.622 .0221655
1100.209 .0221670
1100.797 .0221695
1101.385 .0221728
1101.973 .0221776
1102.562 .0221834
1103.151 .0221906
1103.740 .0221979
1104.330 .0222055
1104.920 .0222135
1105.510 .0222177
1106.101 .0222208
1106.691 .0222221
1107.283 .0222208
1107.874 .0222192
1108.466 .0222157
1109.058 .0222119
1109.651 .0222084
1110.244 .0222027
1110.837 .0221969
1111.431 .0221894
1112.025 .0221836
1112.620 .0221755
1113.215 .0221651
1113.810 .0221559
1114.406 .0221466
1115.002 .0221374
1115.599 .0221314
1116.196 .0221244
1116.793 .0221190
1117.391 .0221152
1117.989 .0221126
1118.588 .0221126
1119.187 .0221160
1119.787 .0221234
1120.387 .0221334
1120.988 .0221450
1121.589 .0221588
1122.190 .0221710
1122.793 .0221861
1123.395 .0221997
1123.998 .0222108
1124.602 .0222229
1125.206 .0222343
1125.811 .0222481
1126.416 .0222661
1127.022 .0222866
1127.628 .0223111
1128.235 .0223362
1128.843 .0223609
1129.451 .0223832
1130.059 .0224038
1130.669 .0224244
1131.278 .0224451
1131.889 .0224651
1132.500 .0224827
1133.112 .0225016
1133.724 .0225257
1134.337 .0225495
1134.950 .0225724
1135.564 .0225941
1136.179 .0226127
1136.795 .0226298
1137.411 .0226456
1138.028 .0226590
1138.645 .0226771
1139.263 .0226978
1139.882 .0227151
1140.502 .0227402
1141.122 .0227655
1141.743 .0228058
1142.365 .0228735
1142.987 .0227374
1143.611 .0230658
1144.235 .0228795
1144.859 .0232436
1145.485 .0238115
