Measurement Sequence started on: 10-20-44-796
Integration time: 35
Scans to Average: 2 
>>>>>Begin Spectral Data<<<<<
432.953 .0421003
433.882 .0326614
434.810 .0330013
435.737 .0334866
436.662 .0337898
437.586 .0345440
438.509 .0344608
439.431 .0346674
440.351 .0348209
441.269 .0349161
442.187 .0349684
443.103 .0349759
444.018 .0349676
444.932 .0349601
445.844 .0349149
446.756 .0348661
447.666 .0348088
448.575 .0347377
449.482 .0346740
450.388 .0346074
451.294 .0345453
452.198 .0344874
453.100 .0344345
454.002 .0343814
454.902 .0343234
455.801 .0342605
456.699 .0341865
457.596 .0341128
458.492 .0340339
459.387 .0339423
460.280 .0338525
461.172 .0337638
462.064 .0336706
462.954 .0335717
463.843 .0334735
464.730 .0333773
465.617 .0332828
466.503 .0331937
467.387 .0331069
468.271 .0330262
469.153 .0329533
470.035 .0328871
470.915 .0328276
471.794 .0327746
472.673 .0327274
473.550 .0326864
474.426 .0326588
475.301 .0326415
476.175 .0326285
477.048 .0326220
477.920 .0326197
478.791 .0326187
479.661 .0326170
480.530 .0326116
481.398 .0326016
482.266 .0325906
483.132 .0325799
483.997 .0325692
484.861 .0325573
485.724 .0325506
486.587 .0325495
487.448 .0325484
488.308 .0325471
489.168 .0325440
490.026 .0325383
490.884 .0325334
491.741 .0325264
492.597 .0325167
493.452 .0325046
494.306 .0324924
495.159 .0324785
496.011 .0324609
496.862 .0324417
497.713 .0324182
498.562 .0323882
499.411 .0323572
500.259 .0323202
501.106 .0322781
501.952 .0322355
502.798 .0321903
503.642 .0321431
504.486 .0320914
505.329 .0320353
506.171 .0319744
507.012 .0319106
507.852 .0318418
508.692 .0317659
509.531 .0316843
510.369 .0316021
511.206 .0315170
512.043 .0314270
512.878 .0313285
513.713 .0312245
514.547 .0311110
515.381 .0309840
516.213 .0308426
517.045 .0306901
517.876 .0305199
518.706 .0303377
519.536 .0301423
520.365 .0299378
521.193 .0297291
522.020 .0295200
522.847 .0293080
523.673 .0290994
524.498 .0288919
525.323 .0286813
526.146 .0284762
526.969 .0282808
527.792 .0280862
528.614 .0278939
529.435 .0277078
530.255 .0275251
531.075 .0273445
531.894 .0271723
532.712 .0270084
533.530 .0268577
534.347 .0267182
535.163 .0265887
535.979 .0264747
536.794 .0263812
537.608 .0263037
538.422 .0262423
539.235 .0261976
540.048 .0261692
540.860 .0261569
541.671 .0261635
542.481 .0261887
543.292 .0262406
544.101 .0263095
544.910 .0263940
545.718 .0264867
546.526 .0265838
547.333 .0266798
548.139 .0267762
548.945 .0268654
549.750 .0269447
550.555 .0270152
551.359 .0270843
552.162 .0271465
552.965 .0272111
553.768 .0272760
554.569 .0273441
555.371 .0274116
556.171 .0274766
556.972 .0275335
557.771 .0275886
558.570 .0276402
559.369 .0276915
560.167 .0277410
560.964 .0277937
561.761 .0278487
562.558 .0279120
563.354 .0279865
564.149 .0280696
564.944 .0281564
565.738 .0282478
566.532 .0283382
567.325 .0284258
568.118 .0285090
568.910 .0285890
569.702 .0286640
570.494 .0287375
571.285 .0288072
572.075 .0288729
572.865 .0289378
573.654 .0290022
574.443 .0290655
575.232 .0291260
576.020 .0291865
576.807 .0292455
577.594 .0293051
578.381 .0293694
579.167 .0294347
579.952 .0295021
580.738 .0295733
581.522 .0296465
582.307 .0297192
583.091 .0297908
583.874 .0298602
584.657 .0299251
585.440 .0299870
586.222 .0300435
587.004 .0300955
587.785 .0301441
588.566 .0301889
589.346 .0302291
590.126 .0302656
590.906 .0302991
591.685 .0303278
592.464 .0303504
593.242 .0303666
594.020 .0303765
594.797 .0303815
595.575 .0303822
596.351 .0303801
597.128 .0303757
597.904 .0303694
598.679 .0303624
599.454 .0303546
600.229 .0303465
601.004 .0303386
601.778 .0303304
602.551 .0303214
603.325 .0303113
604.097 .0303001
604.870 .0302878
605.642 .0302749
606.414 .0302624
607.185 .0302489
607.956 .0302350
608.727 .0302205
609.497 .0302053
610.267 .0301894
611.037 .0301731
611.806 .0301554
612.575 .0301370
613.344 .0301181
614.112 .0300985
614.880 .0300785
615.647 .0300587
616.414 .0300393
617.181 .0300200
617.948 .0300011
618.714 .0299826
619.480 .0299645
620.245 .0299468
621.011 .0299292
621.775 .0299123
622.540 .0298955
623.304 .0298796
624.068 .0298647
624.832 .0298513
625.595 .0298397
626.358 .0298290
627.120 .0298192
627.883 .0298089
628.645 .0297984
629.406 .0297858
630.168 .0297711
630.929 .0297547
631.689 .0297371
632.450 .0297186
633.210 .0297004
633.970 .0296823
634.729 .0296656
635.489 .0296502
636.248 .0296352
637.006 .0296195
637.765 .0296033
638.523 .0295853
639.280 .0295665
640.038 .0295458
640.795 .0295258
641.552 .0295059
642.309 .0294877
643.065 .0294719
643.821 .0294575
644.577 .0294449
645.332 .0294330
646.088 .0294212
646.843 .0294092
647.597 .0293956
648.352 .0293815
649.106 .0293673
649.860 .0293539
650.613 .0293411
651.367 .0293292
652.120 .0293183
652.872 .0293086
653.625 .0292988
654.377 .0292887
655.129 .0292782
655.881 .0292668
656.632 .0292547
657.384 .0292414
658.135 .0292278
658.885 .0292136
659.636 .0291990
660.386 .0291843
661.136 .0291694
661.885 .0291543
662.635 .0291392
663.384 .0291235
664.133 .0291080
664.881 .0290917
665.630 .0290747
666.378 .0290573
667.126 .0290397
667.874 .0290213
668.621 .0290033
669.368 .0289851
670.115 .0289673
670.862 .0289499
671.608 .0289338
672.354 .0289188
673.100 .0289052
673.846 .0288920
674.591 .0288792
675.337 .0288661
676.082 .0288530
676.826 .0288389
677.571 .0288247
678.315 .0288109
679.059 .0287974
679.803 .0287845
680.547 .0287732
681.290 .0287630
682.033 .0287537
682.776 .0287443
683.518 .0287346
684.261 .0287234
685.003 .0287105
685.745 .0286958
686.487 .0286803
687.228 .0286641
687.969 .0286479
688.710 .0286314
689.451 .0286150
690.192 .0285990
690.932 .0285824
691.672 .0285649
692.412 .0285465
693.152 .0285269
693.891 .0285061
694.630 .0284848
695.369 .0284640
696.108 .0284438
696.846 .0284248
697.585 .0284068
698.323 .0283900
699.061 .0283737
699.798 .0283575
700.536 .0283412
701.273 .0283245
702.010 .0283080
702.746 .0282906
703.483 .0282727
704.219 .0282550
704.955 .0282371
705.691 .0282193
706.427 .0282010
707.162 .0281828
707.897 .0281643
708.632 .0281459
709.367 .0281273
710.101 .0281084
710.835 .0280894
711.569 .0280701
712.303 .0280502
713.037 .0280302
713.770 .0280102
714.503 .0279904
715.236 .0279710
715.969 .0279526
716.702 .0279351
717.434 .0279188
718.166 .0279029
718.898 .0278877
719.629 .0278723
720.361 .0278563
721.092 .0278394
721.823 .0278213
722.554 .0278024
723.284 .0277829
724.014 .0277627
724.744 .0277421
725.474 .0277213
726.204 .0277007
726.933 .0276799
727.662 .0276592
728.391 .0276385
729.120 .0276178
729.849 .0275971
730.577 .0275767
731.305 .0275564
732.033 .0275365
732.760 .0275172
733.488 .0274987
734.215 .0274810
734.942 .0274636
735.669 .0274466
736.395 .0274302
737.122 .0274139
737.848 .0273976
738.573 .0273811
739.299 .0273646
740.024 .0273481
740.750 .0273315
741.474 .0273156
742.199 .0272998
742.924 .0272850
743.648 .0272707
744.372 .0272567
745.096 .0272433
745.819 .0272301
746.543 .0272171
747.266 .0272047
747.989 .0271925
748.711 .0271808
749.434 .0271703
750.156 .0271612
750.878 .0271531
751.599 .0271469
752.321 .0271420
753.042 .0271386
753.763 .0271355
754.484 .0271333
755.205 .0271310
755.925 .0271288
756.645 .0271261
757.365 .0271222
758.085 .0271179
758.804 .0271131
759.523 .0271071
760.242 .0271007
760.961 .0270931
761.679 .0270846
762.397 .0270747
763.115 .0270635
763.833 .0270505
764.551 .0270355
765.268 .0270185
765.985 .0269991
766.702 .0269778
767.418 .0269552
768.134 .0269316
768.850 .0269081
769.566 .0268855
770.282 .0268632
770.997 .0268416
771.712 .0268210
772.427 .0268011
773.142 .0267819
773.856 .0267626
774.570 .0267435
775.284 .0267245
775.998 .0267061
776.711 .0266884
777.424 .0266719
778.137 .0266570
778.849 .0266433
779.562 .0266304
780.274 .0266183
780.986 .0266067
781.697 .0265951
782.409 .0265837
783.120 .0265726
783.831 .0265613
784.541 .0265501
785.252 .0265393
785.962 .0265288
786.671 .0265189
787.381 .0265092
788.090 .0264999
788.799 .0264904
789.508 .0264806
790.217 .0264702
790.925 .0264592
791.633 .0264477
792.341 .0264353
793.048 .0264218
793.755 .0264076
794.462 .0263922
795.169 .0263762
795.875 .0263597
796.581 .0263431
797.287 .0263269
797.993 .0263111
798.698 .0262957
799.403 .0262811
800.108 .0262671
800.812 .0262535
801.517 .0262400
802.221 .0262265
802.924 .0262127
803.628 .0261990
804.331 .0261860
805.034 .0261737
805.736 .0261622
806.439 .0261520
807.141 .0261425
807.843 .0261335
808.544 .0261241
809.245 .0261137
809.946 .0261022
810.647 .0260894
811.347 .0260754
812.047 .0260602
812.747 .0260447
813.447 .0260294
814.146 .0260144
814.845 .0260003
815.543 .0259866
816.242 .0259729
816.940 .0259590
817.638 .0259444
818.335 .0259288
819.032 .0259127
819.729 .0258966
820.426 .0258808
821.122 .0258650
821.818 .0258502
822.514 .0258358
823.209 .0258221
823.905 .0258088
824.599 .0257952
825.294 .0257814
825.988 .0257671
826.682 .0257519
827.376 .0257360
828.069 .0257196
828.762 .0257031
829.455 .0256860
830.147 .0256689
830.840 .0256518
831.531 .0256348
832.223 .0256180
832.914 .0256015
833.605 .0255852
834.296 .0255687
834.986 .0255518
835.676 .0255342
836.366 .0255161
837.055 .0254977
837.744 .0254790
838.433 .0254605
839.121 .0254420
839.809 .0254238
840.497 .0254060
841.185 .0253890
841.872 .0253725
842.559 .0253568
843.245 .0253415
843.932 .0253266
844.617 .0253123
845.303 .0252983
845.988 .0252847
846.673 .0252721
847.358 .0252604
848.042 .0252497
848.726 .0252398
849.410 .0252312
850.093 .0252235
850.776 .0252170
851.459 .0252108
852.141 .0252044
852.823 .0251978
853.505 .0251906
854.186 .0251826
854.867 .0251736
855.548 .0251643
856.228 .0251548
856.908 .0251454
857.588 .0251362
858.267 .0251270
858.946 .0251181
859.625 .0251090
860.303 .0250991
860.981 .0250884
861.659 .0250768
862.336 .0250641
863.013 .0250509
863.690 .0250379
864.366 .0250252
865.042 .0250129
865.718 .0250014
866.393 .0249908
867.068 .0249809
867.743 .0249711
868.417 .0249608
869.091 .0249505
869.765 .0249402
870.438 .0249294
871.111 .0249185
871.783 .0249081
872.456 .0248984
873.127 .0248890
873.799 .0248802
874.470 .0248719
875.141 .0248636
875.811 .0248553
876.481 .0248464
877.151 .0248371
877.820 .0248270
878.489 .0248166
879.158 .0248062
879.826 .0247968
880.494 .0247878
881.162 .0247797
881.829 .0247731
882.496 .0247675
883.163 .0247620
883.829 .0247569
884.495 .0247518
885.160 .0247466
885.825 .0247409
886.490 .0247353
887.154 .0247299
887.818 .0247257
888.482 .0247225
889.145 .0247201
889.808 .0247188
890.471 .0247181
891.133 .0247171
891.795 .0247160
892.456 .0247142
893.117 .0247108
893.778 .0247063
894.439 .0247012
895.099 .0246950
895.758 .0246881
896.417 .0246812
897.076 .0246738
897.735 .0246661
898.393 .0246580
899.051 .0246491
899.708 .0246396
900.365 .0246297
901.022 .0246194
901.678 .0246091
902.334 .0245998
902.990 .0245912
903.645 .0245831
904.300 .0245762
904.954 .0245702
905.608 .0245644
906.262 .0245586
906.915 .0245531
907.568 .0245473
908.221 .0245416
908.873 .0245356
909.525 .0245295
910.176 .0245232
910.828 .0245169
911.478 .0245107
912.129 .0245036
912.778 .0244955
913.428 .0244866
914.077 .0244767
914.726 .0244665
915.375 .0244559
916.023 .0244457
916.670 .0244359
917.318 .0244275
917.964 .0244200
918.611 .0244132
919.257 .0244075
919.903 .0244027
920.548 .0243983
921.193 .0243944
921.838 .0243906
922.482 .0243876
923.126 .0243859
923.770 .0243850
924.413 .0243840
925.056 .0243836
925.698 .0243830
926.340 .0243821
926.982 .0243804
927.623 .0243784
928.264 .0243753
928.904 .0243718
929.544 .0243678
930.184 .0243635
930.823 .0243589
931.462 .0243548
932.101 .0243502
932.739 .0243456
933.377 .0243398
934.014 .0243323
934.651 .0243231
935.288 .0243125
935.924 .0243001
936.560 .0242865
937.196 .0242718
937.831 .0242570
938.466 .0242420
939.100 .0242270
939.734 .0242118
940.368 .0241967
941.001 .0241811
941.634 .0241648
942.266 .0241473
942.899 .0241293
943.530 .0241105
944.162 .0240913
944.793 .0240721
945.423 .0240527
946.053 .0240336
946.683 .0240147
947.313 .0239960
947.942 .0239775
948.571 .0239588
949.199 .0239398
949.827 .0239202
950.455 .0239004
951.082 .0238807
951.709 .0238615
952.335 .0238430
952.961 .0238256
953.587 .0238089
954.212 .0237923
954.837 .0237758
955.462 .0237591
956.086 .0237424
956.710 .0237260
957.334 .0237097
957.957 .0236939
958.579 .0236790
959.202 .0236651
959.824 .0236511
960.445 .0236373
961.067 .0236228
961.688 .0236073
962.308 .0235912
962.928 .0235743
963.548 .0235571
964.168 .0235409
964.787 .0235259
965.406 .0235126
966.024 .0235008
966.642 .0234904
967.260 .0234804
967.877 .0234709
968.494 .0234605
969.110 .0234494
969.727 .0234375
970.342 .0234254
970.958 .0234137
971.573 .0234028
972.188 .0233932
972.802 .0233851
973.416 .0233785
974.030 .0233732
974.643 .0233678
975.256 .0233626
975.869 .0233570
976.481 .0233513
977.093 .0233457
977.705 .0233409
978.316 .0233373
978.927 .0233357
979.538 .0233351
980.148 .0233356
980.758 .0233364
981.367 .0233370
981.977 .0233371
982.586 .0233361
983.194 .0233341
983.802 .0233314
984.410 .0233277
985.018 .0233240
985.625 .0233202
986.232 .0233167
986.838 .0233128
987.445 .0233089
988.050 .0233042
988.656 .0232982
989.261 .0232911
989.866 .0232830
990.471 .0232737
991.075 .0232642
991.679 .0232543
992.282 .0232446
992.886 .0232356
993.489 .0232273
994.091 .0232192
994.694 .0232124
995.296 .0232059
995.897 .0231988
996.499 .0231909
997.100 .0231828
997.701 .0231743
998.301 .0231659
998.901 .0231576
999.501 .0231496
1000.101 .0231425
1000.700 .0231367
1001.299 .0231313
1001.898 .0231266
1002.496 .0231229
1003.094 .0231199
1003.692 .0231172
1004.289 .0231145
1004.887 .0231121
1005.484 .0231097
1006.080 .0231072
1006.677 .0231043
1007.273 .0231008
1007.868 .0230969
1008.464 .0230929
1009.059 .0230889
1009.654 .0230848
1010.249 .0230817
1010.843 .0230795
1011.437 .0230780
1012.031 .0230769
1012.625 .0230760
1013.218 .0230740
1013.811 .0230709
1014.404 .0230671
1014.997 .0230618
1015.589 .0230558
1016.181 .0230503
1016.773 .0230458
1017.365 .0230426
1017.956 .0230415
1018.547 .0230419
1019.138 .0230430
1019.728 .0230454
1020.319 .0230471
1020.909 .0230474
1021.499 .0230475
1022.088 .0230470
1022.678 .0230455
1023.267 .0230444
1023.856 .0230445
1024.445 .0230454
1025.033 .0230473
1025.621 .0230502
1026.209 .0230530
1026.797 .0230556
1027.385 .0230580
1027.972 .0230583
1028.560 .0230580
1029.147 .0230563
1029.734 .0230530
1030.320 .0230483
1030.907 .0230425
1031.493 .0230353
1032.079 .0230274
1032.665 .0230188
1033.250 .0230097
1033.836 .0230002
1034.421 .0229912
1035.006 .0229816
1035.591 .0229726
1036.176 .0229645
1036.761 .0229577
1037.345 .0229521
1037.929 .0229484
1038.514 .0229451
1039.097 .0229441
1039.681 .0229451
1040.265 .0229478
1040.848 .0229528
1041.432 .0229598
1042.015 .0229691
1042.598 .0229799
1043.181 .0229916
1043.764 .0230035
1044.346 .0230148
1044.929 .0230258
1045.511 .0230350
1046.094 .0230427
1046.676 .0230491
1047.258 .0230549
1047.840 .0230606
1048.422 .0230668
1049.003 .0230734
1049.585 .0230798
1050.166 .0230861
1050.748 .0230920
1051.329 .0230967
1051.910 .0231000
1052.491 .0231020
1053.072 .0231035
1053.653 .0231034
1054.234 .0231030
1054.815 .0231026
1055.396 .0231021
1055.976 .0231020
1056.557 .0231010
1057.138 .0230986
1057.718 .0230941
1058.298 .0230870
1058.879 .0230775
1059.459 .0230648
1060.039 .0230500
1060.620 .0230326
1061.200 .0230138
1061.780 .0229948
1062.360 .0229763
1062.940 .0229589
1063.520 .0229436
1064.101 .0229299
1064.681 .0229176
1065.261 .0229057
1065.841 .0228942
1066.421 .0228822
1067.001 .0228698
1067.581 .0228568
1068.161 .0228437
1068.741 .0228304
1069.321 .0228192
1069.901 .0228103
1070.482 .0228045
1071.062 .0228018
1071.642 .0228006
1072.222 .0228009
1072.803 .0228015
1073.383 .0228016
1073.963 .0228004
1074.544 .0227982
1075.124 .0227961
1075.705 .0227925
1076.286 .0227898
1076.866 .0227882
1077.447 .0227872
1078.028 .0227887
1078.609 .0227909
1079.190 .0227935
1079.771 .0227969
1080.352 .0228014
1080.934 .0228059
1081.515 .0228117
1082.097 .0228190
1082.679 .0228260
1083.260 .0228334
1083.842 .0228413
1084.424 .0228476
1085.007 .0228528
1085.589 .0228577
1086.172 .0228597
1086.754 .0228600
1087.337 .0228604
1087.920 .0228600
1088.503 .0228616
1089.087 .0228659
1089.670 .0228712
1090.254 .0228771
1090.838 .0228840
1091.422 .0228905
1092.006 .0228963
1092.590 .0229030
1093.175 .0229094
1093.760 .0229157
1094.345 .0229223
1094.930 .0229288
1095.516 .0229354
1096.102 .0229430
1096.688 .0229505
1097.274 .0229556
1097.860 .0229570
1098.447 .0229540
1099.034 .0229488
1099.622 .0229427
1100.209 .0229372
1100.797 .0229328
1101.385 .0229297
1101.973 .0229285
1102.562 .0229280
1103.151 .0229268
1103.740 .0229273
1104.330 .0229295
1104.920 .0229330
1105.510 .0229376
1106.101 .0229461
1106.691 .0229586
1107.283 .0229772
1107.874 .0230022
1108.466 .0230295
1109.058 .0230570
1109.651 .0230822
1110.244 .0231020
1110.837 .0231167
1111.431 .0231283
1112.025 .0231348
1112.620 .0231374
1113.215 .0231401
1113.810 .0231393
1114.406 .0231367
1115.002 .0231330
1115.599 .0231260
1116.196 .0231130
1116.793 .0230918
1117.391 .0230633
1117.989 .0230260
1118.588 .0229862
1119.187 .0229420
1119.787 .0228972
1120.387 .0228556
1120.988 .0228177
1121.589 .0227834
1122.190 .0227556
1122.793 .0227355
1123.395 .0227204
1123.998 .0227131
1124.602 .0227153
1125.206 .0227245
1125.811 .0227446
1126.416 .0227732
1127.022 .0228098
1127.628 .0228501
1128.235 .0228973
1128.843 .0229461
1129.451 .0229977
1130.059 .0230518
1130.669 .0231060
1131.278 .0231584
1131.889 .0232100
1132.500 .0232572
1133.112 .0232987
1133.724 .0233365
1134.337 .0233698
1134.950 .0233933
1135.564 .0234138
1136.179 .0234304
1136.795 .0234504
1137.411 .0234765
1138.028 .0235124
1138.645 .0235568
1139.263 .0236102
1139.882 .0236741
1140.502 .0237436
1141.122 .0238215
1141.743 .0239082
1142.365 .0240126
1142.987 .0240569
1143.611 .0241205
1144.235 .0243018
1144.859 .0244533
1145.485 .0249284
