Measurement Sequence started on: 10-20-44-796
Integration time: 35
Scans to Average: 2 
>>>>>Begin Spectral Data<<<<<
432.953 .0325962
433.882 .0398168
434.810 .0355152
435.737 .0370271
436.662 .0353961
437.586 .0349977
438.509 .0346685
439.431 .0341870
440.351 .0338801
441.269 .0335860
442.187 .0333895
443.103 .0332343
444.018 .0331130
444.932 .0330194
445.844 .0329318
446.756 .0328598
447.666 .0327925
448.575 .0327346
449.482 .0326806
450.388 .0326523
451.294 .0326360
452.198 .0326251
453.100 .0326255
454.002 .0326299
454.902 .0326319
455.801 .0326439
456.699 .0326633
457.596 .0326961
458.492 .0327300
459.387 .0327630
460.280 .0327912
461.172 .0328089
462.064 .0328149
462.954 .0328031
463.843 .0327693
464.730 .0327261
465.617 .0326758
466.503 .0326223
467.387 .0325786
468.271 .0325341
469.153 .0324897
470.035 .0324485
470.915 .0324065
471.794 .0323553
472.673 .0323010
473.550 .0322474
474.426 .0321917
475.301 .0321390
476.175 .0320929
477.048 .0320500
477.920 .0320164
478.791 .0319888
479.661 .0319642
480.530 .0319484
481.398 .0319391
482.266 .0319324
483.132 .0319357
483.997 .0319483
484.861 .0319612
485.724 .0319763
486.587 .0319908
487.448 .0319961
488.308 .0319907
489.168 .0319770
490.026 .0319539
490.884 .0319288
491.741 .0319047
492.597 .0318833
493.452 .0318679
494.306 .0318637
495.159 .0318601
496.011 .0318588
496.862 .0318590
497.713 .0318547
498.562 .0318442
499.411 .0318339
500.259 .0318217
501.106 .0318081
501.952 .0317949
502.798 .0317867
503.642 .0317833
504.486 .0317821
505.329 .0317794
506.171 .0317740
507.012 .0317637
507.852 .0317441
508.692 .0317072
509.531 .0316537
510.369 .0315856
511.206 .0315009
512.043 .0313978
512.878 .0312750
513.713 .0311412
514.547 .0309911
515.381 .0308320
516.213 .0306628
517.045 .0304803
517.876 .0302750
518.706 .0300536
519.536 .0298137
520.365 .0295555
521.193 .0292850
522.020 .0290047
522.847 .0287143
523.673 .0284224
524.498 .0281160
525.323 .0278092
526.146 .0275109
526.969 .0272269
527.792 .0269474
528.614 .0266826
529.435 .0264401
530.255 .0262247
531.075 .0260335
531.894 .0258741
532.712 .0257316
533.530 .0256174
534.347 .0255268
535.163 .0254509
535.979 .0254082
536.794 .0253954
537.608 .0254148
538.422 .0254685
539.235 .0255378
540.048 .0256271
540.860 .0257205
541.671 .0258185
542.481 .0259088
543.292 .0259831
544.101 .0260482
544.910 .0261055
545.718 .0261653
546.526 .0262349
547.333 .0263117
548.139 .0264058
548.945 .0265081
549.750 .0266075
550.555 .0267104
551.359 .0268079
552.162 .0268998
552.965 .0269943
553.768 .0270809
554.569 .0271688
555.371 .0272545
556.171 .0273438
556.972 .0274340
557.771 .0275204
558.570 .0276078
559.369 .0276911
560.167 .0277732
560.964 .0278583
561.761 .0279376
562.558 .0280150
563.354 .0280852
564.149 .0281421
564.944 .0281842
565.738 .0282172
566.532 .0282405
567.325 .0282596
568.118 .0282793
568.910 .0283086
569.702 .0283472
570.494 .0284028
571.285 .0284720
572.075 .0285505
572.865 .0286338
573.654 .0287204
574.443 .0287994
575.232 .0288753
576.020 .0289458
576.807 .0290136
577.594 .0290836
578.381 .0291608
579.167 .0292413
579.952 .0293297
580.738 .0294240
581.522 .0295220
582.307 .0296151
583.091 .0297047
583.874 .0297851
584.657 .0298563
585.440 .0299163
586.222 .0299649
587.004 .0300011
587.785 .0300297
588.566 .0300493
589.346 .0300625
590.126 .0300686
590.906 .0300683
591.685 .0300607
592.464 .0300475
593.242 .0300271
594.020 .0300016
594.797 .0299724
595.575 .0299432
596.351 .0299152
597.128 .0298899
597.904 .0298692
598.679 .0298548
599.454 .0298453
600.229 .0298401
601.004 .0298367
601.778 .0298339
602.551 .0298304
603.325 .0298254
604.097 .0298196
604.870 .0298138
605.642 .0298093
606.414 .0298067
607.185 .0298052
607.956 .0298057
608.727 .0298070
609.497 .0298073
610.267 .0298068
611.037 .0298037
611.806 .0297977
612.575 .0297891
613.344 .0297790
614.112 .0297687
614.880 .0297587
615.647 .0297499
616.414 .0297430
617.181 .0297376
617.948 .0297336
618.714 .0297287
619.480 .0297229
620.245 .0297155
621.011 .0297048
621.775 .0296903
622.540 .0296722
623.304 .0296509
624.068 .0296281
624.832 .0296042
625.595 .0295809
626.358 .0295589
627.120 .0295385
627.883 .0295194
628.645 .0295009
629.406 .0294824
630.168 .0294630
630.929 .0294426
631.689 .0294217
632.450 .0293999
633.210 .0293776
633.970 .0293564
634.729 .0293365
635.489 .0293184
636.248 .0293018
637.006 .0292862
637.765 .0292705
638.523 .0292540
639.280 .0292366
640.038 .0292181
640.795 .0291988
641.552 .0291801
642.309 .0291622
643.065 .0291459
643.821 .0291312
644.577 .0291183
645.332 .0291070
646.088 .0290976
646.843 .0290886
647.597 .0290801
648.352 .0290709
649.106 .0290614
649.860 .0290507
650.613 .0290394
651.367 .0290284
652.120 .0290174
652.872 .0290070
653.625 .0289970
654.377 .0289875
655.129 .0289791
655.881 .0289715
656.632 .0289644
657.384 .0289581
658.135 .0289519
658.885 .0289458
659.636 .0289398
660.386 .0289341
661.136 .0289292
661.885 .0289243
662.635 .0289192
663.384 .0289142
664.133 .0289072
664.881 .0288990
665.630 .0288886
666.378 .0288770
667.126 .0288636
667.874 .0288489
668.621 .0288330
669.368 .0288167
670.115 .0288004
670.862 .0287836
671.608 .0287665
672.354 .0287504
673.100 .0287334
673.846 .0287163
674.591 .0286986
675.337 .0286811
676.082 .0286635
676.826 .0286468
677.571 .0286304
678.315 .0286147
679.059 .0286001
679.803 .0285869
680.547 .0285743
681.290 .0285632
682.033 .0285518
682.776 .0285400
683.518 .0285284
684.261 .0285159
685.003 .0285019
685.745 .0284877
686.487 .0284734
687.228 .0284589
687.969 .0284440
688.710 .0284286
689.451 .0284117
690.192 .0283940
690.932 .0283754
691.672 .0283552
692.412 .0283337
693.152 .0283117
693.891 .0282882
694.630 .0282646
695.369 .0282408
696.108 .0282164
696.846 .0281915
697.585 .0281662
698.323 .0281408
699.061 .0281148
699.798 .0280900
700.536 .0280665
701.273 .0280442
702.010 .0280241
702.746 .0280044
703.483 .0279846
704.219 .0279643
704.955 .0279427
705.691 .0279193
706.427 .0278948
707.162 .0278696
707.897 .0278445
708.632 .0278210
709.367 .0278000
710.101 .0277810
710.835 .0277635
711.569 .0277471
712.303 .0277292
713.037 .0277098
713.770 .0276884
714.503 .0276651
715.236 .0276414
715.969 .0276183
716.702 .0275962
717.434 .0275761
718.166 .0275580
718.898 .0275415
719.629 .0275249
720.361 .0275083
721.092 .0274899
721.823 .0274695
722.554 .0274471
723.284 .0274238
724.014 .0273991
724.744 .0273754
725.474 .0273527
726.204 .0273317
726.933 .0273126
727.662 .0272952
728.391 .0272787
729.120 .0272632
729.849 .0272475
730.577 .0272319
731.305 .0272160
732.033 .0272009
732.760 .0271854
733.488 .0271706
734.215 .0271568
734.942 .0271435
735.669 .0271300
736.395 .0271171
737.122 .0271029
737.848 .0270883
738.573 .0270730
739.299 .0270571
740.024 .0270406
740.750 .0270246
741.474 .0270084
742.199 .0269927
742.924 .0269779
743.648 .0269629
744.372 .0269477
745.096 .0269327
745.819 .0269175
746.543 .0269020
747.266 .0268870
747.989 .0268736
748.711 .0268619
749.434 .0268524
750.156 .0268447
750.878 .0268387
751.599 .0268348
752.321 .0268311
753.042 .0268281
753.763 .0268250
754.484 .0268219
755.205 .0268182
755.925 .0268143
756.645 .0268102
757.365 .0268065
758.085 .0268025
758.804 .0267978
759.523 .0267919
760.242 .0267844
760.961 .0267749
761.679 .0267638
762.397 .0267509
763.115 .0267365
763.833 .0267204
764.551 .0267037
765.268 .0266859
765.985 .0266684
766.702 .0266509
767.418 .0266337
768.134 .0266170
768.850 .0266008
769.566 .0265846
770.282 .0265691
770.997 .0265547
771.712 .0265412
772.427 .0265287
773.142 .0265169
773.856 .0265061
774.570 .0264963
775.284 .0264875
775.998 .0264795
776.711 .0264721
777.424 .0264653
778.137 .0264583
778.849 .0264517
779.562 .0264455
780.274 .0264400
780.986 .0264352
781.697 .0264312
782.409 .0264281
783.120 .0264259
783.831 .0264242
784.541 .0264230
785.252 .0264221
785.962 .0264208
786.671 .0264184
787.381 .0264150
788.090 .0264107
788.799 .0264055
789.508 .0263988
790.217 .0263908
790.925 .0263806
791.633 .0263687
792.341 .0263545
793.048 .0263383
793.755 .0263200
794.462 .0262999
795.169 .0262792
795.875 .0262584
796.581 .0262387
797.287 .0262209
797.993 .0262055
798.698 .0261930
799.403 .0261831
800.108 .0261749
800.812 .0261676
801.517 .0261609
802.221 .0261544
802.924 .0261474
803.628 .0261399
804.331 .0261324
805.034 .0261256
805.736 .0261196
806.439 .0261142
807.141 .0261087
807.843 .0261035
808.544 .0260971
809.245 .0260888
809.946 .0260781
810.647 .0260648
811.347 .0260497
812.047 .0260334
812.747 .0260169
813.447 .0260019
814.146 .0259883
814.845 .0259769
815.543 .0259675
816.242 .0259596
816.940 .0259521
817.638 .0259443
818.335 .0259359
819.032 .0259265
819.729 .0259159
820.426 .0259043
821.122 .0258925
821.818 .0258810
822.514 .0258694
823.209 .0258576
823.905 .0258458
824.599 .0258333
825.294 .0258198
825.988 .0258057
826.682 .0257909
827.376 .0257752
828.069 .0257590
828.762 .0257419
829.455 .0257245
830.147 .0257069
830.840 .0256889
831.531 .0256710
832.223 .0256535
832.914 .0256369
833.605 .0256208
834.296 .0256061
834.986 .0255922
835.676 .0255790
836.366 .0255662
837.055 .0255534
837.744 .0255405
838.433 .0255279
839.121 .0255154
839.809 .0255040
840.497 .0254937
841.185 .0254854
841.872 .0254786
842.559 .0254734
843.245 .0254691
843.932 .0254652
844.617 .0254609
845.303 .0254560
845.988 .0254502
846.673 .0254441
847.358 .0254382
848.042 .0254328
848.726 .0254277
849.410 .0254229
850.093 .0254183
850.776 .0254133
851.459 .0254066
852.141 .0253983
852.823 .0253876
853.505 .0253750
854.186 .0253606
854.867 .0253452
855.548 .0253295
856.228 .0253138
856.908 .0252984
857.588 .0252833
858.267 .0252682
858.946 .0252524
859.625 .0252355
860.303 .0252179
860.981 .0251995
861.659 .0251807
862.336 .0251618
863.013 .0251435
863.690 .0251264
864.366 .0251105
865.042 .0250959
865.718 .0250828
866.393 .0250706
867.068 .0250581
867.743 .0250454
868.417 .0250321
869.091 .0250183
869.765 .0250046
870.438 .0249907
871.111 .0249772
871.783 .0249648
872.456 .0249530
873.127 .0249413
873.799 .0249305
874.470 .0249203
875.141 .0249099
875.811 .0248992
876.481 .0248878
877.151 .0248764
877.820 .0248654
878.489 .0248545
879.158 .0248439
879.826 .0248340
880.494 .0248251
881.162 .0248160
881.829 .0248071
882.496 .0247985
883.163 .0247892
883.829 .0247798
884.495 .0247690
885.160 .0247581
885.825 .0247468
886.490 .0247354
887.154 .0247251
887.818 .0247156
888.482 .0247065
889.145 .0246978
889.808 .0246900
890.471 .0246830
891.133 .0246756
891.795 .0246678
892.456 .0246593
893.117 .0246503
893.778 .0246405
894.439 .0246302
895.099 .0246194
895.758 .0246097
896.417 .0246003
897.076 .0245913
897.735 .0245834
898.393 .0245764
899.051 .0245702
899.708 .0245637
900.365 .0245572
901.022 .0245504
901.678 .0245428
902.334 .0245354
902.990 .0245278
903.645 .0245207
904.300 .0245148
904.954 .0245096
905.608 .0245054
906.262 .0245026
906.915 .0245005
907.568 .0244984
908.221 .0244967
908.873 .0244948
909.525 .0244923
910.176 .0244894
910.828 .0244862
911.478 .0244824
912.129 .0244782
912.778 .0244725
913.428 .0244647
914.077 .0244557
914.726 .0244450
915.375 .0244324
916.023 .0244187
916.670 .0244047
917.318 .0243897
917.964 .0243748
918.611 .0243596
919.257 .0243444
919.903 .0243287
920.548 .0243127
921.193 .0242957
921.838 .0242785
922.482 .0242616
923.126 .0242457
923.770 .0242316
924.413 .0242201
925.056 .0242105
925.698 .0242031
926.340 .0241976
926.982 .0241934
927.623 .0241894
928.264 .0241851
928.904 .0241799
929.544 .0241733
930.184 .0241654
930.823 .0241561
931.462 .0241454
932.101 .0241340
932.739 .0241217
933.377 .0241083
934.014 .0240936
934.651 .0240782
935.288 .0240621
935.924 .0240457
936.560 .0240290
937.196 .0240127
937.831 .0239964
938.466 .0239810
939.100 .0239660
939.734 .0239512
940.368 .0239369
941.001 .0239230
941.634 .0239100
942.266 .0238976
942.899 .0238859
943.530 .0238758
944.162 .0238667
944.793 .0238592
945.423 .0238518
946.053 .0238454
946.683 .0238384
947.313 .0238305
947.942 .0238206
948.571 .0238088
949.199 .0237952
949.827 .0237804
950.455 .0237645
951.082 .0237488
951.709 .0237336
952.335 .0237195
952.961 .0237055
953.587 .0236933
954.212 .0236812
954.837 .0236696
955.462 .0236576
956.086 .0236460
956.710 .0236338
957.334 .0236212
957.957 .0236084
958.579 .0235951
959.202 .0235816
959.824 .0235673
960.445 .0235519
961.067 .0235368
961.688 .0235216
962.308 .0235069
962.928 .0234929
963.548 .0234802
964.168 .0234674
964.787 .0234546
965.406 .0234411
966.024 .0234268
966.642 .0234115
967.260 .0233957
967.877 .0233802
968.494 .0233663
969.110 .0233544
969.727 .0233448
970.342 .0233382
970.958 .0233349
971.573 .0233329
972.188 .0233321
972.802 .0233313
973.416 .0233297
974.030 .0233270
974.643 .0233234
975.256 .0233191
975.869 .0233152
976.481 .0233116
977.093 .0233091
977.705 .0233079
978.316 .0233080
978.927 .0233087
979.538 .0233097
980.148 .0233099
980.758 .0233091
981.367 .0233069
981.977 .0233039
982.586 .0233000
983.194 .0232961
983.802 .0232923
984.410 .0232882
985.018 .0232841
985.625 .0232799
986.232 .0232755
986.838 .0232709
987.445 .0232651
988.050 .0232581
988.656 .0232510
989.261 .0232435
989.866 .0232361
990.471 .0232298
991.075 .0232250
991.679 .0232216
992.282 .0232201
992.886 .0232203
993.489 .0232227
994.091 .0232269
994.694 .0232338
995.296 .0232412
995.897 .0232494
996.499 .0232578
997.100 .0232661
997.701 .0232745
998.301 .0232829
998.901 .0232906
999.501 .0232979
1000.101 .0233050
1000.700 .0233120
1001.299 .0233176
1001.898 .0233226
1002.496 .0233254
1003.094 .0233257
1003.692 .0233230
1004.289 .0233177
1004.887 .0233107
1005.484 .0233034
1006.080 .0232967
1006.677 .0232903
1007.273 .0232850
1007.868 .0232806
1008.464 .0232764
1009.059 .0232727
1009.654 .0232681
1010.249 .0232623
1010.843 .0232564
1011.437 .0232505
1012.031 .0232450
1012.625 .0232415
1013.218 .0232411
1013.811 .0232433
1014.404 .0232473
1014.997 .0232522
1015.589 .0232571
1016.181 .0232616
1016.773 .0232659
1017.365 .0232695
1017.956 .0232730
1018.547 .0232767
1019.138 .0232802
1019.728 .0232852
1020.319 .0232918
1020.909 .0232991
1021.499 .0233064
1022.088 .0233135
1022.678 .0233185
1023.267 .0233205
1023.856 .0233197
1024.445 .0233173
1025.033 .0233131
1025.621 .0233078
1026.209 .0233022
1026.797 .0232969
1027.385 .0232924
1027.972 .0232892
1028.560 .0232871
1029.147 .0232861
1029.734 .0232858
1030.320 .0232853
1030.907 .0232851
1031.493 .0232867
1032.079 .0232903
1032.665 .0232966
1033.250 .0233060
1033.836 .0233182
1034.421 .0233311
1035.006 .0233444
1035.591 .0233576
1036.176 .0233681
1036.761 .0233761
1037.345 .0233809
1037.929 .0233817
1038.514 .0233799
1039.097 .0233761
1039.681 .0233707
1040.265 .0233656
1040.848 .0233611
1041.432 .0233559
1042.015 .0233497
1042.598 .0233438
1043.181 .0233368
1043.764 .0233280
1044.346 .0233194
1044.929 .0233105
1045.511 .0233023
1046.094 .0232964
1046.676 .0232920
1047.258 .0232895
1047.840 .0232905
1048.422 .0232933
1049.003 .0232962
1049.585 .0232995
1050.166 .0233021
1050.748 .0233023
1051.329 .0233000
1051.910 .0232943
1052.491 .0232858
1053.072 .0232756
1053.653 .0232633
1054.234 .0232500
1054.815 .0232381
1055.396 .0232274
1055.976 .0232173
1056.557 .0232082
1057.138 .0231987
1057.718 .0231893
1058.298 .0231794
1058.879 .0231684
1059.459 .0231565
1060.039 .0231451
1060.620 .0231324
1061.200 .0231213
1061.780 .0231123
1062.360 .0231057
1062.940 .0231020
1063.520 .0231029
1064.101 .0231056
1064.681 .0231100
1065.261 .0231150
1065.841 .0231191
1066.421 .0231215
1067.001 .0231230
1067.581 .0231204
1068.161 .0231182
1068.741 .0231174
1069.321 .0231189
1069.901 .0231234
1070.482 .0231321
1071.062 .0231410
1071.642 .0231495
1072.222 .0231549
1072.803 .0231558
1073.383 .0231514
1073.963 .0231439
1074.544 .0231339
1075.124 .0231242
1075.705 .0231155
1076.286 .0231102
1076.866 .0231091
1077.447 .0231118
1078.028 .0231143
1078.609 .0231160
1079.190 .0231148
1079.771 .0231100
1080.352 .0231026
1080.934 .0230950
1081.515 .0230888
1082.097 .0230877
1082.679 .0230922
1083.260 .0231014
1083.842 .0231151
1084.424 .0231303
1085.007 .0231426
1085.589 .0231521
1086.172 .0231567
1086.754 .0231550
1087.337 .0231500
1087.920 .0231434
1088.503 .0231386
1089.087 .0231368
1089.670 .0231388
1090.254 .0231430
1090.838 .0231474
1091.422 .0231517
1092.006 .0231510
1092.590 .0231464
1093.175 .0231387
1093.760 .0231260
1094.345 .0231109
1094.930 .0230940
1095.516 .0230783
1096.102 .0230640
1096.688 .0230528
1097.274 .0230428
1097.860 .0230331
1098.447 .0230204
1099.034 .0230049
1099.622 .0229859
1100.209 .0229666
1100.797 .0229482
1101.385 .0229314
1101.973 .0229188
1102.562 .0229117
1103.151 .0229082
1103.740 .0229108
1104.330 .0229146
1104.920 .0229227
1105.510 .0229292
1106.101 .0229366
1106.691 .0229421
1107.283 .0229481
1107.874 .0229534
1108.466 .0229575
1109.058 .0229608
1109.651 .0229605
1110.244 .0229566
1110.837 .0229515
1111.431 .0229438
1112.025 .0229369
1112.620 .0229267
1113.215 .0229190
1113.810 .0229116
1114.406 .0229064
1115.002 .0229036
1115.599 .0229044
1116.196 .0229083
1116.793 .0229146
1117.391 .0229213
1117.989 .0229298
1118.588 .0229440
1119.187 .0229613
1119.787 .0229823
1120.387 .0230059
1120.988 .0230329
1121.589 .0230598
1122.190 .0230825
1122.793 .0231015
1123.395 .0231107
1123.998 .0231112
1124.602 .0231061
1125.206 .0230916
1125.811 .0230767
1126.416 .0230634
1127.022 .0230554
1127.628 .0230548
1128.235 .0230611
1128.843 .0230737
1129.451 .0230944
1130.059 .0231205
1130.669 .0231507
1131.278 .0231796
1131.889 .0232075
1132.500 .0232343
1133.112 .0232577
1133.724 .0232798
1134.337 .0232985
1134.950 .0233181
1135.564 .0233395
1136.179 .0233579
1136.795 .0233765
1137.411 .0233922
1138.028 .0234042
1138.645 .0234137
1139.263 .0234154
1139.882 .0234051
1140.502 .0233905
1141.122 .0233804
1141.743 .0233762
1142.365 .0233640
1142.987 .0231616
1143.611 .0232666
1144.235 .0235281
1144.859 .0236188
1145.485 .0231717
