Measurement Sequence started on: 10-20-44-796
Integration time: 35
Scans to Average: 2 
>>>>>Begin Spectral Data<<<<<
432.953 .0261356
433.882 .0400387
434.810 .0354507
435.737 .0374120
436.662 .0371671
437.586 .0360884
438.509 .0361905
439.431 .0358417
440.351 .0356293
441.269 .0353755
442.187 .0351535
443.103 .0349664
444.018 .0348154
444.932 .0346757
445.844 .0345695
446.756 .0344790
447.666 .0344270
448.575 .0344085
449.482 .0344209
450.388 .0344554
451.294 .0344976
452.198 .0345345
453.100 .0345510
454.002 .0345643
454.902 .0345666
455.801 .0345580
456.699 .0345476
457.596 .0345415
458.492 .0345400
459.387 .0345444
460.280 .0345423
461.172 .0345281
462.064 .0345023
462.954 .0344624
463.843 .0344047
464.730 .0343395
465.617 .0342711
466.503 .0342064
467.387 .0341503
468.271 .0341015
469.153 .0340551
470.035 .0340140
470.915 .0339782
471.794 .0339402
472.673 .0338954
473.550 .0338493
474.426 .0338012
475.301 .0337595
476.175 .0337230
477.048 .0336949
477.920 .0336770
478.791 .0336692
479.661 .0336628
480.530 .0336582
481.398 .0336558
482.266 .0336533
483.132 .0336485
483.997 .0336435
484.861 .0336398
485.724 .0336411
486.587 .0336491
487.448 .0336647
488.308 .0336824
489.168 .0337025
490.026 .0337163
490.884 .0337218
491.741 .0337153
492.597 .0336948
493.452 .0336627
494.306 .0336238
495.159 .0335788
496.011 .0335307
496.862 .0334817
497.713 .0334325
498.562 .0333788
499.411 .0333181
500.259 .0332452
501.106 .0331629
501.952 .0330722
502.798 .0329769
503.642 .0328790
504.486 .0327856
505.329 .0327018
506.171 .0326287
507.012 .0325671
507.852 .0325152
508.692 .0324680
509.531 .0324232
510.369 .0323708
511.206 .0323084
512.043 .0322338
512.878 .0321499
513.713 .0320563
514.547 .0319570
515.381 .0318547
516.213 .0317533
517.045 .0316506
517.876 .0315483
518.706 .0314407
519.536 .0313240
520.365 .0311948
521.193 .0310492
522.020 .0308859
522.847 .0307070
523.673 .0305143
524.498 .0303184
525.323 .0301209
526.146 .0299336
526.969 .0297530
527.792 .0295830
528.614 .0294226
529.435 .0292660
530.255 .0291091
531.075 .0289450
531.894 .0287745
532.712 .0285989
533.530 .0284144
534.347 .0282292
535.163 .0280479
535.979 .0278782
536.794 .0277315
537.608 .0276065
538.422 .0275050
539.235 .0274363
540.048 .0273956
540.860 .0273768
541.671 .0273799
542.481 .0274002
543.292 .0274309
544.101 .0274671
544.910 .0275065
545.718 .0275383
546.526 .0275711
547.333 .0276075
548.139 .0276384
548.945 .0276747
549.750 .0277183
550.555 .0277677
551.359 .0278291
552.162 .0279049
552.965 .0279896
553.768 .0280844
554.569 .0281845
555.371 .0282808
556.171 .0283717
556.972 .0284564
557.771 .0285308
558.570 .0285942
559.369 .0286551
560.167 .0287159
560.964 .0287758
561.761 .0288412
562.558 .0289092
563.354 .0289772
564.149 .0290440
564.944 .0291022
565.738 .0291521
566.532 .0291939
567.325 .0292264
568.118 .0292533
568.910 .0292793
569.702 .0293110
570.494 .0293497
571.285 .0293942
572.075 .0294467
572.865 .0295021
573.654 .0295578
574.443 .0296114
575.232 .0296612
576.020 .0297098
576.807 .0297559
577.594 .0298025
578.381 .0298519
579.167 .0299066
579.952 .0299673
580.738 .0300331
581.522 .0301007
582.307 .0301678
583.091 .0302313
583.874 .0302888
584.657 .0303412
585.440 .0303893
586.222 .0304341
587.004 .0304745
587.785 .0305139
588.566 .0305510
589.346 .0305849
590.126 .0306156
590.906 .0306412
591.685 .0306618
592.464 .0306749
593.242 .0306820
594.020 .0306831
594.797 .0306809
595.575 .0306767
596.351 .0306711
597.128 .0306672
597.904 .0306635
598.679 .0306616
599.454 .0306597
600.229 .0306573
601.004 .0306536
601.778 .0306473
602.551 .0306389
603.325 .0306288
604.097 .0306175
604.870 .0306053
605.642 .0305936
606.414 .0305829
607.185 .0305724
607.956 .0305619
608.727 .0305512
609.497 .0305403
610.267 .0305276
611.037 .0305136
611.806 .0304974
612.575 .0304802
613.344 .0304621
614.112 .0304431
614.880 .0304243
615.647 .0304059
616.414 .0303882
617.181 .0303709
617.948 .0303541
618.714 .0303375
619.480 .0303203
620.245 .0303021
621.011 .0302828
621.775 .0302618
622.540 .0302389
623.304 .0302149
624.068 .0301909
624.832 .0301670
625.595 .0301433
626.358 .0301207
627.120 .0300995
627.883 .0300789
628.645 .0300588
629.406 .0300379
630.168 .0300163
630.929 .0299942
631.689 .0299710
632.450 .0299461
633.210 .0299211
633.970 .0298967
634.729 .0298732
635.489 .0298504
636.248 .0298282
637.006 .0298055
637.765 .0297824
638.523 .0297584
639.280 .0297333
640.038 .0297072
640.795 .0296818
641.552 .0296569
642.309 .0296338
643.065 .0296133
643.821 .0295947
644.577 .0295782
645.332 .0295631
646.088 .0295477
646.843 .0295309
647.597 .0295123
648.352 .0294926
649.106 .0294726
649.860 .0294524
650.613 .0294325
651.367 .0294139
652.120 .0293965
652.872 .0293794
653.625 .0293623
654.377 .0293450
655.129 .0293265
655.881 .0293066
656.632 .0292853
657.384 .0292624
658.135 .0292400
658.885 .0292182
659.636 .0291974
660.386 .0291789
661.136 .0291623
661.885 .0291471
662.635 .0291337
663.384 .0291219
664.133 .0291110
664.881 .0291007
665.630 .0290908
666.378 .0290802
667.126 .0290691
667.874 .0290571
668.621 .0290440
669.368 .0290300
670.115 .0290153
670.862 .0289987
671.608 .0289817
672.354 .0289644
673.100 .0289468
673.846 .0289290
674.591 .0289111
675.337 .0288930
676.082 .0288750
676.826 .0288564
677.571 .0288373
678.315 .0288179
679.059 .0287985
679.803 .0287785
680.547 .0287585
681.290 .0287383
682.033 .0287182
682.776 .0286984
683.518 .0286794
684.261 .0286608
685.003 .0286431
685.745 .0286257
686.487 .0286088
687.228 .0285919
687.969 .0285746
688.710 .0285562
689.451 .0285370
690.192 .0285172
690.932 .0284965
691.672 .0284750
692.412 .0284540
693.152 .0284340
693.891 .0284154
694.630 .0283984
695.369 .0283825
696.108 .0283676
696.846 .0283534
697.585 .0283386
698.323 .0283226
699.061 .0283055
699.798 .0282873
700.536 .0282683
701.273 .0282489
702.010 .0282296
702.746 .0282105
703.483 .0281925
704.219 .0281754
704.955 .0281582
705.691 .0281409
706.427 .0281239
707.162 .0281063
707.897 .0280887
708.632 .0280711
709.367 .0280542
710.101 .0280383
710.835 .0280239
711.569 .0280103
712.303 .0279976
713.037 .0279861
713.770 .0279747
714.503 .0279630
715.236 .0279513
715.969 .0279392
716.702 .0279268
717.434 .0279146
718.166 .0279019
718.898 .0278882
719.629 .0278742
720.361 .0278589
721.092 .0278423
721.823 .0278242
722.554 .0278043
723.284 .0277831
724.014 .0277604
724.744 .0277370
725.474 .0277124
726.204 .0276880
726.933 .0276639
727.662 .0276400
728.391 .0276166
729.120 .0275942
729.849 .0275730
730.577 .0275532
731.305 .0275343
732.033 .0275163
732.760 .0274990
733.488 .0274828
734.215 .0274672
734.942 .0274529
735.669 .0274394
736.395 .0274270
737.122 .0274150
737.848 .0274039
738.573 .0273926
739.299 .0273810
740.024 .0273687
740.750 .0273555
741.474 .0273410
742.199 .0273252
742.924 .0273082
743.648 .0272910
744.372 .0272731
745.096 .0272558
745.819 .0272386
746.543 .0272224
747.266 .0272069
747.989 .0271923
748.711 .0271788
749.434 .0271665
750.156 .0271557
750.878 .0271463
751.599 .0271390
752.321 .0271342
753.042 .0271313
753.763 .0271309
754.484 .0271322
755.205 .0271346
755.925 .0271373
756.645 .0271391
757.365 .0271396
758.085 .0271379
758.804 .0271342
759.523 .0271286
760.242 .0271216
760.961 .0271133
761.679 .0271042
762.397 .0270943
763.115 .0270833
763.833 .0270705
764.551 .0270554
765.268 .0270374
765.985 .0270166
766.702 .0269941
767.418 .0269698
768.134 .0269454
768.850 .0269222
769.566 .0269004
770.282 .0268810
770.997 .0268633
771.712 .0268468
772.427 .0268310
773.142 .0268155
773.856 .0267992
774.570 .0267818
775.284 .0267642
775.998 .0267466
776.711 .0267296
777.424 .0267140
778.137 .0266995
778.849 .0266862
779.562 .0266743
780.274 .0266629
780.986 .0266520
781.697 .0266418
782.409 .0266320
783.120 .0266225
783.831 .0266141
784.541 .0266063
785.252 .0265995
785.962 .0265936
786.671 .0265884
787.381 .0265831
788.090 .0265776
788.799 .0265713
789.508 .0265640
790.217 .0265555
790.925 .0265458
791.633 .0265350
792.341 .0265234
793.048 .0265109
793.755 .0264977
794.462 .0264839
795.169 .0264694
795.875 .0264539
796.581 .0264378
797.287 .0264209
797.993 .0264040
798.698 .0263873
799.403 .0263715
800.108 .0263570
800.812 .0263443
801.517 .0263332
802.221 .0263236
802.924 .0263149
803.628 .0263066
804.331 .0262980
805.034 .0262893
805.736 .0262801
806.439 .0262705
807.141 .0262609
807.843 .0262512
808.544 .0262413
809.245 .0262313
809.946 .0262201
810.647 .0262081
811.347 .0261948
812.047 .0261801
812.747 .0261642
813.447 .0261469
814.146 .0261291
814.845 .0261117
815.543 .0260948
816.242 .0260789
816.940 .0260641
817.638 .0260506
818.335 .0260376
819.032 .0260251
819.729 .0260127
820.426 .0260001
821.122 .0259875
821.818 .0259745
822.514 .0259610
823.209 .0259477
823.905 .0259345
824.599 .0259209
825.294 .0259079
825.988 .0258944
826.682 .0258805
827.376 .0258661
828.069 .0258512
828.762 .0258354
829.455 .0258182
830.147 .0257999
830.840 .0257809
831.531 .0257612
832.223 .0257416
832.914 .0257221
833.605 .0257036
834.296 .0256861
834.986 .0256697
835.676 .0256539
836.366 .0256394
837.055 .0256252
837.744 .0256117
838.433 .0255980
839.121 .0255852
839.809 .0255726
840.497 .0255610
841.185 .0255506
841.872 .0255417
842.559 .0255341
843.245 .0255279
843.932 .0255224
844.617 .0255180
845.303 .0255138
845.988 .0255097
846.673 .0255046
847.358 .0254990
848.042 .0254925
848.726 .0254855
849.410 .0254777
850.093 .0254696
850.776 .0254610
851.459 .0254521
852.141 .0254424
852.823 .0254318
853.505 .0254203
854.186 .0254081
854.867 .0253950
855.548 .0253816
856.228 .0253682
856.908 .0253553
857.588 .0253429
858.267 .0253317
858.946 .0253211
859.625 .0253114
860.303 .0253025
860.981 .0252945
861.659 .0252872
862.336 .0252802
863.013 .0252734
863.690 .0252673
864.366 .0252615
865.042 .0252559
865.718 .0252502
866.393 .0252448
867.068 .0252386
867.743 .0252313
868.417 .0252230
869.091 .0252137
869.765 .0252036
870.438 .0251927
871.111 .0251811
871.783 .0251695
872.456 .0251575
873.127 .0251452
873.799 .0251326
874.470 .0251200
875.141 .0251069
875.811 .0250933
876.481 .0250797
877.151 .0250670
877.820 .0250548
878.489 .0250442
879.158 .0250349
879.826 .0250268
880.494 .0250201
881.162 .0250142
881.829 .0250090
882.496 .0250042
883.163 .0249994
883.829 .0249947
884.495 .0249901
885.160 .0249861
885.825 .0249819
886.490 .0249780
887.154 .0249749
887.818 .0249715
888.482 .0249678
889.145 .0249636
889.808 .0249589
890.471 .0249542
891.133 .0249493
891.795 .0249442
892.456 .0249396
893.117 .0249355
893.778 .0249319
894.439 .0249283
895.099 .0249251
895.758 .0249220
896.417 .0249189
897.076 .0249160
897.735 .0249132
898.393 .0249104
899.051 .0249082
899.708 .0249058
900.365 .0249038
901.022 .0249015
901.678 .0248989
902.334 .0248960
902.990 .0248930
903.645 .0248892
904.300 .0248855
904.954 .0248814
905.608 .0248776
906.262 .0248738
906.915 .0248703
907.568 .0248669
908.221 .0248640
908.873 .0248617
909.525 .0248597
910.176 .0248583
910.828 .0248577
911.478 .0248571
912.129 .0248572
912.778 .0248571
913.428 .0248567
914.077 .0248559
914.726 .0248546
915.375 .0248527
916.023 .0248504
916.670 .0248478
917.318 .0248449
917.964 .0248416
918.611 .0248379
919.257 .0248333
919.903 .0248274
920.548 .0248199
921.193 .0248100
921.838 .0247983
922.482 .0247849
923.126 .0247704
923.770 .0247557
924.413 .0247409
925.056 .0247268
925.698 .0247141
926.340 .0247025
926.982 .0246922
927.623 .0246823
928.264 .0246729
928.904 .0246632
929.544 .0246533
930.184 .0246431
930.823 .0246330
931.462 .0246235
932.101 .0246153
932.739 .0246080
933.377 .0246019
934.014 .0245962
934.651 .0245906
935.288 .0245845
935.924 .0245771
936.560 .0245684
937.196 .0245582
937.831 .0245468
938.466 .0245349
939.100 .0245227
939.734 .0245106
940.368 .0244988
941.001 .0244872
941.634 .0244759
942.266 .0244643
942.899 .0244523
943.530 .0244400
944.162 .0244272
944.793 .0244142
945.423 .0244012
946.053 .0243882
946.683 .0243759
947.313 .0243636
947.942 .0243515
948.571 .0243387
949.199 .0243252
949.827 .0243109
950.455 .0242957
951.082 .0242799
951.709 .0242641
952.335 .0242481
952.961 .0242327
953.587 .0242177
954.212 .0242034
954.837 .0241892
955.462 .0241754
956.086 .0241619
956.710 .0241486
957.334 .0241359
957.957 .0241241
958.579 .0241130
959.202 .0241037
959.824 .0240950
960.445 .0240871
961.067 .0240801
961.688 .0240736
962.308 .0240672
962.928 .0240615
963.548 .0240560
964.168 .0240503
964.787 .0240442
965.406 .0240378
966.024 .0240303
966.642 .0240219
967.260 .0240129
967.877 .0240025
968.494 .0239914
969.110 .0239801
969.727 .0239683
970.342 .0239569
970.958 .0239459
971.573 .0239353
972.188 .0239247
972.802 .0239144
973.416 .0239037
974.030 .0238927
974.643 .0238817
975.256 .0238709
975.869 .0238601
976.481 .0238497
977.093 .0238396
977.705 .0238296
978.316 .0238195
978.927 .0238090
979.538 .0237973
980.148 .0237844
980.758 .0237699
981.367 .0237548
981.977 .0237392
982.586 .0237241
983.194 .0237098
983.802 .0236973
984.410 .0236855
985.018 .0236751
985.625 .0236653
986.232 .0236563
986.838 .0236477
987.445 .0236393
988.050 .0236311
988.656 .0236239
989.261 .0236176
989.866 .0236122
990.471 .0236078
991.075 .0236047
991.679 .0236019
992.282 .0235994
992.886 .0235964
993.489 .0235930
994.091 .0235888
994.694 .0235843
995.296 .0235798
995.897 .0235754
996.499 .0235713
997.100 .0235676
997.701 .0235648
998.301 .0235627
998.901 .0235615
999.501 .0235613
1000.101 .0235620
1000.700 .0235639
1001.299 .0235668
1001.898 .0235706
1002.496 .0235744
1003.094 .0235787
1003.692 .0235829
1004.289 .0235865
1004.887 .0235894
1005.484 .0235912
1006.080 .0235924
1006.677 .0235927
1007.273 .0235928
1007.868 .0235923
1008.464 .0235919
1009.059 .0235918
1009.654 .0235907
1010.249 .0235890
1010.843 .0235863
1011.437 .0235828
1012.031 .0235784
1012.625 .0235736
1013.218 .0235685
1013.811 .0235634
1014.404 .0235590
1014.997 .0235555
1015.589 .0235527
1016.181 .0235505
1016.773 .0235486
1017.365 .0235466
1017.956 .0235441
1018.547 .0235404
1019.138 .0235350
1019.728 .0235292
1020.319 .0235227
1020.909 .0235158
1021.499 .0235083
1022.088 .0235010
1022.678 .0234938
1023.267 .0234869
1023.856 .0234806
1024.445 .0234743
1025.033 .0234687
1025.621 .0234636
1026.209 .0234585
1026.797 .0234533
1027.385 .0234478
1027.972 .0234425
1028.560 .0234378
1029.147 .0234337
1029.734 .0234308
1030.320 .0234298
1030.907 .0234312
1031.493 .0234346
1032.079 .0234392
1032.665 .0234454
1033.250 .0234515
1033.836 .0234560
1034.421 .0234587
1035.006 .0234583
1035.591 .0234556
1036.176 .0234510
1036.761 .0234450
1037.345 .0234382
1037.929 .0234317
1038.514 .0234252
1039.097 .0234186
1039.681 .0234126
1040.265 .0234062
1040.848 .0233985
1041.432 .0233904
1042.015 .0233816
1042.598 .0233716
1043.181 .0233612
1043.764 .0233516
1044.346 .0233433
1044.929 .0233376
1045.511 .0233343
1046.094 .0233339
1046.676 .0233373
1047.258 .0233428
1047.840 .0233491
1048.422 .0233559
1049.003 .0233622
1049.585 .0233665
1050.166 .0233682
1050.748 .0233676
1051.329 .0233648
1051.910 .0233607
1052.491 .0233554
1053.072 .0233497
1053.653 .0233445
1054.234 .0233389
1054.815 .0233325
1055.396 .0233251
1055.976 .0233161
1056.557 .0233049
1057.138 .0232933
1057.718 .0232813
1058.298 .0232693
1058.879 .0232593
1059.459 .0232509
1060.039 .0232450
1060.620 .0232404
1061.200 .0232367
1061.780 .0232333
1062.360 .0232296
1062.940 .0232251
1063.520 .0232169
1064.101 .0232060
1064.681 .0231937
1065.261 .0231779
1065.841 .0231613
1066.421 .0231444
1067.001 .0231282
1067.581 .0231130
1068.161 .0230996
1068.741 .0230869
1069.321 .0230750
1069.901 .0230636
1070.482 .0230509
1071.062 .0230357
1071.642 .0230190
1072.222 .0230004
1072.803 .0229818
1073.383 .0229668
1073.963 .0229558
1074.544 .0229482
1075.124 .0229460
1075.705 .0229463
1076.286 .0229479
1076.866 .0229492
1077.447 .0229490
1078.028 .0229459
1078.609 .0229411
1079.190 .0229352
1079.771 .0229281
1080.352 .0229224
1080.934 .0229192
1081.515 .0229182
1082.097 .0229215
1082.679 .0229262
1083.260 .0229325
1083.842 .0229401
1084.424 .0229495
1085.007 .0229598
1085.589 .0229694
1086.172 .0229795
1086.754 .0229885
1087.337 .0229959
1087.920 .0230032
1088.503 .0230088
1089.087 .0230128
1089.670 .0230162
1090.254 .0230179
1090.838 .0230188
1091.422 .0230187
1092.006 .0230177
1092.590 .0230154
1093.175 .0230120
1093.760 .0230074
1094.345 .0229995
1094.930 .0229902
1095.516 .0229809
1096.102 .0229697
1096.688 .0229585
1097.274 .0229492
1097.860 .0229407
1098.447 .0229331
1099.034 .0229284
1099.622 .0229256
1100.209 .0229252
1100.797 .0229258
1101.385 .0229268
1101.973 .0229280
1102.562 .0229283
1103.151 .0229273
1103.740 .0229245
1104.330 .0229223
1104.920 .0229205
1105.510 .0229184
1106.101 .0229183
1106.691 .0229201
1107.283 .0229232
1107.874 .0229276
1108.466 .0229322
1109.058 .0229360
1109.651 .0229399
1110.244 .0229448
1110.837 .0229522
1111.431 .0229618
1112.025 .0229737
1112.620 .0229897
1113.215 .0230072
1113.810 .0230253
1114.406 .0230431
1115.002 .0230574
1115.599 .0230696
1116.196 .0230760
1116.793 .0230762
1117.391 .0230728
1117.989 .0230639
1118.588 .0230519
1119.187 .0230360
1119.787 .0230158
1120.387 .0229902
1120.988 .0229597
1121.589 .0229276
1122.190 .0228903
1122.793 .0228520
1123.395 .0228151
1123.998 .0227793
1124.602 .0227489
1125.206 .0227240
1125.811 .0227048
1126.416 .0226943
1127.022 .0226910
1127.628 .0226923
1128.235 .0226999
1128.843 .0227152
1129.451 .0227346
1130.059 .0227601
1130.669 .0227936
1131.278 .0228342
1131.889 .0228814
1132.500 .0229390
1133.112 .0230043
1133.724 .0230756
1134.337 .0231544
1134.950 .0232311
1135.564 .0233058
1136.179 .0233748
1136.795 .0234380
1137.411 .0234980
1138.028 .0235544
1138.645 .0236141
1139.263 .0236788
1139.882 .0237460
1140.502 .0238116
1141.122 .0238737
1141.743 .0239415
1142.365 .0240382
1142.987 .0240582
1143.611 .0239731
1144.235 .0240699
1144.859 .0243401
1145.485 .0252822
