Measurement Sequence started on: 10-20-44-796
Integration time: 35
Scans to Average: 2 
>>>>>Begin Spectral Data<<<<<
432.953 .0475362
433.882 .0382170
434.810 .0389718
435.737 .0366476
436.662 .0358260
437.586 .0362721
438.509 .0355624
439.431 .0352519
440.351 .0349913
441.269 .0348366
442.187 .0347235
443.103 .0346530
444.018 .0345756
444.932 .0345278
445.844 .0345038
446.756 .0345078
447.666 .0345161
448.575 .0345182
449.482 .0345181
450.388 .0345083
451.294 .0344790
452.198 .0344300
453.100 .0343679
454.002 .0343038
454.902 .0342369
455.801 .0341727
456.699 .0341117
457.596 .0340615
458.492 .0340128
459.387 .0339638
460.280 .0339156
461.172 .0338763
462.064 .0338395
462.954 .0338087
463.843 .0337864
464.730 .0337744
465.617 .0337759
466.503 .0337888
467.387 .0338114
468.271 .0338372
469.153 .0338644
470.035 .0338881
470.915 .0339039
471.794 .0339143
472.673 .0339148
473.550 .0339059
474.426 .0338954
475.301 .0338782
476.175 .0338565
477.048 .0338322
477.920 .0338072
478.791 .0337810
479.661 .0337524
480.530 .0337210
481.398 .0336868
482.266 .0336510
483.132 .0336163
483.997 .0335813
484.861 .0335498
485.724 .0335254
486.587 .0335077
487.448 .0334962
488.308 .0334916
489.168 .0334886
490.026 .0334874
490.884 .0334839
491.741 .0334732
492.597 .0334514
493.452 .0334194
494.306 .0333789
495.159 .0333295
496.011 .0332751
496.862 .0332191
497.713 .0331597
498.562 .0330991
499.411 .0330339
500.259 .0329604
501.106 .0328771
501.952 .0327855
502.798 .0326851
503.642 .0325774
504.486 .0324677
505.329 .0323582
506.171 .0322547
507.012 .0321606
507.852 .0320716
508.692 .0319860
509.531 .0319024
510.369 .0318169
511.206 .0317283
512.043 .0316366
512.878 .0315398
513.713 .0314408
514.547 .0313421
515.381 .0312433
516.213 .0311423
517.045 .0310371
517.876 .0309250
518.706 .0308078
519.536 .0306846
520.365 .0305550
521.193 .0304214
522.020 .0302907
522.847 .0301580
523.673 .0300244
524.498 .0298868
525.323 .0297338
526.146 .0295711
526.969 .0294072
527.792 .0292333
528.614 .0290620
529.435 .0288987
530.255 .0287520
531.075 .0286236
531.894 .0285207
532.712 .0284266
533.530 .0283400
534.347 .0282569
535.163 .0281586
535.979 .0280466
536.794 .0279307
537.608 .0278125
538.422 .0277002
539.235 .0276048
540.048 .0275285
540.860 .0274645
541.671 .0274262
542.481 .0273997
543.292 .0273814
544.101 .0273662
544.910 .0273450
545.718 .0273234
546.526 .0273041
547.333 .0272907
548.139 .0272842
548.945 .0272928
549.750 .0273142
550.555 .0273466
551.359 .0273926
552.162 .0274505
552.965 .0275185
553.768 .0275951
554.569 .0276754
555.371 .0277571
556.171 .0278388
556.972 .0279184
557.771 .0279967
558.570 .0280761
559.369 .0281506
560.167 .0282213
560.964 .0282916
561.761 .0283613
562.558 .0284296
563.354 .0284993
564.149 .0285666
564.944 .0286309
565.738 .0286913
566.532 .0287474
567.325 .0287990
568.118 .0288444
568.910 .0288849
569.702 .0289232
570.494 .0289627
571.285 .0290080
572.075 .0290604
572.865 .0291223
573.654 .0291930
574.443 .0292686
575.232 .0293482
576.020 .0294312
576.807 .0295163
577.594 .0296013
578.381 .0296852
579.167 .0297701
579.952 .0298539
580.738 .0299366
581.522 .0300171
582.307 .0300934
583.091 .0301659
583.874 .0302325
584.657 .0302916
585.440 .0303447
586.222 .0303922
587.004 .0304350
587.785 .0304747
588.566 .0305101
589.346 .0305419
590.126 .0305698
590.906 .0305939
591.685 .0306135
592.464 .0306272
593.242 .0306376
594.020 .0306436
594.797 .0306472
595.575 .0306493
596.351 .0306494
597.128 .0306496
597.904 .0306484
598.679 .0306462
599.454 .0306421
600.229 .0306366
601.004 .0306296
601.778 .0306210
602.551 .0306114
603.325 .0306009
604.097 .0305892
604.870 .0305757
605.642 .0305606
606.414 .0305423
607.185 .0305206
607.956 .0304962
608.727 .0304696
609.497 .0304420
610.267 .0304132
611.037 .0303848
611.806 .0303563
612.575 .0303276
613.344 .0302992
614.112 .0302700
614.880 .0302411
615.647 .0302121
616.414 .0301833
617.181 .0301562
617.948 .0301312
618.714 .0301086
619.480 .0300885
620.245 .0300713
621.011 .0300555
621.775 .0300399
622.540 .0300237
623.304 .0300068
624.068 .0299886
624.832 .0299688
625.595 .0299479
626.358 .0299265
627.120 .0299056
627.883 .0298842
628.645 .0298630
629.406 .0298421
630.168 .0298204
630.929 .0297985
631.689 .0297748
632.450 .0297511
633.210 .0297272
633.970 .0297036
634.729 .0296806
635.489 .0296581
636.248 .0296359
637.006 .0296141
637.765 .0295928
638.523 .0295720
639.280 .0295516
640.038 .0295327
640.795 .0295152
641.552 .0294988
642.309 .0294836
643.065 .0294695
643.821 .0294559
644.577 .0294423
645.332 .0294273
646.088 .0294107
646.843 .0293928
647.597 .0293739
648.352 .0293544
649.106 .0293355
649.860 .0293176
650.613 .0293008
651.367 .0292853
652.120 .0292706
652.872 .0292563
653.625 .0292420
654.377 .0292272
655.129 .0292113
655.881 .0291944
656.632 .0291772
657.384 .0291610
658.135 .0291460
658.885 .0291328
659.636 .0291215
660.386 .0291124
661.136 .0291047
661.885 .0290972
662.635 .0290897
663.384 .0290824
664.133 .0290745
664.881 .0290659
665.630 .0290560
666.378 .0290462
667.126 .0290365
667.874 .0290270
668.621 .0290178
669.368 .0290090
670.115 .0290005
670.862 .0289925
671.608 .0289845
672.354 .0289769
673.100 .0289690
673.846 .0289615
674.591 .0289540
675.337 .0289463
676.082 .0289382
676.826 .0289298
677.571 .0289211
678.315 .0289121
679.059 .0289022
679.803 .0288915
680.547 .0288804
681.290 .0288686
682.033 .0288551
682.776 .0288405
683.518 .0288247
684.261 .0288075
685.003 .0287891
685.745 .0287701
686.487 .0287506
687.228 .0287310
687.969 .0287122
688.710 .0286937
689.451 .0286761
690.192 .0286585
690.932 .0286405
691.672 .0286221
692.412 .0286038
693.152 .0285848
693.891 .0285656
694.630 .0285471
695.369 .0285294
696.108 .0285122
696.846 .0284958
697.585 .0284794
698.323 .0284634
699.061 .0284469
699.798 .0284296
700.536 .0284112
701.273 .0283918
702.010 .0283715
702.746 .0283507
703.483 .0283298
704.219 .0283091
704.955 .0282884
705.691 .0282683
706.427 .0282481
707.162 .0282281
707.897 .0282081
708.632 .0281876
709.367 .0281670
710.101 .0281463
710.835 .0281256
711.569 .0281053
712.303 .0280850
713.037 .0280656
713.770 .0280462
714.503 .0280266
715.236 .0280063
715.969 .0279853
716.702 .0279639
717.434 .0279417
718.166 .0279188
718.898 .0278958
719.629 .0278727
720.361 .0278500
721.092 .0278275
721.823 .0278048
722.554 .0277819
723.284 .0277580
724.014 .0277326
724.744 .0277060
725.474 .0276781
726.204 .0276500
726.933 .0276224
727.662 .0275956
728.391 .0275704
729.120 .0275466
729.849 .0275250
730.577 .0275048
731.305 .0274853
732.033 .0274661
732.760 .0274462
733.488 .0274262
734.215 .0274058
734.942 .0273859
735.669 .0273670
736.395 .0273496
737.122 .0273337
737.848 .0273188
738.573 .0273045
739.299 .0272900
740.024 .0272749
740.750 .0272587
741.474 .0272411
742.199 .0272220
742.924 .0272019
743.648 .0271814
744.372 .0271610
745.096 .0271414
745.819 .0271225
746.543 .0271045
747.266 .0270872
747.989 .0270705
748.711 .0270550
749.434 .0270406
750.156 .0270277
750.878 .0270168
751.599 .0270080
752.321 .0270015
753.042 .0269974
753.763 .0269951
754.484 .0269939
755.205 .0269932
755.925 .0269925
756.645 .0269907
757.365 .0269877
758.085 .0269834
758.804 .0269778
759.523 .0269712
760.242 .0269637
760.961 .0269548
761.679 .0269451
762.397 .0269344
763.115 .0269221
763.833 .0269076
764.551 .0268915
765.268 .0268737
765.985 .0268547
766.702 .0268352
767.418 .0268158
768.134 .0267970
768.850 .0267803
769.566 .0267649
770.282 .0267512
770.997 .0267388
771.712 .0267273
772.427 .0267158
773.142 .0267041
773.856 .0266916
774.570 .0266783
775.284 .0266648
775.998 .0266512
776.711 .0266377
777.424 .0266253
778.137 .0266134
778.849 .0266022
779.562 .0265920
780.274 .0265828
780.986 .0265739
781.697 .0265658
782.409 .0265581
783.120 .0265512
783.831 .0265457
784.541 .0265416
785.252 .0265387
785.962 .0265376
786.671 .0265378
787.381 .0265383
788.090 .0265392
788.799 .0265399
789.508 .0265394
790.217 .0265377
790.925 .0265345
791.633 .0265291
792.341 .0265219
793.048 .0265128
793.755 .0265021
794.462 .0264904
795.169 .0264775
795.875 .0264636
796.581 .0264496
797.287 .0264361
797.993 .0264232
798.698 .0264112
799.403 .0264004
800.108 .0263903
800.812 .0263811
801.517 .0263721
802.221 .0263633
802.924 .0263550
803.628 .0263473
804.331 .0263404
805.034 .0263350
805.736 .0263307
806.439 .0263277
807.141 .0263258
807.843 .0263242
808.544 .0263217
809.245 .0263173
809.946 .0263108
810.647 .0263020
811.347 .0262915
812.047 .0262802
812.747 .0262685
813.447 .0262577
814.146 .0262479
814.845 .0262396
815.543 .0262323
816.242 .0262252
816.940 .0262179
817.638 .0262097
818.335 .0262005
819.032 .0261908
819.729 .0261808
820.426 .0261710
821.122 .0261619
821.818 .0261533
822.514 .0261450
823.209 .0261368
823.905 .0261283
824.599 .0261191
825.294 .0261088
825.988 .0260972
826.682 .0260843
827.376 .0260706
828.069 .0260568
828.762 .0260427
829.455 .0260287
830.147 .0260146
830.840 .0260007
831.531 .0259868
832.223 .0259732
832.914 .0259593
833.605 .0259457
834.296 .0259319
834.986 .0259183
835.676 .0259051
836.366 .0258923
837.055 .0258803
837.744 .0258694
838.433 .0258589
839.121 .0258489
839.809 .0258391
840.497 .0258296
841.185 .0258199
841.872 .0258103
842.559 .0258007
843.245 .0257908
843.932 .0257812
844.617 .0257714
845.303 .0257612
845.988 .0257512
846.673 .0257408
847.358 .0257299
848.042 .0257188
848.726 .0257075
849.410 .0256952
850.093 .0256826
850.776 .0256696
851.459 .0256560
852.141 .0256419
852.823 .0256274
853.505 .0256126
854.186 .0255975
854.867 .0255822
855.548 .0255668
856.228 .0255518
856.908 .0255376
857.588 .0255237
858.267 .0255104
858.946 .0254978
859.625 .0254858
860.303 .0254736
860.981 .0254620
861.659 .0254507
862.336 .0254394
863.013 .0254281
863.690 .0254166
864.366 .0254049
865.042 .0253930
865.718 .0253812
866.393 .0253692
867.068 .0253571
867.743 .0253449
868.417 .0253317
869.091 .0253179
869.765 .0253036
870.438 .0252886
871.111 .0252729
871.783 .0252569
872.456 .0252404
873.127 .0252237
873.799 .0252069
874.470 .0251906
875.141 .0251747
875.811 .0251597
876.481 .0251450
877.151 .0251307
877.820 .0251170
878.489 .0251037
879.158 .0250904
879.826 .0250782
880.494 .0250666
881.162 .0250556
881.829 .0250448
882.496 .0250342
883.163 .0250235
883.829 .0250130
884.495 .0250020
885.160 .0249909
885.825 .0249796
886.490 .0249682
887.154 .0249564
887.818 .0249454
888.482 .0249346
889.145 .0249236
889.808 .0249132
890.471 .0249026
891.133 .0248915
891.795 .0248801
892.456 .0248684
893.117 .0248568
893.778 .0248452
894.439 .0248336
895.099 .0248220
895.758 .0248114
896.417 .0248012
897.076 .0247916
897.735 .0247827
898.393 .0247743
899.051 .0247659
899.708 .0247569
900.365 .0247476
901.022 .0247381
901.678 .0247284
902.334 .0247187
902.990 .0247093
903.645 .0247006
904.300 .0246920
904.954 .0246839
905.608 .0246765
906.262 .0246696
906.915 .0246627
907.568 .0246559
908.221 .0246491
908.873 .0246425
909.525 .0246362
910.176 .0246297
910.828 .0246235
911.478 .0246175
912.129 .0246110
912.778 .0246039
913.428 .0245966
914.077 .0245890
914.726 .0245803
915.375 .0245710
916.023 .0245612
916.670 .0245507
917.318 .0245394
917.964 .0245277
918.611 .0245152
919.257 .0245021
919.903 .0244875
920.548 .0244715
921.193 .0244545
921.838 .0244369
922.482 .0244184
923.126 .0244000
923.770 .0243825
924.413 .0243660
925.056 .0243502
925.698 .0243361
926.340 .0243232
926.982 .0243116
927.623 .0243005
928.264 .0242894
928.904 .0242779
929.544 .0242667
930.184 .0242550
930.823 .0242436
931.462 .0242328
932.101 .0242223
932.739 .0242123
933.377 .0242028
934.014 .0241932
934.651 .0241833
935.288 .0241732
935.924 .0241629
936.560 .0241522
937.196 .0241416
937.831 .0241308
938.466 .0241203
939.100 .0241105
939.734 .0241007
940.368 .0240905
941.001 .0240801
941.634 .0240690
942.266 .0240572
942.899 .0240447
943.530 .0240315
944.162 .0240176
944.793 .0240032
945.423 .0239881
946.053 .0239722
946.683 .0239557
947.313 .0239387
947.942 .0239212
948.571 .0239031
949.199 .0238845
949.827 .0238656
950.455 .0238469
951.082 .0238287
951.709 .0238110
952.335 .0237942
952.961 .0237780
953.587 .0237625
954.212 .0237472
954.837 .0237321
955.462 .0237172
956.086 .0237027
956.710 .0236882
957.334 .0236742
957.957 .0236606
958.579 .0236476
959.202 .0236355
959.824 .0236241
960.445 .0236135
961.067 .0236039
961.688 .0235950
962.308 .0235867
962.928 .0235789
963.548 .0235714
964.168 .0235639
964.787 .0235565
965.406 .0235493
966.024 .0235419
966.642 .0235340
967.260 .0235259
967.877 .0235173
968.494 .0235078
969.110 .0234975
969.727 .0234860
970.342 .0234743
970.958 .0234622
971.573 .0234498
972.188 .0234376
972.802 .0234262
973.416 .0234158
974.030 .0234056
974.643 .0233963
975.256 .0233876
975.869 .0233794
976.481 .0233722
977.093 .0233656
977.705 .0233603
978.316 .0233567
978.927 .0233547
979.538 .0233542
980.148 .0233550
980.758 .0233563
981.367 .0233580
981.977 .0233605
982.586 .0233629
983.194 .0233648
983.802 .0233670
984.410 .0233694
985.018 .0233723
985.625 .0233754
986.232 .0233792
986.838 .0233827
987.445 .0233861
988.050 .0233887
988.656 .0233897
989.261 .0233895
989.866 .0233880
990.471 .0233853
991.075 .0233817
991.679 .0233776
992.282 .0233729
992.886 .0233681
993.489 .0233644
994.091 .0233609
994.694 .0233581
995.296 .0233558
995.897 .0233541
996.499 .0233535
997.100 .0233537
997.701 .0233553
998.301 .0233584
998.901 .0233642
999.501 .0233715
1000.101 .0233810
1000.700 .0233930
1001.299 .0234062
1001.898 .0234205
1002.496 .0234347
1003.094 .0234478
1003.692 .0234594
1004.289 .0234688
1004.887 .0234765
1005.484 .0234829
1006.080 .0234886
1006.677 .0234932
1007.273 .0234974
1007.868 .0235014
1008.464 .0235051
1009.059 .0235077
1009.654 .0235092
1010.249 .0235095
1010.843 .0235082
1011.437 .0235055
1012.031 .0235015
1012.625 .0234973
1013.218 .0234934
1013.811 .0234902
1014.404 .0234885
1014.997 .0234887
1015.589 .0234903
1016.181 .0234931
1016.773 .0234967
1017.365 .0235008
1017.956 .0235047
1018.547 .0235079
1019.138 .0235113
1019.728 .0235152
1020.319 .0235197
1020.909 .0235247
1021.499 .0235306
1022.088 .0235378
1022.678 .0235450
1023.267 .0235525
1023.856 .0235597
1024.445 .0235670
1025.033 .0235739
1025.621 .0235800
1026.209 .0235857
1026.797 .0235911
1027.385 .0235959
1027.972 .0235999
1028.560 .0236040
1029.147 .0236077
1029.734 .0236113
1030.320 .0236154
1030.907 .0236204
1031.493 .0236267
1032.079 .0236337
1032.665 .0236418
1033.250 .0236498
1033.836 .0236571
1034.421 .0236632
1035.006 .0236670
1035.591 .0236697
1036.176 .0236708
1036.761 .0236710
1037.345 .0236711
1037.929 .0236719
1038.514 .0236732
1039.097 .0236750
1039.681 .0236778
1040.265 .0236803
1040.848 .0236817
1041.432 .0236822
1042.015 .0236809
1042.598 .0236783
1043.181 .0236758
1043.764 .0236736
1044.346 .0236724
1044.929 .0236729
1045.511 .0236753
1046.094 .0236796
1046.676 .0236862
1047.258 .0236938
1047.840 .0237015
1048.422 .0237087
1049.003 .0237140
1049.585 .0237161
1050.166 .0237150
1050.748 .0237117
1051.329 .0237061
1051.910 .0236994
1052.491 .0236931
1053.072 .0236873
1053.653 .0236824
1054.234 .0236792
1054.815 .0236769
1055.396 .0236745
1055.976 .0236710
1056.557 .0236655
1057.138 .0236584
1057.718 .0236494
1058.298 .0236389
1058.879 .0236272
1059.459 .0236159
1060.039 .0236049
1060.620 .0235933
1061.200 .0235816
1061.780 .0235699
1062.360 .0235566
1062.940 .0235427
1063.520 .0235263
1064.101 .0235086
1064.681 .0234895
1065.261 .0234699
1065.841 .0234497
1066.421 .0234304
1067.001 .0234108
1067.581 .0233918
1068.161 .0233729
1068.741 .0233560
1069.321 .0233388
1069.901 .0233240
1070.482 .0233115
1071.062 .0233020
1071.642 .0232954
1072.222 .0232925
1072.803 .0232909
1073.383 .0232937
1073.963 .0232980
1074.544 .0233043
1075.124 .0233111
1075.705 .0233197
1076.286 .0233278
1076.866 .0233376
1077.447 .0233481
1078.028 .0233595
1078.609 .0233712
1079.190 .0233839
1079.771 .0233950
1080.352 .0234052
1080.934 .0234127
1081.515 .0234186
1082.097 .0234236
1082.679 .0234286
1083.260 .0234300
1083.842 .0234303
1084.424 .0234291
1085.007 .0234255
1085.589 .0234183
1086.172 .0234081
1086.754 .0233961
1087.337 .0233843
1087.920 .0233727
1088.503 .0233637
1089.087 .0233584
1089.670 .0233582
1090.254 .0233617
1090.838 .0233671
1091.422 .0233741
1092.006 .0233808
1092.590 .0233871
1093.175 .0233934
1093.760 .0233989
1094.345 .0234032
1094.930 .0234053
1095.516 .0234067
1096.102 .0234073
1096.688 .0234040
1097.274 .0233975
1097.860 .0233888
1098.447 .0233766
1099.034 .0233619
1099.622 .0233443
1100.209 .0233251
1100.797 .0233064
1101.385 .0232872
1101.973 .0232685
1102.562 .0232498
1103.151 .0232324
1103.740 .0232168
1104.330 .0232009
1104.920 .0231886
1105.510 .0231787
1106.101 .0231727
1106.691 .0231725
1107.283 .0231769
1107.874 .0231859
1108.466 .0231978
1109.058 .0232112
1109.651 .0232264
1110.244 .0232399
1110.837 .0232518
1111.431 .0232601
1112.025 .0232661
1112.620 .0232692
1113.215 .0232713
1113.810 .0232706
1114.406 .0232711
1115.002 .0232705
1115.599 .0232690
1116.196 .0232633
1116.793 .0232539
1117.391 .0232394
1117.989 .0232186
1118.588 .0231927
1119.187 .0231636
1119.787 .0231289
1120.387 .0230938
1120.988 .0230575
1121.589 .0230262
1122.190 .0229958
1122.793 .0229686
1123.395 .0229463
1123.998 .0229291
1124.602 .0229158
1125.206 .0229108
1125.811 .0229139
1126.416 .0229295
1127.022 .0229550
1127.628 .0229889
1128.235 .0230309
1128.843 .0230861
1129.451 .0231520
1130.059 .0232224
1130.669 .0232986
1131.278 .0233808
1131.889 .0234592
1132.500 .0235349
1133.112 .0236039
1133.724 .0236657
1134.337 .0237235
1134.950 .0237753
1135.564 .0238199
1136.179 .0238618
1136.795 .0239059
1137.411 .0239473
1138.028 .0239885
1138.645 .0240249
1139.263 .0240574
1139.882 .0240846
1140.502 .0241139
1141.122 .0241417
1141.743 .0241744
1142.365 .0241977
1142.987 .0241659
1143.611 .0243681
1144.235 .0243914
1144.859 .0244400
1145.485 .0240219
