Measurement Sequence started on: 10-20-44-796
Integration time: 35
Scans to Average: 2 
>>>>>Begin Spectral Data<<<<<
432.953 .0445080
433.882 .0347997
434.810 .0356288
435.737 .0360434
436.662 .0353213
437.586 .0355336
438.509 .0352254
439.431 .0352870
440.351 .0353446
441.269 .0354029
442.187 .0354750
443.103 .0355469
444.018 .0355851
444.932 .0355598
445.844 .0355390
446.756 .0355156
447.666 .0355077
448.575 .0354904
449.482 .0354850
450.388 .0354763
451.294 .0354502
452.198 .0353868
453.100 .0352878
454.002 .0351695
454.902 .0350422
455.801 .0349115
456.699 .0348013
457.596 .0347136
458.492 .0346701
459.387 .0346501
460.280 .0346610
461.172 .0346735
462.064 .0346893
462.954 .0346955
463.843 .0346967
464.730 .0346935
465.617 .0346954
466.503 .0346994
467.387 .0347236
468.271 .0347565
469.153 .0348013
470.035 .0348417
470.915 .0348817
471.794 .0348997
472.673 .0348983
473.550 .0348671
474.426 .0348194
475.301 .0347570
476.175 .0346994
477.048 .0346489
477.920 .0346134
478.791 .0345974
479.661 .0345974
480.530 .0346084
481.398 .0346229
482.266 .0346267
483.132 .0346247
483.997 .0346066
484.861 .0345820
485.724 .0345537
486.587 .0345302
487.448 .0345139
488.308 .0345063
489.168 .0345055
490.026 .0345079
490.884 .0345051
491.741 .0344913
492.597 .0344632
493.452 .0344153
494.306 .0343488
495.159 .0342680
496.011 .0341829
496.862 .0340997
497.713 .0340175
498.562 .0339410
499.411 .0338680
500.259 .0338029
501.106 .0337404
501.952 .0336763
502.798 .0336154
503.642 .0335592
504.486 .0335024
505.329 .0334518
506.171 .0334031
507.012 .0333576
507.852 .0333125
508.692 .0332629
509.531 .0332027
510.369 .0331325
511.206 .0330534
512.043 .0329678
512.878 .0328788
513.713 .0327882
514.547 .0326911
515.381 .0326001
516.213 .0325136
517.045 .0324221
517.876 .0323152
518.706 .0321952
519.536 .0320491
520.365 .0318799
521.193 .0316869
522.020 .0314882
522.847 .0313006
523.673 .0311310
524.498 .0309849
525.323 .0308611
526.146 .0307560
526.969 .0306548
527.792 .0305500
528.614 .0304339
529.435 .0302926
530.255 .0301339
531.075 .0299717
531.894 .0298249
532.712 .0296988
533.530 .0296008
534.347 .0295334
535.163 .0294848
535.979 .0294397
536.794 .0293740
537.608 .0292956
538.422 .0292039
539.235 .0290997
540.048 .0289901
540.860 .0288912
541.671 .0288154
542.481 .0287582
543.292 .0287238
544.101 .0287023
544.910 .0286859
545.718 .0286683
546.526 .0286426
547.333 .0286185
548.139 .0285967
548.945 .0285812
549.750 .0285796
550.555 .0285955
551.359 .0286249
552.162 .0286583
552.965 .0287009
553.768 .0287436
554.569 .0287841
555.371 .0288228
556.171 .0288632
556.972 .0289084
557.771 .0289554
558.570 .0290023
559.369 .0290495
560.167 .0290962
560.964 .0291393
561.761 .0291812
562.558 .0292220
563.354 .0292592
564.149 .0292969
564.944 .0293341
565.738 .0293773
566.532 .0294242
567.325 .0294769
568.118 .0295322
568.910 .0295882
569.702 .0296445
570.494 .0296982
571.285 .0297531
572.075 .0298098
572.865 .0298650
573.654 .0299248
574.443 .0299855
575.232 .0300499
576.020 .0301190
576.807 .0301917
577.594 .0302657
578.381 .0303420
579.167 .0304144
579.952 .0304830
580.738 .0305473
581.522 .0306095
582.307 .0306673
583.091 .0307231
583.874 .0307786
584.657 .0308309
585.440 .0308820
586.222 .0309313
587.004 .0309757
587.785 .0310193
588.566 .0310596
589.346 .0310943
590.126 .0311239
590.906 .0311463
591.685 .0311623
592.464 .0311707
593.242 .0311726
594.020 .0311693
594.797 .0311613
595.575 .0311506
596.351 .0311389
597.128 .0311261
597.904 .0311135
598.679 .0311000
599.454 .0310867
600.229 .0310722
601.004 .0310549
601.778 .0310372
602.551 .0310192
603.325 .0310010
604.097 .0309841
604.870 .0309683
605.642 .0309557
606.414 .0309453
607.185 .0309366
607.956 .0309302
608.727 .0309254
609.497 .0309215
610.267 .0309172
611.037 .0309131
611.806 .0309092
612.575 .0309039
613.344 .0308980
614.112 .0308914
614.880 .0308829
615.647 .0308738
616.414 .0308633
617.181 .0308522
617.948 .0308405
618.714 .0308281
619.480 .0308153
620.245 .0308024
621.011 .0307890
621.775 .0307747
622.540 .0307592
623.304 .0307428
624.068 .0307243
624.832 .0307048
625.595 .0306846
626.358 .0306640
627.120 .0306437
627.883 .0306244
628.645 .0306051
629.406 .0305862
630.168 .0305671
630.929 .0305480
631.689 .0305271
632.450 .0305042
633.210 .0304794
633.970 .0304520
634.729 .0304217
635.489 .0303887
636.248 .0303534
637.006 .0303178
637.765 .0302813
638.523 .0302448
639.280 .0302084
640.038 .0301734
640.795 .0301390
641.552 .0301050
642.309 .0300715
643.065 .0300390
643.821 .0300056
644.577 .0299725
645.332 .0299409
646.088 .0299108
646.843 .0298813
647.597 .0298542
648.352 .0298298
649.106 .0298075
649.860 .0297868
650.613 .0297680
651.367 .0297513
652.120 .0297373
652.872 .0297240
653.625 .0297107
654.377 .0296986
655.129 .0296874
655.881 .0296751
656.632 .0296621
657.384 .0296498
658.135 .0296368
658.885 .0296237
659.636 .0296106
660.386 .0295976
661.136 .0295840
661.885 .0295710
662.635 .0295572
663.384 .0295424
664.133 .0295262
664.881 .0295073
665.630 .0294863
666.378 .0294648
667.126 .0294419
667.874 .0294186
668.621 .0293960
669.368 .0293756
670.115 .0293555
670.862 .0293363
671.608 .0293178
672.354 .0293001
673.100 .0292827
673.846 .0292653
674.591 .0292471
675.337 .0292291
676.082 .0292113
676.826 .0291940
677.571 .0291772
678.315 .0291615
679.059 .0291462
679.803 .0291315
680.547 .0291173
681.290 .0291035
682.033 .0290889
682.776 .0290739
683.518 .0290583
684.261 .0290415
685.003 .0290242
685.745 .0290068
686.487 .0289905
687.228 .0289759
687.969 .0289637
688.710 .0289537
689.451 .0289460
690.192 .0289402
690.932 .0289352
691.672 .0289295
692.412 .0289232
693.152 .0289143
693.891 .0289034
694.630 .0288907
695.369 .0288770
696.108 .0288617
696.846 .0288467
697.585 .0288314
698.323 .0288162
699.061 .0288007
699.798 .0287849
700.536 .0287675
701.273 .0287486
702.010 .0287275
702.746 .0287040
703.483 .0286793
704.219 .0286542
704.955 .0286283
705.691 .0286035
706.427 .0285798
707.162 .0285575
707.897 .0285364
708.632 .0285174
709.367 .0284999
710.101 .0284836
710.835 .0284680
711.569 .0284531
712.303 .0284385
713.037 .0284246
713.770 .0284114
714.503 .0283995
715.236 .0283884
715.969 .0283781
716.702 .0283685
717.434 .0283599
718.166 .0283515
718.898 .0283432
719.629 .0283345
720.361 .0283251
721.092 .0283148
721.823 .0283023
722.554 .0282878
723.284 .0282718
724.014 .0282534
724.744 .0282323
725.474 .0282089
726.204 .0281836
726.933 .0281565
727.662 .0281282
728.391 .0280994
729.120 .0280700
729.849 .0280411
730.577 .0280127
731.305 .0279849
732.033 .0279583
732.760 .0279328
733.488 .0279084
734.215 .0278859
734.942 .0278642
735.669 .0278435
736.395 .0278239
737.122 .0278058
737.848 .0277891
738.573 .0277736
739.299 .0277594
740.024 .0277465
740.750 .0277343
741.474 .0277221
742.199 .0277091
742.924 .0276956
743.648 .0276809
744.372 .0276649
745.096 .0276483
745.819 .0276317
746.543 .0276155
747.266 .0276010
747.989 .0275881
748.711 .0275768
749.434 .0275667
750.156 .0275573
750.878 .0275484
751.599 .0275392
752.321 .0275304
753.042 .0275217
753.763 .0275137
754.484 .0275069
755.205 .0275005
755.925 .0274951
756.645 .0274897
757.365 .0274838
758.085 .0274766
758.804 .0274670
759.523 .0274547
760.242 .0274389
760.961 .0274204
761.679 .0273996
762.397 .0273768
763.115 .0273523
763.833 .0273269
764.551 .0273007
765.268 .0272742
765.985 .0272479
766.702 .0272220
767.418 .0271974
768.134 .0271737
768.850 .0271515
769.566 .0271310
770.282 .0271118
770.997 .0270943
771.712 .0270781
772.427 .0270634
773.142 .0270495
773.856 .0270358
774.570 .0270222
775.284 .0270084
775.998 .0269941
776.711 .0269795
777.424 .0269644
778.137 .0269486
778.849 .0269321
779.562 .0269148
780.274 .0268975
780.986 .0268799
781.697 .0268622
782.409 .0268452
783.120 .0268285
783.831 .0268125
784.541 .0267974
785.252 .0267836
785.962 .0267714
786.671 .0267603
787.381 .0267501
788.090 .0267403
788.799 .0267309
789.508 .0267209
790.217 .0267096
790.925 .0266980
791.633 .0266851
792.341 .0266707
793.048 .0266552
793.755 .0266388
794.462 .0266211
795.169 .0266024
795.875 .0265830
796.581 .0265634
797.287 .0265442
797.993 .0265259
798.698 .0265086
799.403 .0264930
800.108 .0264794
800.812 .0264669
801.517 .0264563
802.221 .0264475
802.924 .0264404
803.628 .0264343
804.331 .0264297
805.034 .0264265
805.736 .0264244
806.439 .0264226
807.141 .0264212
807.843 .0264191
808.544 .0264160
809.245 .0264104
809.946 .0264030
810.647 .0263940
811.347 .0263836
812.047 .0263717
812.747 .0263591
813.447 .0263462
814.146 .0263340
814.845 .0263216
815.543 .0263101
816.242 .0262992
816.940 .0262890
817.638 .0262786
818.335 .0262685
819.032 .0262588
819.729 .0262494
820.426 .0262403
821.122 .0262318
821.818 .0262231
822.514 .0262148
823.209 .0262066
823.905 .0261984
824.599 .0261902
825.294 .0261812
825.988 .0261708
826.682 .0261592
827.376 .0261460
828.069 .0261316
828.762 .0261163
829.455 .0261007
830.147 .0260852
830.840 .0260703
831.531 .0260567
832.223 .0260446
832.914 .0260344
833.605 .0260259
834.296 .0260190
834.986 .0260135
835.676 .0260091
836.366 .0260056
837.055 .0260027
837.744 .0259995
838.433 .0259958
839.121 .0259907
839.809 .0259846
840.497 .0259776
841.185 .0259703
841.872 .0259630
842.559 .0259565
843.245 .0259508
843.932 .0259456
844.617 .0259407
845.303 .0259360
845.988 .0259305
846.673 .0259245
847.358 .0259179
848.042 .0259108
848.726 .0259040
849.410 .0258981
850.093 .0258934
850.776 .0258901
851.459 .0258876
852.141 .0258846
852.823 .0258807
853.505 .0258757
854.186 .0258691
854.867 .0258611
855.548 .0258523
856.228 .0258431
856.908 .0258340
857.588 .0258253
858.267 .0258175
858.946 .0258102
859.625 .0258033
860.303 .0257958
860.981 .0257880
861.659 .0257793
862.336 .0257706
863.013 .0257625
863.690 .0257555
864.366 .0257493
865.042 .0257444
865.718 .0257406
866.393 .0257378
867.068 .0257353
867.743 .0257319
868.417 .0257278
869.091 .0257224
869.765 .0257149
870.438 .0257053
871.111 .0256940
871.783 .0256826
872.456 .0256707
873.127 .0256590
873.799 .0256477
874.470 .0256368
875.141 .0256270
875.811 .0256173
876.481 .0256075
877.151 .0255977
877.820 .0255876
878.489 .0255770
879.158 .0255665
879.826 .0255565
880.494 .0255477
881.162 .0255401
881.829 .0255341
882.496 .0255288
883.163 .0255233
883.829 .0255181
884.495 .0255122
885.160 .0255056
885.825 .0254985
886.490 .0254908
887.154 .0254833
887.818 .0254755
888.482 .0254681
889.145 .0254602
889.808 .0254524
890.471 .0254441
891.133 .0254347
891.795 .0254241
892.456 .0254127
893.117 .0254007
893.778 .0253888
894.439 .0253776
895.099 .0253671
895.758 .0253573
896.417 .0253480
897.076 .0253387
897.735 .0253296
898.393 .0253199
899.051 .0253104
899.708 .0253006
900.365 .0252908
901.022 .0252814
901.678 .0252731
902.334 .0252653
902.990 .0252581
903.645 .0252514
904.300 .0252447
904.954 .0252381
905.608 .0252311
906.262 .0252236
906.915 .0252160
907.568 .0252087
908.221 .0252012
908.873 .0251934
909.525 .0251858
910.176 .0251775
910.828 .0251684
911.478 .0251584
912.129 .0251466
912.778 .0251333
913.428 .0251190
914.077 .0251037
914.726 .0250875
915.375 .0250715
916.023 .0250561
916.670 .0250413
917.318 .0250269
917.964 .0250128
918.611 .0249984
919.257 .0249835
919.903 .0249674
920.548 .0249500
921.193 .0249315
921.838 .0249128
922.482 .0248941
923.126 .0248762
923.770 .0248599
924.413 .0248458
925.056 .0248336
925.698 .0248236
926.340 .0248149
926.982 .0248066
927.623 .0247982
928.264 .0247899
928.904 .0247805
929.544 .0247708
930.184 .0247603
930.823 .0247497
931.462 .0247388
932.101 .0247286
932.739 .0247182
933.377 .0247079
934.014 .0246979
934.651 .0246878
935.288 .0246767
935.924 .0246649
936.560 .0246516
937.196 .0246371
937.831 .0246214
938.466 .0246043
939.100 .0245858
939.734 .0245670
940.368 .0245481
941.001 .0245297
941.634 .0245124
942.266 .0244966
942.899 .0244822
943.530 .0244688
944.162 .0244561
944.793 .0244425
945.423 .0244278
946.053 .0244117
946.683 .0243942
947.313 .0243752
947.942 .0243540
948.571 .0243314
949.199 .0243079
949.827 .0242844
950.455 .0242612
951.082 .0242385
951.709 .0242168
952.335 .0241955
952.961 .0241748
953.587 .0241534
954.212 .0241317
954.837 .0241090
955.462 .0240854
956.086 .0240613
956.710 .0240367
957.334 .0240123
957.957 .0239893
958.579 .0239686
959.202 .0239498
959.824 .0239329
960.445 .0239169
961.067 .0239009
961.688 .0238846
962.308 .0238668
962.928 .0238482
963.548 .0238282
964.168 .0238080
964.787 .0237879
965.406 .0237685
966.024 .0237507
966.642 .0237339
967.260 .0237186
967.877 .0237040
968.494 .0236894
969.110 .0236741
969.727 .0236577
970.342 .0236413
970.958 .0236250
971.573 .0236094
972.188 .0235956
972.802 .0235842
973.416 .0235752
974.030 .0235684
974.643 .0235631
975.256 .0235591
975.869 .0235558
976.481 .0235526
977.093 .0235493
977.705 .0235460
978.316 .0235422
978.927 .0235387
979.538 .0235354
980.148 .0235331
980.758 .0235309
981.367 .0235293
981.977 .0235279
982.586 .0235261
983.194 .0235241
983.802 .0235217
984.410 .0235182
985.018 .0235144
985.625 .0235095
986.232 .0235040
986.838 .0234980
987.445 .0234918
988.050 .0234849
988.656 .0234781
989.261 .0234709
989.866 .0234630
990.471 .0234544
991.075 .0234461
991.679 .0234373
992.282 .0234279
992.886 .0234183
993.489 .0234088
994.091 .0233996
994.694 .0233910
995.296 .0233827
995.897 .0233750
996.499 .0233682
997.100 .0233616
997.701 .0233557
998.301 .0233509
998.901 .0233479
999.501 .0233460
1000.101 .0233458
1000.700 .0233471
1001.299 .0233490
1001.898 .0233518
1002.496 .0233555
1003.094 .0233594
1003.692 .0233637
1004.289 .0233680
1004.887 .0233733
1005.484 .0233791
1006.080 .0233853
1006.677 .0233912
1007.273 .0233971
1007.868 .0234025
1008.464 .0234065
1009.059 .0234088
1009.654 .0234119
1010.249 .0234149
1010.843 .0234187
1011.437 .0234230
1012.031 .0234280
1012.625 .0234335
1013.218 .0234378
1013.811 .0234405
1014.404 .0234412
1014.997 .0234404
1015.589 .0234382
1016.181 .0234352
1016.773 .0234341
1017.365 .0234352
1017.956 .0234393
1018.547 .0234469
1019.138 .0234571
1019.728 .0234680
1020.319 .0234793
1020.909 .0234895
1021.499 .0234978
1022.088 .0235043
1022.678 .0235082
1023.267 .0235116
1023.856 .0235149
1024.445 .0235195
1025.033 .0235251
1025.621 .0235320
1026.209 .0235409
1026.797 .0235491
1027.385 .0235567
1027.972 .0235623
1028.560 .0235659
1029.147 .0235672
1029.734 .0235661
1030.320 .0235635
1030.907 .0235600
1031.493 .0235568
1032.079 .0235544
1032.665 .0235543
1033.250 .0235563
1033.836 .0235608
1034.421 .0235661
1035.006 .0235723
1035.591 .0235794
1036.176 .0235865
1036.761 .0235922
1037.345 .0235968
1037.929 .0236008
1038.514 .0236035
1039.097 .0236050
1039.681 .0236066
1040.265 .0236084
1040.848 .0236106
1041.432 .0236130
1042.015 .0236155
1042.598 .0236177
1043.181 .0236204
1043.764 .0236225
1044.346 .0236247
1044.929 .0236267
1045.511 .0236283
1046.094 .0236290
1046.676 .0236310
1047.258 .0236336
1047.840 .0236362
1048.422 .0236386
1049.003 .0236421
1049.585 .0236462
1050.166 .0236502
1050.748 .0236549
1051.329 .0236614
1051.910 .0236697
1052.491 .0236801
1053.072 .0236914
1053.653 .0237040
1054.234 .0237176
1054.815 .0237313
1055.396 .0237429
1055.976 .0237528
1056.557 .0237605
1057.138 .0237655
1057.718 .0237682
1058.298 .0237707
1058.879 .0237729
1059.459 .0237744
1060.039 .0237770
1060.620 .0237804
1061.200 .0237821
1061.780 .0237824
1062.360 .0237785
1062.940 .0237708
1063.520 .0237588
1064.101 .0237421
1064.681 .0237215
1065.261 .0236994
1065.841 .0236777
1066.421 .0236575
1067.001 .0236389
1067.581 .0236254
1068.161 .0236151
1068.741 .0236064
1069.321 .0235991
1069.901 .0235921
1070.482 .0235854
1071.062 .0235794
1071.642 .0235744
1072.222 .0235716
1072.803 .0235705
1073.383 .0235724
1073.963 .0235775
1074.544 .0235847
1075.124 .0235954
1075.705 .0236052
1076.286 .0236149
1076.866 .0236254
1077.447 .0236343
1078.028 .0236410
1078.609 .0236485
1079.190 .0236571
1079.771 .0236659
1080.352 .0236755
1080.934 .0236866
1081.515 .0236978
1082.097 .0237117
1082.679 .0237273
1083.260 .0237417
1083.842 .0237556
1084.424 .0237699
1085.007 .0237800
1085.589 .0237885
1086.172 .0237952
1086.754 .0238002
1087.337 .0238056
1087.920 .0238121
1088.503 .0238209
1089.087 .0238311
1089.670 .0238462
1090.254 .0238632
1090.838 .0238803
1091.422 .0238983
1092.006 .0239142
1092.590 .0239263
1093.175 .0239351
1093.760 .0239398
1094.345 .0239398
1094.930 .0239351
1095.516 .0239291
1096.102 .0239200
1096.688 .0239094
1097.274 .0238950
1097.860 .0238768
1098.447 .0238539
1099.034 .0238278
1099.622 .0237940
1100.209 .0237554
1100.797 .0237137
1101.385 .0236695
1101.973 .0236244
1102.562 .0235824
1103.151 .0235461
1103.740 .0235176
1104.330 .0234949
1104.920 .0234804
1105.510 .0234706
1106.101 .0234676
1106.691 .0234673
1107.283 .0234697
1107.874 .0234740
1108.466 .0234785
1109.058 .0234816
1109.651 .0234868
1110.244 .0234897
1110.837 .0234951
1111.431 .0235006
1112.025 .0235089
1112.620 .0235196
1113.215 .0235325
1113.810 .0235467
1114.406 .0235667
1115.002 .0235902
1115.599 .0236158
1116.196 .0236404
1116.793 .0236678
1117.391 .0236938
1117.989 .0237176
1118.588 .0237376
1119.187 .0237570
1119.787 .0237741
1120.387 .0237922
1120.988 .0238082
1121.589 .0238262
1122.190 .0238426
1122.793 .0238550
1123.395 .0238634
1123.998 .0238641
1124.602 .0238555
1125.206 .0238387
1125.811 .0238136
1126.416 .0237835
1127.022 .0237503
1127.628 .0237168
1128.235 .0236897
1128.843 .0236715
1129.451 .0236620
1130.059 .0236617
1130.669 .0236727
1131.278 .0236900
1131.889 .0237111
1132.500 .0237346
1133.112 .0237639
1133.724 .0237955
1134.337 .0238364
1134.950 .0238851
1135.564 .0239473
1136.179 .0240238
1136.795 .0241131
1137.411 .0242121
1138.028 .0243194
1138.645 .0244311
1139.263 .0245419
1139.882 .0246508
1140.502 .0247637
1141.122 .0248753
1141.743 .0249821
1142.365 .0250875
1142.987 .0251843
1143.611 .0253992
1144.235 .0254592
1144.859 .0253856
1145.485 .0255322
