Measurement Sequence started on: 10-20-44-796
Integration time: 35
Scans to Average: 2 
>>>>>Begin Spectral Data<<<<<
432.953 .0245656
433.882 .0334490
434.810 .0339221
435.737 .0343107
436.662 .0331371
437.586 .0338396
438.509 .0341912
439.431 .0341855
440.351 .0341138
441.269 .0339914
442.187 .0338580
443.103 .0336603
444.018 .0334723
444.932 .0332971
445.844 .0331244
446.756 .0329664
447.666 .0328448
448.575 .0327543
449.482 .0326935
450.388 .0326845
451.294 .0327112
452.198 .0327671
453.100 .0328397
454.002 .0329322
454.902 .0330383
455.801 .0331498
456.699 .0332529
457.596 .0333495
458.492 .0334343
459.387 .0335084
460.280 .0335710
461.172 .0336193
462.064 .0336511
462.954 .0336636
463.843 .0336603
464.730 .0336358
465.617 .0335947
466.503 .0335386
467.387 .0334710
468.271 .0333980
469.153 .0333241
470.035 .0332518
470.915 .0331971
471.794 .0331546
472.673 .0331278
473.550 .0331109
474.426 .0331073
475.301 .0331068
476.175 .0331122
477.048 .0331211
477.920 .0331290
478.791 .0331381
479.661 .0331539
480.530 .0331669
481.398 .0331806
482.266 .0331910
483.132 .0332011
483.997 .0332063
484.861 .0332082
485.724 .0332032
486.587 .0331990
487.448 .0331972
488.308 .0331955
489.168 .0331928
490.026 .0331915
490.884 .0331849
491.741 .0331672
492.597 .0331416
493.452 .0331053
494.306 .0330613
495.159 .0330157
496.011 .0329714
496.862 .0329300
497.713 .0328898
498.562 .0328482
499.411 .0328010
500.259 .0327417
501.106 .0326684
501.952 .0325738
502.798 .0324702
503.642 .0323592
504.486 .0322469
505.329 .0321445
506.171 .0320606
507.012 .0319939
507.852 .0319423
508.692 .0318983
509.531 .0318562
510.369 .0318069
511.206 .0317494
512.043 .0316738
512.878 .0315854
513.713 .0314857
514.547 .0313814
515.381 .0312803
516.213 .0311819
517.045 .0310781
517.876 .0309707
518.706 .0308548
519.536 .0307249
520.365 .0305763
521.193 .0304101
522.020 .0302341
522.847 .0300521
523.673 .0298633
524.498 .0296685
525.323 .0294793
526.146 .0293048
526.969 .0291374
527.792 .0289791
528.614 .0288346
529.435 .0286967
530.255 .0285839
531.075 .0284829
531.894 .0283948
532.712 .0283187
533.530 .0282477
534.347 .0281759
535.163 .0281033
535.979 .0280328
536.794 .0279663
537.608 .0279033
538.422 .0278637
539.235 .0278251
540.048 .0278004
540.860 .0277929
541.671 .0277959
542.481 .0278057
543.292 .0278140
544.101 .0278157
544.910 .0278196
545.718 .0278225
546.526 .0278266
547.333 .0278338
548.139 .0278532
548.945 .0278789
549.750 .0279056
550.555 .0279365
551.359 .0279727
552.162 .0280086
552.965 .0280451
553.768 .0280772
554.569 .0281094
555.371 .0281414
556.171 .0281636
556.972 .0281816
557.771 .0281966
558.570 .0282085
559.369 .0282167
560.167 .0282254
560.964 .0282400
561.761 .0282634
562.558 .0282992
563.354 .0283490
564.149 .0284087
564.944 .0284774
565.738 .0285521
566.532 .0286312
567.325 .0287144
568.118 .0287973
568.910 .0288844
569.702 .0289801
570.494 .0290851
571.285 .0291951
572.075 .0293132
572.865 .0294407
573.654 .0295735
574.443 .0297044
575.232 .0298288
576.020 .0299425
576.807 .0300468
577.594 .0301369
578.381 .0302163
579.167 .0302860
579.952 .0303520
580.738 .0304139
581.522 .0304726
582.307 .0305287
583.091 .0305810
583.874 .0306275
584.657 .0306672
585.440 .0306979
586.222 .0307194
587.004 .0307320
587.785 .0307393
588.566 .0307439
589.346 .0307463
590.126 .0307474
590.906 .0307478
591.685 .0307455
592.464 .0307413
593.242 .0307345
594.020 .0307264
594.797 .0307180
595.575 .0307111
596.351 .0307067
597.128 .0307032
597.904 .0307007
598.679 .0306998
599.454 .0306988
600.229 .0306980
601.004 .0306955
601.778 .0306916
602.551 .0306872
603.325 .0306822
604.097 .0306773
604.870 .0306732
605.642 .0306698
606.414 .0306661
607.185 .0306609
607.956 .0306556
608.727 .0306493
609.497 .0306424
610.267 .0306351
611.037 .0306280
611.806 .0306210
612.575 .0306132
613.344 .0306036
614.112 .0305936
614.880 .0305823
615.647 .0305696
616.414 .0305550
617.181 .0305404
617.948 .0305264
618.714 .0305132
619.480 .0305012
620.245 .0304907
621.011 .0304810
621.775 .0304704
622.540 .0304578
623.304 .0304439
624.068 .0304282
624.832 .0304104
625.595 .0303914
626.358 .0303722
627.120 .0303533
627.883 .0303343
628.645 .0303150
629.406 .0302962
630.168 .0302768
630.929 .0302563
631.689 .0302346
632.450 .0302121
633.210 .0301897
633.970 .0301659
634.729 .0301424
635.489 .0301180
636.248 .0300931
637.006 .0300683
637.765 .0300432
638.523 .0300178
639.280 .0299936
640.038 .0299703
640.795 .0299490
641.552 .0299294
642.309 .0299114
643.065 .0298943
643.821 .0298776
644.577 .0298594
645.332 .0298396
646.088 .0298179
646.843 .0297955
647.597 .0297720
648.352 .0297498
649.106 .0297291
649.860 .0297099
650.613 .0296933
651.367 .0296788
652.120 .0296649
652.872 .0296513
653.625 .0296362
654.377 .0296200
655.129 .0296026
655.881 .0295841
656.632 .0295650
657.384 .0295471
658.135 .0295310
658.885 .0295156
659.636 .0295021
660.386 .0294909
661.136 .0294809
661.885 .0294719
662.635 .0294629
663.384 .0294533
664.133 .0294430
664.881 .0294317
665.630 .0294195
666.378 .0294073
667.126 .0293950
667.874 .0293821
668.621 .0293696
669.368 .0293576
670.115 .0293464
670.862 .0293354
671.608 .0293256
672.354 .0293156
673.100 .0293050
673.846 .0292938
674.591 .0292822
675.337 .0292706
676.082 .0292598
676.826 .0292489
677.571 .0292386
678.315 .0292283
679.059 .0292183
679.803 .0292079
680.547 .0291975
681.290 .0291861
682.033 .0291732
682.776 .0291585
683.518 .0291430
684.261 .0291261
685.003 .0291092
685.745 .0290927
686.487 .0290773
687.228 .0290624
687.969 .0290477
688.710 .0290332
689.451 .0290195
690.192 .0290067
690.932 .0289945
691.672 .0289827
692.412 .0289726
693.152 .0289638
693.891 .0289567
694.630 .0289511
695.369 .0289467
696.108 .0289420
696.846 .0289364
697.585 .0289286
698.323 .0289183
699.061 .0289055
699.798 .0288906
700.536 .0288736
701.273 .0288554
702.010 .0288360
702.746 .0288157
703.483 .0287953
704.219 .0287743
704.955 .0287528
705.691 .0287311
706.427 .0287092
707.162 .0286876
707.897 .0286660
708.632 .0286453
709.367 .0286257
710.101 .0286077
710.835 .0285905
711.569 .0285739
712.303 .0285579
713.037 .0285425
713.770 .0285265
714.503 .0285104
715.236 .0284940
715.969 .0284772
716.702 .0284605
717.434 .0284436
718.166 .0284257
718.898 .0284073
719.629 .0283884
720.361 .0283691
721.092 .0283489
721.823 .0283286
722.554 .0283078
723.284 .0282873
724.014 .0282660
724.744 .0282439
725.474 .0282208
726.204 .0281969
726.933 .0281716
727.662 .0281438
728.391 .0281142
729.120 .0280834
729.849 .0280512
730.577 .0280190
731.305 .0279867
732.033 .0279550
732.760 .0279236
733.488 .0278938
734.215 .0278649
734.942 .0278369
735.669 .0278094
736.395 .0277827
737.122 .0277563
737.848 .0277308
738.573 .0277058
739.299 .0276816
740.024 .0276590
740.750 .0276371
741.474 .0276157
742.199 .0275950
742.924 .0275748
743.648 .0275551
744.372 .0275354
745.096 .0275161
745.819 .0274963
746.543 .0274765
747.266 .0274570
747.989 .0274379
748.711 .0274193
749.434 .0274013
750.156 .0273840
750.878 .0273674
751.599 .0273525
752.321 .0273389
753.042 .0273268
753.763 .0273161
754.484 .0273066
755.205 .0272978
755.925 .0272896
756.645 .0272818
757.365 .0272731
758.085 .0272632
758.804 .0272514
759.523 .0272369
760.242 .0272201
760.961 .0272013
761.679 .0271815
762.397 .0271604
763.115 .0271389
763.833 .0271164
764.551 .0270938
765.268 .0270716
765.985 .0270492
766.702 .0270266
767.418 .0270035
768.134 .0269796
768.850 .0269555
769.566 .0269321
770.282 .0269097
770.997 .0268889
771.712 .0268703
772.427 .0268534
773.142 .0268385
773.856 .0268249
774.570 .0268125
775.284 .0268010
775.998 .0267901
776.711 .0267793
777.424 .0267681
778.137 .0267572
778.849 .0267468
779.562 .0267367
780.274 .0267269
780.986 .0267172
781.697 .0267076
782.409 .0266987
783.120 .0266902
783.831 .0266822
784.541 .0266750
785.252 .0266683
785.962 .0266620
786.671 .0266556
787.381 .0266488
788.090 .0266411
788.799 .0266329
789.508 .0266237
790.217 .0266132
790.925 .0266023
791.633 .0265913
792.341 .0265804
793.048 .0265698
793.755 .0265598
794.462 .0265496
795.169 .0265398
795.875 .0265303
796.581 .0265209
797.287 .0265122
797.993 .0265037
798.698 .0264959
799.403 .0264890
800.108 .0264837
800.812 .0264793
801.517 .0264759
802.221 .0264742
802.924 .0264724
803.628 .0264703
804.331 .0264683
805.034 .0264653
805.736 .0264608
806.439 .0264555
807.141 .0264481
807.843 .0264388
808.544 .0264285
809.245 .0264168
809.946 .0264047
810.647 .0263930
811.347 .0263821
812.047 .0263711
812.747 .0263614
813.447 .0263525
814.146 .0263429
814.845 .0263339
815.543 .0263249
816.242 .0263159
816.940 .0263076
817.638 .0262996
818.335 .0262925
819.032 .0262867
819.729 .0262822
820.426 .0262779
821.122 .0262734
821.818 .0262677
822.514 .0262601
823.209 .0262501
823.905 .0262387
824.599 .0262245
825.294 .0262091
825.988 .0261928
826.682 .0261763
827.376 .0261595
828.069 .0261429
828.762 .0261263
829.455 .0261102
830.147 .0260938
830.840 .0260776
831.531 .0260610
832.223 .0260453
832.914 .0260299
833.605 .0260153
834.296 .0260014
834.986 .0259887
835.676 .0259762
836.366 .0259647
837.055 .0259528
837.744 .0259413
838.433 .0259289
839.121 .0259163
839.809 .0259030
840.497 .0258889
841.185 .0258741
841.872 .0258586
842.559 .0258428
843.245 .0258272
843.932 .0258112
844.617 .0257957
845.303 .0257803
845.988 .0257645
846.673 .0257484
847.358 .0257320
848.042 .0257151
848.726 .0256978
849.410 .0256801
850.093 .0256624
850.776 .0256446
851.459 .0256268
852.141 .0256086
852.823 .0255899
853.505 .0255708
854.186 .0255504
854.867 .0255295
855.548 .0255079
856.228 .0254858
856.908 .0254641
857.588 .0254436
858.267 .0254240
858.946 .0254053
859.625 .0253876
860.303 .0253702
860.981 .0253528
861.659 .0253350
862.336 .0253167
863.013 .0252984
863.690 .0252805
864.366 .0252631
865.042 .0252461
865.718 .0252304
866.393 .0252153
867.068 .0252003
867.743 .0251850
868.417 .0251688
869.091 .0251507
869.765 .0251314
870.438 .0251109
871.111 .0250899
871.783 .0250690
872.456 .0250491
873.127 .0250302
873.799 .0250127
874.470 .0249967
875.141 .0249815
875.811 .0249667
876.481 .0249522
877.151 .0249371
877.820 .0249213
878.489 .0249049
879.158 .0248878
879.826 .0248704
880.494 .0248538
881.162 .0248373
881.829 .0248219
882.496 .0248072
883.163 .0247932
883.829 .0247793
884.495 .0247650
885.160 .0247501
885.825 .0247344
886.490 .0247182
887.154 .0247014
887.818 .0246844
888.482 .0246682
889.145 .0246527
889.808 .0246386
890.471 .0246254
891.133 .0246136
891.795 .0246026
892.456 .0245914
893.117 .0245796
893.778 .0245669
894.439 .0245535
895.099 .0245390
895.758 .0245241
896.417 .0245090
897.076 .0244941
897.735 .0244802
898.393 .0244668
899.051 .0244544
899.708 .0244424
900.365 .0244305
901.022 .0244187
901.678 .0244072
902.334 .0243954
902.990 .0243829
903.645 .0243712
904.300 .0243602
904.954 .0243495
905.608 .0243397
906.262 .0243308
906.915 .0243224
907.568 .0243148
908.221 .0243079
908.873 .0243010
909.525 .0242945
910.176 .0242886
910.828 .0242816
911.478 .0242739
912.129 .0242655
912.778 .0242559
913.428 .0242461
914.077 .0242366
914.726 .0242266
915.375 .0242158
916.023 .0242057
916.670 .0241957
917.318 .0241855
917.964 .0241756
918.611 .0241650
919.257 .0241537
919.903 .0241422
920.548 .0241304
921.193 .0241183
921.838 .0241078
922.482 .0240989
923.126 .0240905
923.770 .0240835
924.413 .0240778
925.056 .0240727
925.698 .0240686
926.340 .0240654
926.982 .0240618
927.623 .0240578
928.264 .0240538
928.904 .0240489
929.544 .0240434
930.184 .0240375
930.823 .0240302
931.462 .0240218
932.101 .0240129
932.739 .0240026
933.377 .0239913
934.014 .0239804
934.651 .0239698
935.288 .0239588
935.924 .0239485
936.560 .0239389
937.196 .0239301
937.831 .0239225
938.466 .0239159
939.100 .0239099
939.734 .0239056
940.368 .0239024
941.001 .0238995
941.634 .0238975
942.266 .0238966
942.899 .0238950
943.530 .0238930
944.162 .0238899
944.793 .0238853
945.423 .0238785
946.053 .0238695
946.683 .0238579
947.313 .0238446
947.942 .0238296
948.571 .0238137
949.199 .0237970
949.827 .0237809
950.455 .0237647
951.082 .0237492
951.709 .0237344
952.335 .0237200
952.961 .0237058
953.587 .0236921
954.212 .0236787
954.837 .0236668
955.462 .0236560
956.086 .0236474
956.710 .0236414
957.334 .0236377
957.957 .0236361
958.579 .0236359
959.202 .0236365
959.824 .0236379
960.445 .0236390
961.067 .0236400
961.688 .0236406
962.308 .0236412
962.928 .0236418
963.548 .0236416
964.168 .0236413
964.787 .0236403
965.406 .0236387
966.024 .0236366
966.642 .0236337
967.260 .0236307
967.877 .0236280
968.494 .0236248
969.110 .0236218
969.727 .0236183
970.342 .0236139
970.958 .0236085
971.573 .0236020
972.188 .0235948
972.802 .0235874
973.416 .0235803
974.030 .0235748
974.643 .0235710
975.256 .0235694
975.869 .0235692
976.481 .0235696
977.093 .0235702
977.705 .0235703
978.316 .0235697
978.927 .0235689
979.538 .0235676
980.148 .0235659
980.758 .0235643
981.367 .0235633
981.977 .0235629
982.586 .0235624
983.194 .0235618
983.802 .0235610
984.410 .0235591
985.018 .0235566
985.625 .0235531
986.232 .0235501
986.838 .0235480
987.445 .0235459
988.050 .0235440
988.656 .0235424
989.261 .0235412
989.866 .0235401
990.471 .0235398
991.075 .0235408
991.679 .0235425
992.282 .0235454
992.886 .0235496
993.489 .0235544
994.091 .0235602
994.694 .0235661
995.296 .0235713
995.897 .0235762
996.499 .0235796
997.100 .0235813
997.701 .0235827
998.301 .0235838
998.901 .0235841
999.501 .0235832
1000.101 .0235824
1000.700 .0235800
1001.299 .0235767
1001.898 .0235733
1002.496 .0235695
1003.094 .0235664
1003.692 .0235646
1004.289 .0235631
1004.887 .0235626
1005.484 .0235634
1006.080 .0235641
1006.677 .0235641
1007.273 .0235643
1007.868 .0235639
1008.464 .0235627
1009.059 .0235621
1009.654 .0235626
1010.249 .0235642
1010.843 .0235676
1011.437 .0235722
1012.031 .0235757
1012.625 .0235782
1013.218 .0235790
1013.811 .0235771
1014.404 .0235738
1014.997 .0235703
1015.589 .0235664
1016.181 .0235638
1016.773 .0235633
1017.365 .0235648
1017.956 .0235677
1018.547 .0235719
1019.138 .0235748
1019.728 .0235752
1020.319 .0235729
1020.909 .0235675
1021.499 .0235592
1022.088 .0235509
1022.678 .0235419
1023.267 .0235333
1023.856 .0235252
1024.445 .0235174
1025.033 .0235089
1025.621 .0234999
1026.209 .0234887
1026.797 .0234758
1027.385 .0234603
1027.972 .0234440
1028.560 .0234279
1029.147 .0234141
1029.734 .0234035
1030.320 .0233965
1030.907 .0233925
1031.493 .0233908
1032.079 .0233903
1032.665 .0233910
1033.250 .0233914
1033.836 .0233921
1034.421 .0233919
1035.006 .0233912
1035.591 .0233908
1036.176 .0233915
1036.761 .0233920
1037.345 .0233927
1037.929 .0233925
1038.514 .0233906
1039.097 .0233872
1039.681 .0233828
1040.265 .0233767
1040.848 .0233708
1041.432 .0233642
1042.015 .0233563
1042.598 .0233471
1043.181 .0233368
1043.764 .0233253
1044.346 .0233125
1044.929 .0232997
1045.511 .0232858
1046.094 .0232722
1046.676 .0232597
1047.258 .0232481
1047.840 .0232378
1048.422 .0232281
1049.003 .0232169
1049.585 .0232054
1050.166 .0231913
1050.748 .0231754
1051.329 .0231578
1051.910 .0231393
1052.491 .0231214
1053.072 .0231041
1053.653 .0230879
1054.234 .0230745
1054.815 .0230628
1055.396 .0230536
1055.976 .0230449
1056.557 .0230374
1057.138 .0230306
1057.718 .0230237
1058.298 .0230171
1058.879 .0230112
1059.459 .0230046
1060.039 .0229986
1060.620 .0229909
1061.200 .0229820
1061.780 .0229729
1062.360 .0229619
1062.940 .0229511
1063.520 .0229386
1064.101 .0229251
1064.681 .0229107
1065.261 .0228922
1065.841 .0228721
1066.421 .0228502
1067.001 .0228268
1067.581 .0228037
1068.161 .0227806
1068.741 .0227609
1069.321 .0227437
1069.901 .0227305
1070.482 .0227189
1071.062 .0227104
1071.642 .0227027
1072.222 .0226958
1072.803 .0226866
1073.383 .0226790
1073.963 .0226712
1074.544 .0226644
1075.124 .0226594
1075.705 .0226552
1076.286 .0226498
1076.866 .0226463
1077.447 .0226413
1078.028 .0226366
1078.609 .0226288
1079.190 .0226209
1079.771 .0226107
1080.352 .0226026
1080.934 .0225959
1081.515 .0225917
1082.097 .0225912
1082.679 .0225948
1083.260 .0225953
1083.842 .0225945
1084.424 .0225900
1085.007 .0225840
1085.589 .0225726
1086.172 .0225607
1086.754 .0225464
1087.337 .0225324
1087.920 .0225198
1088.503 .0225084
1089.087 .0224962
1089.670 .0224848
1090.254 .0224698
1090.838 .0224516
1091.422 .0224285
1092.006 .0224032
1092.590 .0223758
1093.175 .0223519
1093.760 .0223317
1094.345 .0223155
1094.930 .0223033
1095.516 .0222987
1096.102 .0222971
1096.688 .0222980
1097.274 .0223016
1097.860 .0223045
1098.447 .0223064
1099.034 .0223082
1099.622 .0223112
1100.209 .0223191
1100.797 .0223305
1101.385 .0223470
1101.973 .0223642
1102.562 .0223839
1103.151 .0224042
1103.740 .0224237
1104.330 .0224419
1104.920 .0224592
1105.510 .0224727
1106.101 .0224830
1106.691 .0224882
1107.283 .0224888
1107.874 .0224845
1108.466 .0224769
1109.058 .0224659
1109.651 .0224498
1110.244 .0224296
1110.837 .0224103
1111.431 .0223880
1112.025 .0223661
1112.620 .0223424
1113.215 .0223175
1113.810 .0222898
1114.406 .0222619
1115.002 .0222300
1115.599 .0221981
1116.196 .0221713
1116.793 .0221473
1117.391 .0221244
1117.989 .0221097
1118.588 .0221003
1119.187 .0220963
1119.787 .0220981
1120.387 .0221051
1120.988 .0221106
1121.589 .0221205
1122.190 .0221295
1122.793 .0221373
1123.395 .0221496
1123.998 .0221663
1124.602 .0221841
1125.206 .0222096
1125.811 .0222412
1126.416 .0222758
1127.022 .0223155
1127.628 .0223601
1128.235 .0223998
1128.843 .0224391
1129.451 .0224734
1130.059 .0225022
1130.669 .0225256
1131.278 .0225464
1131.889 .0225594
1132.500 .0225718
1133.112 .0225830
1133.724 .0225904
1134.337 .0225974
1134.950 .0226070
1135.564 .0226143
1136.179 .0226231
1136.795 .0226326
1137.411 .0226479
1138.028 .0226669
1138.645 .0226918
1139.263 .0227218
1139.882 .0227570
1140.502 .0228026
1141.122 .0228620
1141.743 .0229424
1142.365 .0230581
1142.987 .0229776
1143.611 .0231817
1144.235 .0234189
1144.859 .0237356
1145.485 .0242984
