Measurement Sequence started on: 10-20-44-796
Integration time: 35
Scans to Average: 2 
>>>>>Begin Spectral Data<<<<<
432.953 .0395410
433.882 .0443281
434.810 .0419787
435.737 .0398811
436.662 .0386753
437.586 .0391136
438.509 .0387143
439.431 .0382848
440.351 .0380304
441.269 .0378921
442.187 .0378177
443.103 .0377854
444.018 .0377668
444.932 .0377865
445.844 .0378329
446.756 .0378878
447.666 .0379494
448.575 .0379984
449.482 .0380410
450.388 .0380760
451.294 .0381118
452.198 .0381505
453.100 .0381976
454.002 .0382538
454.902 .0383145
455.801 .0383845
456.699 .0384541
457.596 .0385108
458.492 .0385549
459.387 .0385737
460.280 .0385750
461.172 .0385609
462.064 .0385412
462.954 .0385113
463.843 .0384761
464.730 .0384345
465.617 .0383831
466.503 .0383247
467.387 .0382585
468.271 .0381813
469.153 .0380998
470.035 .0380118
470.915 .0379239
471.794 .0378379
472.673 .0377609
473.550 .0376929
474.426 .0376366
475.301 .0375890
476.175 .0375478
477.048 .0375080
477.920 .0374747
478.791 .0374431
479.661 .0374120
480.530 .0373837
481.398 .0373535
482.266 .0373263
483.132 .0373050
483.997 .0372829
484.861 .0372658
485.724 .0372511
486.587 .0372387
487.448 .0372248
488.308 .0372069
489.168 .0371859
490.026 .0371591
490.884 .0371279
491.741 .0370903
492.597 .0370466
493.452 .0370044
494.306 .0369627
495.159 .0369251
496.011 .0368937
496.862 .0368623
497.713 .0368278
498.562 .0367887
499.411 .0367389
500.259 .0366769
501.106 .0366005
501.952 .0365110
502.798 .0364139
503.642 .0363132
504.486 .0362086
505.329 .0361051
506.171 .0360031
507.012 .0359003
507.852 .0357905
508.692 .0356735
509.531 .0355454
510.369 .0354075
511.206 .0352672
512.043 .0351239
512.878 .0349846
513.713 .0348538
514.547 .0347285
515.381 .0346152
516.213 .0345085
517.045 .0344058
517.876 .0343008
518.706 .0341976
519.536 .0340941
520.365 .0339862
521.193 .0338816
522.020 .0337781
522.847 .0336802
523.673 .0335825
524.498 .0334794
525.323 .0333692
526.146 .0332502
526.969 .0331228
527.792 .0329835
528.614 .0328341
529.435 .0326797
530.255 .0325261
531.075 .0323695
531.894 .0322110
532.712 .0320574
533.530 .0319035
534.347 .0317534
535.163 .0316052
535.979 .0314655
536.794 .0313381
537.608 .0312314
538.422 .0311443
539.235 .0310708
540.048 .0310185
540.860 .0309753
541.671 .0309314
542.481 .0308943
543.292 .0308540
544.101 .0308108
544.910 .0307681
545.718 .0307303
546.526 .0306968
547.333 .0306709
548.139 .0306589
548.945 .0306542
549.750 .0306576
550.555 .0306723
551.359 .0306891
552.162 .0307172
552.965 .0307577
553.768 .0308031
554.569 .0308554
555.371 .0309148
556.171 .0309788
556.972 .0310407
557.771 .0311031
558.570 .0311628
559.369 .0312177
560.167 .0312674
560.964 .0313148
561.761 .0313597
562.558 .0314079
563.354 .0314537
564.149 .0314943
564.944 .0315288
565.738 .0315581
566.532 .0315806
567.325 .0315976
568.118 .0316116
568.910 .0316266
569.702 .0316447
570.494 .0316713
571.285 .0317060
572.075 .0317512
572.865 .0318048
573.654 .0318633
574.443 .0319214
575.232 .0319790
576.020 .0320340
576.807 .0320853
577.594 .0321355
578.381 .0321835
579.167 .0322288
579.952 .0322731
580.738 .0323175
581.522 .0323607
582.307 .0324010
583.091 .0324381
583.874 .0324710
584.657 .0324997
585.440 .0325238
586.222 .0325435
587.004 .0325591
587.785 .0325734
588.566 .0325856
589.346 .0325958
590.126 .0326057
590.906 .0326136
591.685 .0326199
592.464 .0326234
593.242 .0326245
594.020 .0326221
594.797 .0326162
595.575 .0326078
596.351 .0325965
597.128 .0325833
597.904 .0325679
598.679 .0325513
599.454 .0325336
600.229 .0325161
601.004 .0324977
601.778 .0324786
602.551 .0324586
603.325 .0324367
604.097 .0324133
604.870 .0323882
605.642 .0323615
606.414 .0323339
607.185 .0323052
607.956 .0322773
608.727 .0322502
609.497 .0322241
610.267 .0321988
611.037 .0321748
611.806 .0321521
612.575 .0321296
613.344 .0321074
614.112 .0320858
614.880 .0320652
615.647 .0320449
616.414 .0320259
617.181 .0320079
617.948 .0319908
618.714 .0319742
619.480 .0319578
620.245 .0319407
621.011 .0319227
621.775 .0319032
622.540 .0318830
623.304 .0318620
624.068 .0318412
624.832 .0318189
625.595 .0317967
626.358 .0317747
627.120 .0317521
627.883 .0317275
628.645 .0317025
629.406 .0316760
630.168 .0316485
630.929 .0316203
631.689 .0315924
632.450 .0315646
633.210 .0315386
633.970 .0315132
634.729 .0314886
635.489 .0314631
636.248 .0314368
637.006 .0314081
637.765 .0313783
638.523 .0313462
639.280 .0313117
640.038 .0312760
640.795 .0312401
641.552 .0312036
642.309 .0311671
643.065 .0311307
643.821 .0310949
644.577 .0310591
645.332 .0310229
646.088 .0309863
646.843 .0309502
647.597 .0309142
648.352 .0308790
649.106 .0308450
649.860 .0308115
650.613 .0307785
651.367 .0307468
652.120 .0307161
652.872 .0306864
653.625 .0306583
654.377 .0306312
655.129 .0306054
655.881 .0305809
656.632 .0305572
657.384 .0305338
658.135 .0305106
658.885 .0304866
659.636 .0304610
660.386 .0304346
661.136 .0304078
661.885 .0303805
662.635 .0303545
663.384 .0303297
664.133 .0303056
664.881 .0302824
665.630 .0302594
666.378 .0302365
667.126 .0302144
667.874 .0301921
668.621 .0301701
669.368 .0301487
670.115 .0301282
670.862 .0301084
671.608 .0300902
672.354 .0300735
673.100 .0300577
673.846 .0300424
674.591 .0300274
675.337 .0300122
676.082 .0299975
676.826 .0299828
677.571 .0299684
678.315 .0299546
679.059 .0299410
679.803 .0299278
680.547 .0299156
681.290 .0299043
682.033 .0298938
682.776 .0298835
683.518 .0298729
684.261 .0298614
685.003 .0298491
685.745 .0298357
686.487 .0298216
687.228 .0298073
687.969 .0297926
688.710 .0297777
689.451 .0297636
690.192 .0297501
690.932 .0297367
691.672 .0297234
692.412 .0297096
693.152 .0296948
693.891 .0296790
694.630 .0296617
695.369 .0296437
696.108 .0296259
696.846 .0296082
697.585 .0295907
698.323 .0295744
699.061 .0295593
699.798 .0295450
700.536 .0295314
701.273 .0295178
702.010 .0295040
702.746 .0294893
703.483 .0294737
704.219 .0294567
704.955 .0294386
705.691 .0294196
706.427 .0293992
707.162 .0293781
707.897 .0293567
708.632 .0293350
709.367 .0293143
710.101 .0292940
710.835 .0292742
711.569 .0292545
712.303 .0292349
713.037 .0292151
713.770 .0291953
714.503 .0291750
715.236 .0291550
715.969 .0291351
716.702 .0291158
717.434 .0290967
718.166 .0290781
718.898 .0290596
719.629 .0290407
720.361 .0290211
721.092 .0290006
721.823 .0289784
722.554 .0289549
723.284 .0289302
724.014 .0289040
724.744 .0288766
725.474 .0288482
726.204 .0288189
726.933 .0287889
727.662 .0287585
728.391 .0287281
729.120 .0286978
729.849 .0286681
730.577 .0286397
731.305 .0286122
732.033 .0285865
732.760 .0285622
733.488 .0285390
734.215 .0285168
734.942 .0284955
735.669 .0284743
736.395 .0284528
737.122 .0284307
737.848 .0284081
738.573 .0283843
739.299 .0283600
740.024 .0283351
740.750 .0283102
741.474 .0282852
742.199 .0282603
742.924 .0282350
743.648 .0282096
744.372 .0281835
745.096 .0281571
745.819 .0281302
746.543 .0281031
747.266 .0280763
747.989 .0280509
748.711 .0280276
749.434 .0280073
750.156 .0279899
750.878 .0279757
751.599 .0279641
752.321 .0279544
753.042 .0279452
753.763 .0279367
754.484 .0279284
755.205 .0279199
755.925 .0279111
756.645 .0279024
757.365 .0278936
758.085 .0278848
758.804 .0278758
759.523 .0278660
760.242 .0278547
760.961 .0278418
761.679 .0278269
762.397 .0278102
763.115 .0277922
763.833 .0277734
764.551 .0277539
765.268 .0277343
765.985 .0277147
766.702 .0276947
767.418 .0276749
768.134 .0276553
768.850 .0276358
769.566 .0276170
770.282 .0275989
770.997 .0275818
771.712 .0275660
772.427 .0275513
773.142 .0275375
773.856 .0275244
774.570 .0275118
775.284 .0274993
775.998 .0274866
776.711 .0274745
777.424 .0274628
778.137 .0274516
778.849 .0274413
779.562 .0274317
780.274 .0274228
780.986 .0274146
781.697 .0274065
782.409 .0273987
783.120 .0273912
783.831 .0273842
784.541 .0273777
785.252 .0273722
785.962 .0273678
786.671 .0273647
787.381 .0273624
788.090 .0273607
788.799 .0273590
789.508 .0273572
790.217 .0273547
790.925 .0273518
791.633 .0273484
792.341 .0273448
793.048 .0273411
793.755 .0273380
794.462 .0273349
795.169 .0273323
795.875 .0273294
796.581 .0273265
797.287 .0273232
797.993 .0273190
798.698 .0273138
799.403 .0273081
800.108 .0273018
800.812 .0272952
801.517 .0272884
802.221 .0272818
802.924 .0272754
803.628 .0272696
804.331 .0272641
805.034 .0272590
805.736 .0272539
806.439 .0272489
807.141 .0272439
807.843 .0272388
808.544 .0272335
809.245 .0272281
809.946 .0272227
810.647 .0272172
811.347 .0272121
812.047 .0272075
812.747 .0272032
813.447 .0272000
814.146 .0271970
814.845 .0271944
815.543 .0271916
816.242 .0271887
816.940 .0271853
817.638 .0271810
818.335 .0271759
819.032 .0271697
819.729 .0271631
820.426 .0271564
821.122 .0271492
821.818 .0271416
822.514 .0271339
823.209 .0271257
823.905 .0271169
824.599 .0271074
825.294 .0270969
825.988 .0270861
826.682 .0270749
827.376 .0270632
828.069 .0270515
828.762 .0270399
829.455 .0270286
830.147 .0270170
830.840 .0270054
831.531 .0269934
832.223 .0269810
832.914 .0269682
833.605 .0269555
834.296 .0269428
834.986 .0269304
835.676 .0269182
836.366 .0269067
837.055 .0268954
837.744 .0268844
838.433 .0268730
839.121 .0268618
839.809 .0268502
840.497 .0268383
841.185 .0268260
841.872 .0268139
842.559 .0268017
843.245 .0267899
843.932 .0267779
844.617 .0267663
845.303 .0267546
845.988 .0267429
846.673 .0267308
847.358 .0267182
848.042 .0267047
848.726 .0266908
849.410 .0266759
850.093 .0266606
850.776 .0266448
851.459 .0266286
852.141 .0266120
852.823 .0265952
853.505 .0265783
854.186 .0265612
854.867 .0265439
855.548 .0265266
856.228 .0265089
856.908 .0264914
857.588 .0264737
858.267 .0264562
858.946 .0264387
859.625 .0264215
860.303 .0264042
860.981 .0263869
861.659 .0263693
862.336 .0263512
863.013 .0263326
863.690 .0263137
864.366 .0262942
865.042 .0262743
865.718 .0262544
866.393 .0262347
867.068 .0262151
867.743 .0261960
868.417 .0261770
869.091 .0261583
869.765 .0261399
870.438 .0261215
871.111 .0261028
871.783 .0260845
872.456 .0260665
873.127 .0260484
873.799 .0260307
874.470 .0260134
875.141 .0259962
875.811 .0259794
876.481 .0259632
877.151 .0259477
877.820 .0259324
878.489 .0259178
879.158 .0259032
879.826 .0258887
880.494 .0258739
881.162 .0258586
881.829 .0258429
882.496 .0258265
883.163 .0258090
883.829 .0257912
884.495 .0257735
885.160 .0257562
885.825 .0257396
886.490 .0257242
887.154 .0257102
887.818 .0256971
888.482 .0256846
889.145 .0256722
889.808 .0256597
890.471 .0256467
891.133 .0256323
891.795 .0256175
892.456 .0256022
893.117 .0255874
893.778 .0255736
894.439 .0255612
895.099 .0255506
895.758 .0255411
896.417 .0255324
897.076 .0255240
897.735 .0255153
898.393 .0255061
899.051 .0254959
899.708 .0254852
900.365 .0254741
901.022 .0254633
901.678 .0254534
902.334 .0254444
902.990 .0254363
903.645 .0254290
904.300 .0254214
904.954 .0254131
905.608 .0254038
906.262 .0253931
906.915 .0253814
907.568 .0253689
908.221 .0253557
908.873 .0253426
909.525 .0253298
910.176 .0253174
910.828 .0253054
911.478 .0252938
912.129 .0252821
912.778 .0252699
913.428 .0252582
914.077 .0252465
914.726 .0252349
915.375 .0252241
916.023 .0252142
916.670 .0252053
917.318 .0251973
917.964 .0251902
918.611 .0251837
919.257 .0251773
919.903 .0251707
920.548 .0251630
921.193 .0251549
921.838 .0251462
922.482 .0251370
923.126 .0251279
923.770 .0251193
924.413 .0251104
925.056 .0251017
925.698 .0250933
926.340 .0250850
926.982 .0250770
927.623 .0250692
928.264 .0250617
928.904 .0250546
929.544 .0250478
930.184 .0250419
930.823 .0250367
931.462 .0250325
932.101 .0250286
932.739 .0250251
933.377 .0250214
934.014 .0250173
934.651 .0250126
935.288 .0250075
935.924 .0250021
936.560 .0249960
937.196 .0249898
937.831 .0249837
938.466 .0249778
939.100 .0249723
939.734 .0249665
940.368 .0249604
941.001 .0249536
941.634 .0249457
942.266 .0249367
942.899 .0249267
943.530 .0249161
944.162 .0249053
944.793 .0248945
945.423 .0248839
946.053 .0248733
946.683 .0248628
947.313 .0248522
947.942 .0248405
948.571 .0248277
949.199 .0248133
949.827 .0247977
950.455 .0247813
951.082 .0247650
951.709 .0247499
952.335 .0247363
952.961 .0247249
953.587 .0247160
954.212 .0247085
954.837 .0247024
955.462 .0246970
956.086 .0246917
956.710 .0246865
957.334 .0246814
957.957 .0246765
958.579 .0246721
959.202 .0246688
959.824 .0246662
960.445 .0246645
961.067 .0246640
961.688 .0246638
962.308 .0246634
962.928 .0246630
963.548 .0246620
964.168 .0246600
964.787 .0246572
965.406 .0246540
966.024 .0246506
966.642 .0246473
967.260 .0246445
967.877 .0246429
968.494 .0246427
969.110 .0246434
969.727 .0246443
970.342 .0246453
970.958 .0246456
971.573 .0246441
972.188 .0246412
972.802 .0246368
973.416 .0246315
974.030 .0246251
974.643 .0246184
975.256 .0246121
975.869 .0246061
976.481 .0246006
977.093 .0245958
977.705 .0245911
978.316 .0245860
978.927 .0245801
979.538 .0245737
980.148 .0245665
980.758 .0245592
981.367 .0245520
981.977 .0245460
982.586 .0245412
983.194 .0245387
983.802 .0245377
984.410 .0245391
985.018 .0245424
985.625 .0245466
986.232 .0245513
986.838 .0245562
987.445 .0245608
988.050 .0245653
988.656 .0245694
989.261 .0245740
989.866 .0245784
990.471 .0245839
991.075 .0245895
991.679 .0245949
992.282 .0246004
992.886 .0246052
993.489 .0246085
994.091 .0246106
994.694 .0246111
995.296 .0246103
995.897 .0246083
996.499 .0246058
997.100 .0246026
997.701 .0246001
998.301 .0245981
998.901 .0245972
999.501 .0245971
1000.101 .0245987
1000.700 .0246004
1001.299 .0246026
1001.898 .0246050
1002.496 .0246073
1003.094 .0246092
1003.692 .0246107
1004.289 .0246114
1004.887 .0246120
1005.484 .0246119
1006.080 .0246114
1006.677 .0246100
1007.273 .0246080
1007.868 .0246043
1008.464 .0245995
1009.059 .0245930
1009.654 .0245852
1010.249 .0245766
1010.843 .0245678
1011.437 .0245593
1012.031 .0245516
1012.625 .0245450
1013.218 .0245393
1013.811 .0245348
1014.404 .0245323
1014.997 .0245304
1015.589 .0245299
1016.181 .0245299
1016.773 .0245306
1017.365 .0245321
1017.956 .0245339
1018.547 .0245357
1019.138 .0245380
1019.728 .0245409
1020.319 .0245441
1020.909 .0245475
1021.499 .0245516
1022.088 .0245559
1022.678 .0245598
1023.267 .0245633
1023.856 .0245646
1024.445 .0245634
1025.033 .0245600
1025.621 .0245546
1026.209 .0245483
1026.797 .0245418
1027.385 .0245354
1027.972 .0245302
1028.560 .0245261
1029.147 .0245226
1029.734 .0245181
1030.320 .0245129
1030.907 .0245060
1031.493 .0244970
1032.079 .0244861
1032.665 .0244742
1033.250 .0244624
1033.836 .0244524
1034.421 .0244432
1035.006 .0244355
1035.591 .0244281
1036.176 .0244203
1036.761 .0244111
1037.345 .0243996
1037.929 .0243854
1038.514 .0243693
1039.097 .0243521
1039.681 .0243347
1040.265 .0243179
1040.848 .0243030
1041.432 .0242885
1042.015 .0242752
1042.598 .0242626
1043.181 .0242492
1043.764 .0242351
1044.346 .0242214
1044.929 .0242073
1045.511 .0241934
1046.094 .0241821
1046.676 .0241723
1047.258 .0241649
1047.840 .0241601
1048.422 .0241560
1049.003 .0241520
1049.585 .0241488
1050.166 .0241448
1050.748 .0241396
1051.329 .0241353
1051.910 .0241306
1052.491 .0241250
1053.072 .0241212
1053.653 .0241179
1054.234 .0241151
1054.815 .0241130
1055.396 .0241105
1055.976 .0241061
1056.557 .0241009
1057.138 .0240941
1057.718 .0240860
1058.298 .0240782
1058.879 .0240708
1059.459 .0240627
1060.039 .0240556
1060.620 .0240477
1061.200 .0240379
1061.780 .0240265
1062.360 .0240130
1062.940 .0239962
1063.520 .0239773
1064.101 .0239566
1064.681 .0239346
1065.261 .0239130
1065.841 .0238913
1066.421 .0238693
1067.001 .0238478
1067.581 .0238253
1068.161 .0238020
1068.741 .0237785
1069.321 .0237552
1069.901 .0237321
1070.482 .0237103
1071.062 .0236914
1071.642 .0236742
1072.222 .0236603
1072.803 .0236485
1073.383 .0236392
1073.963 .0236326
1074.544 .0236270
1075.124 .0236220
1075.705 .0236167
1076.286 .0236118
1076.866 .0236057
1077.447 .0236002
1078.028 .0235947
1078.609 .0235894
1079.190 .0235847
1079.771 .0235801
1080.352 .0235751
1080.934 .0235696
1081.515 .0235636
1082.097 .0235563
1082.679 .0235465
1083.260 .0235333
1083.842 .0235171
1084.424 .0235005
1085.007 .0234812
1085.589 .0234618
1086.172 .0234431
1086.754 .0234265
1087.337 .0234118
1087.920 .0234011
1088.503 .0233933
1089.087 .0233891
1089.670 .0233867
1090.254 .0233848
1090.838 .0233820
1091.422 .0233813
1092.006 .0233804
1092.590 .0233794
1093.175 .0233798
1093.760 .0233806
1094.345 .0233801
1094.930 .0233816
1095.516 .0233836
1096.102 .0233874
1096.688 .0233909
1097.274 .0233945
1097.860 .0233951
1098.447 .0233924
1099.034 .0233854
1099.622 .0233733
1100.209 .0233562
1100.797 .0233358
1101.385 .0233110
1101.973 .0232862
1102.562 .0232638
1103.151 .0232452
1103.740 .0232309
1104.330 .0232202
1104.920 .0232122
1105.510 .0232053
1106.101 .0231974
1106.691 .0231885
1107.283 .0231788
1107.874 .0231677
1108.466 .0231552
1109.058 .0231431
1109.651 .0231327
1110.244 .0231242
1110.837 .0231192
1111.431 .0231169
1112.025 .0231165
1112.620 .0231179
1113.215 .0231198
1113.810 .0231199
1114.406 .0231231
1115.002 .0231280
1115.599 .0231350
1116.196 .0231432
1116.793 .0231538
1117.391 .0231652
1117.989 .0231788
1118.588 .0231958
1119.187 .0232135
1119.787 .0232323
1120.387 .0232559
1120.988 .0232780
1121.589 .0232989
1122.190 .0233173
1122.793 .0233327
1123.395 .0233447
1123.998 .0233546
1124.602 .0233637
1125.206 .0233738
1125.811 .0233879
1126.416 .0234099
1127.022 .0234368
1127.628 .0234703
1128.235 .0235076
1128.843 .0235473
1129.451 .0235860
1130.059 .0236237
1130.669 .0236619
1131.278 .0237059
1131.889 .0237580
1132.500 .0238210
1133.112 .0238959
1133.724 .0239815
1134.337 .0240784
1134.950 .0241776
1135.564 .0242749
1136.179 .0243660
1136.795 .0244498
1137.411 .0245253
1138.028 .0245928
1138.645 .0246617
1139.263 .0247406
1139.882 .0248209
1140.502 .0249062
1141.122 .0249873
1141.743 .0250608
1142.365 .0251451
1142.987 .0252573
1143.611 .0252646
1144.235 .0251672
1144.859 .0251282
1145.485 .0258732
