Measurement Sequence started on: 10-20-44-796
Integration time: 35
Scans to Average: 2 
>>>>>Begin Spectral Data<<<<<
432.953 .0361919
433.882 .0305981
434.810 .0329206
435.737 .0327251
436.662 .0319593
437.586 .0328086
438.509 .0328170
439.431 .0329915
440.351 .0330906
441.269 .0331911
442.187 .0332926
443.103 .0333528
444.018 .0334026
444.932 .0334525
445.844 .0335051
446.756 .0335577
447.666 .0336276
448.575 .0337087
449.482 .0338026
450.388 .0339054
451.294 .0340044
452.198 .0340928
453.100 .0341717
454.002 .0342412
454.902 .0343069
455.801 .0343589
456.699 .0344078
457.596 .0344506
458.492 .0344864
459.387 .0345087
460.280 .0345137
461.172 .0344989
462.064 .0344683
462.954 .0344129
463.843 .0343376
464.730 .0342539
465.617 .0341682
466.503 .0340807
467.387 .0339988
468.271 .0339225
469.153 .0338499
470.035 .0337815
470.915 .0337230
471.794 .0336616
472.673 .0336041
473.550 .0335485
474.426 .0334969
475.301 .0334519
476.175 .0334118
477.048 .0333751
477.920 .0333473
478.791 .0333242
479.661 .0333047
480.530 .0332855
481.398 .0332706
482.266 .0332588
483.132 .0332515
483.997 .0332475
484.861 .0332448
485.724 .0332447
486.587 .0332479
487.448 .0332464
488.308 .0332423
489.168 .0332351
490.026 .0332262
490.884 .0332172
491.741 .0332074
492.597 .0331963
493.452 .0331886
494.306 .0331798
495.159 .0331690
496.011 .0331530
496.862 .0331294
497.713 .0330923
498.562 .0330386
499.411 .0329715
500.259 .0328897
501.106 .0327968
501.952 .0327001
502.798 .0326012
503.642 .0325059
504.486 .0324125
505.329 .0323232
506.171 .0322365
507.012 .0321486
507.852 .0320551
508.692 .0319537
509.531 .0318468
510.369 .0317337
511.206 .0316167
512.043 .0315007
512.878 .0313878
513.713 .0312795
514.547 .0311769
515.381 .0310787
516.213 .0309815
517.045 .0308815
517.876 .0307752
518.706 .0306556
519.536 .0305265
520.365 .0303830
521.193 .0302321
522.020 .0300732
522.847 .0299109
523.673 .0297406
524.498 .0295712
525.323 .0294027
526.146 .0292399
526.969 .0290857
527.792 .0289419
528.614 .0288031
529.435 .0286804
530.255 .0285663
531.075 .0284596
531.894 .0283537
532.712 .0282537
533.530 .0281447
534.347 .0280335
535.163 .0279116
535.979 .0277950
536.794 .0276909
537.608 .0276024
538.422 .0275293
539.235 .0274740
540.048 .0274342
540.860 .0274032
541.671 .0273681
542.481 .0273295
543.292 .0272735
544.101 .0272050
544.910 .0271225
545.718 .0270349
546.526 .0269535
547.333 .0268880
548.139 .0268469
548.945 .0268359
549.750 .0268480
550.555 .0268786
551.359 .0269219
552.162 .0269728
552.965 .0270231
553.768 .0270677
554.569 .0271100
555.371 .0271522
556.171 .0271970
556.972 .0272507
557.771 .0273125
558.570 .0273862
559.369 .0274707
560.167 .0275620
560.964 .0276612
561.761 .0277642
562.558 .0278670
563.354 .0279718
564.149 .0280727
564.944 .0281690
565.738 .0282575
566.532 .0283404
567.325 .0284167
568.118 .0284883
568.910 .0285576
569.702 .0286262
570.494 .0287006
571.285 .0287816
572.075 .0288678
572.865 .0289598
573.654 .0290549
574.443 .0291489
575.232 .0292412
576.020 .0293302
576.807 .0294114
577.594 .0294871
578.381 .0295593
579.167 .0296269
579.952 .0296941
580.738 .0297621
581.522 .0298300
582.307 .0298975
583.091 .0299644
583.874 .0300257
584.657 .0300830
585.440 .0301370
586.222 .0301841
587.004 .0302259
587.785 .0302641
588.566 .0302978
589.346 .0303281
590.126 .0303552
590.906 .0303788
591.685 .0303998
592.464 .0304185
593.242 .0304339
594.020 .0304464
594.797 .0304581
595.575 .0304681
596.351 .0304761
597.128 .0304830
597.904 .0304876
598.679 .0304911
599.454 .0304922
600.229 .0304909
601.004 .0304868
601.778 .0304799
602.551 .0304699
603.325 .0304574
604.097 .0304433
604.870 .0304278
605.642 .0304117
606.414 .0303959
607.185 .0303799
607.956 .0303644
608.727 .0303494
609.497 .0303349
610.267 .0303203
611.037 .0303051
611.806 .0302885
612.575 .0302710
613.344 .0302526
614.112 .0302328
614.880 .0302119
615.647 .0301912
616.414 .0301710
617.181 .0301517
617.948 .0301338
618.714 .0301176
619.480 .0301024
620.245 .0300880
621.011 .0300727
621.775 .0300562
622.540 .0300381
623.304 .0300183
624.068 .0299967
624.832 .0299737
625.595 .0299497
626.358 .0299250
627.120 .0299006
627.883 .0298765
628.645 .0298523
629.406 .0298286
630.168 .0298044
630.929 .0297799
631.689 .0297548
632.450 .0297290
633.210 .0297026
633.970 .0296762
634.729 .0296497
635.489 .0296229
636.248 .0295963
637.006 .0295704
637.765 .0295448
638.523 .0295202
639.280 .0294965
640.038 .0294736
640.795 .0294522
641.552 .0294322
642.309 .0294134
643.065 .0293965
643.821 .0293810
644.577 .0293659
645.332 .0293514
646.088 .0293372
646.843 .0293226
647.597 .0293075
648.352 .0292925
649.106 .0292781
649.860 .0292638
650.613 .0292503
651.367 .0292371
652.120 .0292241
652.872 .0292112
653.625 .0291968
654.377 .0291806
655.129 .0291628
655.881 .0291432
656.632 .0291218
657.384 .0290992
658.135 .0290767
658.885 .0290542
659.636 .0290319
660.386 .0290106
661.136 .0289899
661.885 .0289701
662.635 .0289515
663.384 .0289343
664.133 .0289192
664.881 .0289062
665.630 .0288953
666.378 .0288864
667.126 .0288792
667.874 .0288723
668.621 .0288648
669.368 .0288558
670.115 .0288454
670.862 .0288329
671.608 .0288192
672.354 .0288050
673.100 .0287910
673.846 .0287776
674.591 .0287646
675.337 .0287524
676.082 .0287410
676.826 .0287294
677.571 .0287176
678.315 .0287053
679.059 .0286933
679.803 .0286819
680.547 .0286712
681.290 .0286618
682.033 .0286533
682.776 .0286460
683.518 .0286385
684.261 .0286305
685.003 .0286218
685.745 .0286116
686.487 .0286004
687.228 .0285881
687.969 .0285747
688.710 .0285604
689.451 .0285450
690.192 .0285289
690.932 .0285115
691.672 .0284928
692.412 .0284724
693.152 .0284504
693.891 .0284274
694.630 .0284038
695.369 .0283802
696.108 .0283575
696.846 .0283357
697.585 .0283153
698.323 .0282960
699.061 .0282778
699.798 .0282605
700.536 .0282439
701.273 .0282273
702.010 .0282112
702.746 .0281950
703.483 .0281792
704.219 .0281638
704.955 .0281494
705.691 .0281355
706.427 .0281219
707.162 .0281087
707.897 .0280950
708.632 .0280808
709.367 .0280660
710.101 .0280498
710.835 .0280330
711.569 .0280152
712.303 .0279964
713.037 .0279771
713.770 .0279576
714.503 .0279378
715.236 .0279176
715.969 .0278975
716.702 .0278769
717.434 .0278559
718.166 .0278350
718.898 .0278139
719.629 .0277931
720.361 .0277726
721.092 .0277524
721.823 .0277327
722.554 .0277132
723.284 .0276930
724.014 .0276723
724.744 .0276506
725.474 .0276277
726.204 .0276033
726.933 .0275781
727.662 .0275526
728.391 .0275272
729.120 .0275029
729.849 .0274798
730.577 .0274584
731.305 .0274384
732.033 .0274191
732.760 .0274001
733.488 .0273810
734.215 .0273611
734.942 .0273407
735.669 .0273197
736.395 .0272989
737.122 .0272786
737.848 .0272589
738.573 .0272401
739.299 .0272223
740.024 .0272051
740.750 .0271875
741.474 .0271687
742.199 .0271488
742.924 .0271270
743.648 .0271042
744.372 .0270807
745.096 .0270576
745.819 .0270356
746.543 .0270152
747.266 .0269966
747.989 .0269799
748.711 .0269650
749.434 .0269510
750.156 .0269380
750.878 .0269259
751.599 .0269146
752.321 .0269043
753.042 .0268958
753.763 .0268894
754.484 .0268850
755.205 .0268822
755.925 .0268801
756.645 .0268782
757.365 .0268754
758.085 .0268710
758.804 .0268645
759.523 .0268558
760.242 .0268453
760.961 .0268326
761.679 .0268188
762.397 .0268035
763.115 .0267874
763.833 .0267704
764.551 .0267525
765.268 .0267333
765.985 .0267128
766.702 .0266911
767.418 .0266686
768.134 .0266461
768.850 .0266238
769.566 .0266022
770.282 .0265820
770.997 .0265633
771.712 .0265465
772.427 .0265309
773.142 .0265169
773.856 .0265035
774.570 .0264908
775.284 .0264778
775.998 .0264646
776.711 .0264511
777.424 .0264374
778.137 .0264236
778.849 .0264100
779.562 .0263970
780.274 .0263848
780.986 .0263736
781.697 .0263635
782.409 .0263543
783.120 .0263462
783.831 .0263384
784.541 .0263316
785.252 .0263251
785.962 .0263187
786.671 .0263123
787.381 .0263062
788.090 .0263003
788.799 .0262943
789.508 .0262882
790.217 .0262821
790.925 .0262755
791.633 .0262682
792.341 .0262601
793.048 .0262514
793.755 .0262419
794.462 .0262314
795.169 .0262202
795.875 .0262088
796.581 .0261972
797.287 .0261860
797.993 .0261752
798.698 .0261654
799.403 .0261565
800.108 .0261486
800.812 .0261418
801.517 .0261360
802.221 .0261311
802.924 .0261267
803.628 .0261229
804.331 .0261197
805.034 .0261167
805.736 .0261135
806.439 .0261104
807.141 .0261075
807.843 .0261044
808.544 .0261013
809.245 .0260976
809.946 .0260935
810.647 .0260886
811.347 .0260823
812.047 .0260744
812.747 .0260651
813.447 .0260548
814.146 .0260440
814.845 .0260332
815.543 .0260228
816.242 .0260133
816.940 .0260051
817.638 .0259977
818.335 .0259910
819.032 .0259844
819.729 .0259776
820.426 .0259703
821.122 .0259625
821.818 .0259540
822.514 .0259455
823.209 .0259372
823.905 .0259292
824.599 .0259213
825.294 .0259134
825.988 .0259050
826.682 .0258965
827.376 .0258874
828.069 .0258771
828.762 .0258657
829.455 .0258536
830.147 .0258404
830.840 .0258267
831.531 .0258125
832.223 .0257981
832.914 .0257836
833.605 .0257694
834.296 .0257552
834.986 .0257417
835.676 .0257291
836.366 .0257170
837.055 .0257055
837.744 .0256945
838.433 .0256832
839.121 .0256717
839.809 .0256603
840.497 .0256489
841.185 .0256377
841.872 .0256274
842.559 .0256179
843.245 .0256100
843.932 .0256034
844.617 .0255980
845.303 .0255937
845.988 .0255900
846.673 .0255867
847.358 .0255831
848.042 .0255799
848.726 .0255765
849.410 .0255725
850.093 .0255677
850.776 .0255619
851.459 .0255549
852.141 .0255460
852.823 .0255350
853.505 .0255225
854.186 .0255082
854.867 .0254927
855.548 .0254764
856.228 .0254602
856.908 .0254446
857.588 .0254297
858.267 .0254157
858.946 .0254028
859.625 .0253904
860.303 .0253787
860.981 .0253676
861.659 .0253571
862.336 .0253473
863.013 .0253379
863.690 .0253294
864.366 .0253220
865.042 .0253153
865.718 .0253090
866.393 .0253028
867.068 .0252968
867.743 .0252899
868.417 .0252819
869.091 .0252726
869.765 .0252620
870.438 .0252500
871.111 .0252367
871.783 .0252220
872.456 .0252062
873.127 .0251897
873.799 .0251726
874.470 .0251553
875.141 .0251382
875.811 .0251217
876.481 .0251058
877.151 .0250911
877.820 .0250777
878.489 .0250650
879.158 .0250529
879.826 .0250414
880.494 .0250301
881.162 .0250185
881.829 .0250069
882.496 .0249949
883.163 .0249828
883.829 .0249712
884.495 .0249595
885.160 .0249486
885.825 .0249384
886.490 .0249287
887.154 .0249193
887.818 .0249098
888.482 .0249000
889.145 .0248890
889.808 .0248775
890.471 .0248652
891.133 .0248523
891.795 .0248394
892.456 .0248264
893.117 .0248145
893.778 .0248036
894.439 .0247939
895.099 .0247850
895.758 .0247769
896.417 .0247688
897.076 .0247602
897.735 .0247510
898.393 .0247410
899.051 .0247304
899.708 .0247195
900.365 .0247084
901.022 .0246977
901.678 .0246881
902.334 .0246790
902.990 .0246708
903.645 .0246637
904.300 .0246562
904.954 .0246481
905.608 .0246388
906.262 .0246279
906.915 .0246159
907.568 .0246029
908.221 .0245897
908.873 .0245765
909.525 .0245642
910.176 .0245529
910.828 .0245421
911.478 .0245323
912.129 .0245223
912.778 .0245113
913.428 .0244994
914.077 .0244859
914.726 .0244706
915.375 .0244543
916.023 .0244378
916.670 .0244220
917.318 .0244070
917.964 .0243924
918.611 .0243782
919.257 .0243645
919.903 .0243508
920.548 .0243361
921.193 .0243204
921.838 .0243047
922.482 .0242884
923.126 .0242723
923.770 .0242569
924.413 .0242424
925.056 .0242295
925.698 .0242178
926.340 .0242070
926.982 .0241974
927.623 .0241885
928.264 .0241805
928.904 .0241732
929.544 .0241667
930.184 .0241599
930.823 .0241524
931.462 .0241444
932.101 .0241355
932.739 .0241251
933.377 .0241130
934.014 .0240994
934.651 .0240847
935.288 .0240689
935.924 .0240524
936.560 .0240354
937.196 .0240186
937.831 .0240011
938.466 .0239830
939.100 .0239642
939.734 .0239448
940.368 .0239250
941.001 .0239053
941.634 .0238859
942.266 .0238671
942.899 .0238484
943.530 .0238304
944.162 .0238133
944.793 .0237965
945.423 .0237794
946.053 .0237623
946.683 .0237447
947.313 .0237267
947.942 .0237084
948.571 .0236899
949.199 .0236712
949.827 .0236523
950.455 .0236333
951.082 .0236146
951.709 .0235964
952.335 .0235791
952.961 .0235626
953.587 .0235477
954.212 .0235334
954.837 .0235200
955.462 .0235075
956.086 .0234957
956.710 .0234849
957.334 .0234749
957.957 .0234658
958.579 .0234576
959.202 .0234504
959.824 .0234439
960.445 .0234377
961.067 .0234321
961.688 .0234260
962.308 .0234200
962.928 .0234144
963.548 .0234083
964.168 .0234021
964.787 .0233957
965.406 .0233889
966.024 .0233811
966.642 .0233723
967.260 .0233625
967.877 .0233512
968.494 .0233390
969.110 .0233259
969.727 .0233124
970.342 .0232994
970.958 .0232872
971.573 .0232757
972.188 .0232650
972.802 .0232545
973.416 .0232440
974.030 .0232332
974.643 .0232222
975.256 .0232111
975.869 .0232004
976.481 .0231911
977.093 .0231837
977.705 .0231783
978.316 .0231757
978.927 .0231750
979.538 .0231753
980.148 .0231751
980.758 .0231735
981.367 .0231705
981.977 .0231661
982.586 .0231605
983.194 .0231545
983.802 .0231489
984.410 .0231447
985.018 .0231419
985.625 .0231404
986.232 .0231397
986.838 .0231390
987.445 .0231374
988.050 .0231342
988.656 .0231295
989.261 .0231236
989.866 .0231172
990.471 .0231115
991.075 .0231074
991.679 .0231049
992.282 .0231047
992.886 .0231063
993.489 .0231096
994.091 .0231132
994.694 .0231163
995.296 .0231188
995.897 .0231209
996.499 .0231228
997.100 .0231250
997.701 .0231283
998.301 .0231336
998.901 .0231411
999.501 .0231502
1000.101 .0231603
1000.700 .0231714
1001.299 .0231824
1001.898 .0231930
1002.496 .0232024
1003.094 .0232109
1003.692 .0232187
1004.289 .0232258
1004.887 .0232327
1005.484 .0232392
1006.080 .0232455
1006.677 .0232515
1007.273 .0232566
1007.868 .0232609
1008.464 .0232633
1009.059 .0232641
1009.654 .0232631
1010.249 .0232609
1010.843 .0232575
1011.437 .0232533
1012.031 .0232484
1012.625 .0232440
1013.218 .0232404
1013.811 .0232379
1014.404 .0232363
1014.997 .0232366
1015.589 .0232381
1016.181 .0232409
1016.773 .0232441
1017.365 .0232482
1017.956 .0232522
1018.547 .0232569
1019.138 .0232610
1019.728 .0232646
1020.319 .0232684
1020.909 .0232725
1021.499 .0232769
1022.088 .0232820
1022.678 .0232872
1023.267 .0232927
1023.856 .0232978
1024.445 .0233030
1025.033 .0233075
1025.621 .0233116
1026.209 .0233150
1026.797 .0233179
1027.385 .0233201
1027.972 .0233223
1028.560 .0233245
1029.147 .0233268
1029.734 .0233296
1030.320 .0233325
1030.907 .0233350
1031.493 .0233372
1032.079 .0233391
1032.665 .0233409
1033.250 .0233419
1033.836 .0233431
1034.421 .0233441
1035.006 .0233447
1035.591 .0233457
1036.176 .0233464
1036.761 .0233471
1037.345 .0233478
1037.929 .0233478
1038.514 .0233476
1039.097 .0233479
1039.681 .0233497
1040.265 .0233521
1040.848 .0233565
1041.432 .0233632
1042.015 .0233709
1042.598 .0233798
1043.181 .0233894
1043.764 .0233990
1044.346 .0234085
1044.929 .0234177
1045.511 .0234262
1046.094 .0234343
1046.676 .0234433
1047.258 .0234526
1047.840 .0234629
1048.422 .0234731
1049.003 .0234828
1049.585 .0234913
1050.166 .0234986
1050.748 .0235041
1051.329 .0235072
1051.910 .0235088
1052.491 .0235086
1053.072 .0235065
1053.653 .0235031
1054.234 .0234992
1054.815 .0234953
1055.396 .0234906
1055.976 .0234852
1056.557 .0234787
1057.138 .0234717
1057.718 .0234641
1058.298 .0234565
1058.879 .0234498
1059.459 .0234436
1060.039 .0234389
1060.620 .0234352
1061.200 .0234332
1061.780 .0234325
1062.360 .0234328
1062.940 .0234352
1063.520 .0234383
1064.101 .0234416
1064.681 .0234451
1065.261 .0234492
1065.841 .0234535
1066.421 .0234578
1067.001 .0234614
1067.581 .0234640
1068.161 .0234667
1068.741 .0234686
1069.321 .0234697
1069.901 .0234709
1070.482 .0234717
1071.062 .0234689
1071.642 .0234641
1072.222 .0234568
1072.803 .0234457
1073.383 .0234330
1073.963 .0234201
1074.544 .0234066
1075.124 .0233937
1075.705 .0233832
1076.286 .0233742
1076.866 .0233672
1077.447 .0233627
1078.028 .0233565
1078.609 .0233494
1079.190 .0233405
1079.771 .0233297
1080.352 .0233156
1080.934 .0233029
1081.515 .0232905
1082.097 .0232790
1082.679 .0232702
1083.260 .0232625
1083.842 .0232558
1084.424 .0232496
1085.007 .0232446
1085.589 .0232395
1086.172 .0232349
1086.754 .0232332
1087.337 .0232330
1087.920 .0232371
1088.503 .0232439
1089.087 .0232550
1089.670 .0232675
1090.254 .0232811
1090.838 .0232948
1091.422 .0233070
1092.006 .0233169
1092.590 .0233242
1093.175 .0233277
1093.760 .0233266
1094.345 .0233232
1094.930 .0233157
1095.516 .0233057
1096.102 .0232968
1096.688 .0232880
1097.274 .0232817
1097.860 .0232775
1098.447 .0232761
1099.034 .0232750
1099.622 .0232737
1100.209 .0232743
1100.797 .0232733
1101.385 .0232730
1101.973 .0232731
1102.562 .0232722
1103.151 .0232744
1103.740 .0232788
1104.330 .0232848
1104.920 .0232920
1105.510 .0232980
1106.101 .0233015
1106.691 .0232991
1107.283 .0232904
1107.874 .0232752
1108.466 .0232534
1109.058 .0232281
1109.651 .0231994
1110.244 .0231678
1110.837 .0231373
1111.431 .0231099
1112.025 .0230874
1112.620 .0230701
1113.215 .0230565
1113.810 .0230490
1114.406 .0230439
1115.002 .0230402
1115.599 .0230375
1116.196 .0230335
1116.793 .0230278
1117.391 .0230234
1117.989 .0230187
1118.588 .0230171
1119.187 .0230188
1119.787 .0230267
1120.387 .0230392
1120.988 .0230556
1121.589 .0230715
1122.190 .0230850
1122.793 .0230980
1123.395 .0231112
1123.998 .0231187
1124.602 .0231276
1125.206 .0231397
1125.811 .0231564
1126.416 .0231767
1127.022 .0232023
1127.628 .0232280
1128.235 .0232562
1128.843 .0232848
1129.451 .0233132
1130.059 .0233416
1130.669 .0233741
1131.278 .0234089
1131.889 .0234430
1132.500 .0234782
1133.112 .0235111
1133.724 .0235395
1134.337 .0235677
1134.950 .0235909
1135.564 .0236100
1136.179 .0236275
1136.795 .0236482
1137.411 .0236707
1138.028 .0236976
1138.645 .0237259
1139.263 .0237489
1139.882 .0237679
1140.502 .0237873
1141.122 .0238006
1141.743 .0238061
1142.365 .0238070
1142.987 .0237383
1143.611 .0239507
1144.235 .0238631
1144.859 .0237115
1145.485 .0236960
