Measurement Sequence started on: 10-20-44-796
Integration time: 35
Scans to Average: 2 
>>>>>Begin Spectral Data<<<<<
432.953 .0363873
433.882 .0402487
434.810 .0450127
435.737 .0421974
436.662 .0404044
437.586 .0406524
438.509 .0404696
439.431 .0401129
440.351 .0396663
441.269 .0393481
442.187 .0391035
443.103 .0388885
444.018 .0387355
444.932 .0386200
445.844 .0385491
446.756 .0385101
447.666 .0384841
448.575 .0384384
449.482 .0383923
450.388 .0383338
451.294 .0382592
452.198 .0381803
453.100 .0380994
454.002 .0380355
454.902 .0379784
455.801 .0379339
456.699 .0378937
457.596 .0378560
458.492 .0378252
459.387 .0377905
460.280 .0377565
461.172 .0377286
462.064 .0377008
462.954 .0376741
463.843 .0376421
464.730 .0376065
465.617 .0375622
466.503 .0375057
467.387 .0374380
468.271 .0373588
469.153 .0372700
470.035 .0371757
470.915 .0370786
471.794 .0369787
472.673 .0368789
473.550 .0367831
474.426 .0366958
475.301 .0366173
476.175 .0365518
477.048 .0364943
477.920 .0364470
478.791 .0364110
479.661 .0363773
480.530 .0363421
481.398 .0363088
482.266 .0362760
483.132 .0362421
483.997 .0362098
484.861 .0361831
485.724 .0361686
486.587 .0361738
487.448 .0361930
488.308 .0362208
489.168 .0362517
490.026 .0362804
490.884 .0362921
491.741 .0362882
492.597 .0362711
493.452 .0362420
494.306 .0362064
495.159 .0361762
496.011 .0361586
496.862 .0361560
497.713 .0361698
498.562 .0361889
499.411 .0362062
500.259 .0362105
501.106 .0361887
501.952 .0361397
502.798 .0360666
503.642 .0359760
504.486 .0358690
505.329 .0357588
506.171 .0356524
507.012 .0355508
507.852 .0354590
508.692 .0353738
509.531 .0352871
510.369 .0351917
511.206 .0350861
512.043 .0349661
512.878 .0348360
513.713 .0346968
514.547 .0345518
515.381 .0344043
516.213 .0342619
517.045 .0341194
517.876 .0339784
518.706 .0338457
519.536 .0337178
520.365 .0335869
521.193 .0334465
522.020 .0332930
522.847 .0331197
523.673 .0329318
524.498 .0327252
525.323 .0324948
526.146 .0322497
526.969 .0319994
527.792 .0317443
528.614 .0314893
529.435 .0312478
530.255 .0310201
531.075 .0308026
531.894 .0305976
532.712 .0303932
533.530 .0301971
534.347 .0300150
535.163 .0298525
535.979 .0297078
536.794 .0295890
537.608 .0294978
538.422 .0294383
539.235 .0294095
540.048 .0294100
540.860 .0294228
541.671 .0294479
542.481 .0294856
543.292 .0295242
544.101 .0295679
544.910 .0296264
545.718 .0296987
546.526 .0297810
547.333 .0298647
548.139 .0299555
548.945 .0300372
549.750 .0301127
550.555 .0301722
551.359 .0302070
552.162 .0302271
552.965 .0302354
553.768 .0302320
554.569 .0302350
555.371 .0302463
556.171 .0302627
556.972 .0302879
557.771 .0303213
558.570 .0303546
559.369 .0303839
560.167 .0304144
560.964 .0304462
561.761 .0304801
562.558 .0305257
563.354 .0305826
564.149 .0306570
564.944 .0307449
565.738 .0308352
566.532 .0309264
567.325 .0310147
568.118 .0310952
568.910 .0311683
569.702 .0312369
570.494 .0313064
571.285 .0313807
572.075 .0314594
572.865 .0315415
573.654 .0316264
574.443 .0317063
575.232 .0317781
576.020 .0318374
576.807 .0318862
577.594 .0319254
578.381 .0319606
579.167 .0319956
579.952 .0320351
580.738 .0320836
581.522 .0321394
582.307 .0321999
583.091 .0322675
583.874 .0323310
584.657 .0323865
585.440 .0324310
586.222 .0324666
587.004 .0324920
587.785 .0325136
588.566 .0325321
589.346 .0325512
590.126 .0325713
590.906 .0325918
591.685 .0326100
592.464 .0326274
593.242 .0326408
594.020 .0326477
594.797 .0326483
595.575 .0326449
596.351 .0326352
597.128 .0326245
597.904 .0326122
598.679 .0326007
599.454 .0325886
600.229 .0325771
601.004 .0325637
601.778 .0325487
602.551 .0325312
603.325 .0325102
604.097 .0324863
604.870 .0324604
605.642 .0324308
606.414 .0323987
607.185 .0323642
607.956 .0323288
608.727 .0322916
609.497 .0322541
610.267 .0322153
611.037 .0321773
611.806 .0321400
612.575 .0321031
613.344 .0320671
614.112 .0320319
614.880 .0319978
615.647 .0319640
616.414 .0319305
617.181 .0318984
617.948 .0318675
618.714 .0318381
619.480 .0318101
620.245 .0317839
621.011 .0317591
621.775 .0317355
622.540 .0317128
623.304 .0316909
624.068 .0316699
624.832 .0316490
625.595 .0316290
626.358 .0316098
627.120 .0315918
627.883 .0315735
628.645 .0315558
629.406 .0315382
630.168 .0315200
630.929 .0315021
631.689 .0314844
632.450 .0314667
633.210 .0314498
633.970 .0314331
634.729 .0314167
635.489 .0314011
636.248 .0313859
637.006 .0313698
637.765 .0313533
638.523 .0313353
639.280 .0313157
640.038 .0312951
640.795 .0312750
641.552 .0312546
642.309 .0312351
643.065 .0312169
643.821 .0311988
644.577 .0311814
645.332 .0311645
646.088 .0311469
646.843 .0311288
647.597 .0311105
648.352 .0310928
649.106 .0310757
649.860 .0310606
650.613 .0310470
651.367 .0310361
652.120 .0310272
652.872 .0310195
653.625 .0310119
654.377 .0310046
655.129 .0309971
655.881 .0309876
656.632 .0309769
657.384 .0309657
658.135 .0309549
658.885 .0309444
659.636 .0309347
660.386 .0309268
661.136 .0309197
661.885 .0309140
662.635 .0309078
663.384 .0309011
664.133 .0308932
664.881 .0308831
665.630 .0308710
666.378 .0308569
667.126 .0308412
667.874 .0308238
668.621 .0308056
669.368 .0307870
670.115 .0307668
670.862 .0307457
671.608 .0307239
672.354 .0307014
673.100 .0306774
673.846 .0306517
674.591 .0306237
675.337 .0305945
676.082 .0305641
676.826 .0305326
677.571 .0305008
678.315 .0304695
679.059 .0304387
679.803 .0304091
680.547 .0303806
681.290 .0303540
682.033 .0303281
682.776 .0303039
683.518 .0302794
684.261 .0302550
685.003 .0302306
685.745 .0302057
686.487 .0301809
687.228 .0301566
687.969 .0301322
688.710 .0301080
689.451 .0300837
690.192 .0300594
690.932 .0300344
691.672 .0300097
692.412 .0299841
693.152 .0299584
693.891 .0299318
694.630 .0299051
695.369 .0298775
696.108 .0298500
696.846 .0298218
697.585 .0297929
698.323 .0297636
699.061 .0297340
699.798 .0297038
700.536 .0296744
701.273 .0296453
702.010 .0296175
702.746 .0295897
703.483 .0295623
704.219 .0295349
704.955 .0295076
705.691 .0294801
706.427 .0294531
707.162 .0294264
707.897 .0294003
708.632 .0293754
709.367 .0293512
710.101 .0293275
710.835 .0293048
711.569 .0292814
712.303 .0292577
713.037 .0292327
713.770 .0292077
714.503 .0291820
715.236 .0291571
715.969 .0291334
716.702 .0291102
717.434 .0290889
718.166 .0290680
718.898 .0290467
719.629 .0290257
720.361 .0290050
721.092 .0289836
721.823 .0289616
722.554 .0289398
723.284 .0289180
724.014 .0288958
724.744 .0288745
725.474 .0288531
726.204 .0288323
726.933 .0288126
727.662 .0287935
728.391 .0287749
729.120 .0287586
729.849 .0287428
730.577 .0287282
731.305 .0287148
732.033 .0287026
732.760 .0286898
733.488 .0286778
734.215 .0286671
734.942 .0286564
735.669 .0286457
736.395 .0286357
737.122 .0286246
737.848 .0286137
738.573 .0286018
739.299 .0285884
740.024 .0285743
740.750 .0285601
741.474 .0285450
742.199 .0285296
742.924 .0285150
743.648 .0285017
744.372 .0284889
745.096 .0284781
745.819 .0284680
746.543 .0284584
747.266 .0284501
747.989 .0284430
748.711 .0284376
749.434 .0284344
750.156 .0284332
750.878 .0284346
751.599 .0284386
752.321 .0284449
753.042 .0284527
753.763 .0284618
754.484 .0284722
755.205 .0284828
755.925 .0284930
756.645 .0285023
757.365 .0285112
758.085 .0285190
758.804 .0285248
759.523 .0285291
760.242 .0285314
760.961 .0285313
761.679 .0285293
762.397 .0285252
763.115 .0285184
763.833 .0285098
764.551 .0284992
765.268 .0284861
765.985 .0284705
766.702 .0284530
767.418 .0284339
768.134 .0284136
768.850 .0283926
769.566 .0283706
770.282 .0283483
770.997 .0283267
771.712 .0283052
772.427 .0282842
773.142 .0282646
773.856 .0282459
774.570 .0282277
775.284 .0282095
775.998 .0281908
776.711 .0281725
777.424 .0281539
778.137 .0281352
778.849 .0281164
779.562 .0280977
780.274 .0280800
780.986 .0280635
781.697 .0280489
782.409 .0280359
783.120 .0280247
783.831 .0280152
784.541 .0280068
785.252 .0279993
785.962 .0279928
786.671 .0279872
787.381 .0279826
788.090 .0279778
788.799 .0279727
789.508 .0279667
790.217 .0279602
790.925 .0279524
791.633 .0279431
792.341 .0279317
793.048 .0279189
793.755 .0279042
794.462 .0278881
795.169 .0278703
795.875 .0278516
796.581 .0278317
797.287 .0278105
797.993 .0277877
798.698 .0277636
799.403 .0277389
800.108 .0277141
800.812 .0276889
801.517 .0276644
802.221 .0276409
802.924 .0276184
803.628 .0275969
804.331 .0275763
805.034 .0275564
805.736 .0275366
806.439 .0275167
807.141 .0274966
807.843 .0274767
808.544 .0274565
809.245 .0274363
809.946 .0274160
810.647 .0273962
811.347 .0273762
812.047 .0273565
812.747 .0273374
813.447 .0273190
814.146 .0273008
814.845 .0272827
815.543 .0272647
816.242 .0272472
816.940 .0272290
817.638 .0272104
818.335 .0271916
819.032 .0271727
819.729 .0271537
820.426 .0271351
821.122 .0271166
821.818 .0270981
822.514 .0270796
823.209 .0270600
823.905 .0270394
824.599 .0270177
825.294 .0269946
825.988 .0269703
826.682 .0269456
827.376 .0269203
828.069 .0268944
828.762 .0268685
829.455 .0268431
830.147 .0268176
830.840 .0267923
831.531 .0267664
832.223 .0267407
832.914 .0267156
833.605 .0266913
834.296 .0266675
834.986 .0266459
835.676 .0266262
836.366 .0266085
837.055 .0265925
837.744 .0265777
838.433 .0265641
839.121 .0265511
839.809 .0265383
840.497 .0265254
841.185 .0265120
841.872 .0264992
842.559 .0264862
843.245 .0264737
843.932 .0264617
844.617 .0264500
845.303 .0264392
845.988 .0264289
846.673 .0264188
847.358 .0264088
848.042 .0263996
848.726 .0263905
849.410 .0263815
850.093 .0263726
850.776 .0263641
851.459 .0263562
852.141 .0263487
852.823 .0263415
853.505 .0263340
854.186 .0263265
854.867 .0263186
855.548 .0263101
856.228 .0263011
856.908 .0262908
857.588 .0262798
858.267 .0262680
858.946 .0262550
859.625 .0262411
860.303 .0262271
860.981 .0262133
861.659 .0262002
862.336 .0261877
863.013 .0261762
863.690 .0261658
864.366 .0261571
865.042 .0261492
865.718 .0261418
866.393 .0261349
867.068 .0261274
867.743 .0261194
868.417 .0261110
869.091 .0261022
869.765 .0260932
870.438 .0260846
871.111 .0260762
871.783 .0260678
872.456 .0260595
873.127 .0260514
873.799 .0260429
874.470 .0260341
875.141 .0260253
875.811 .0260161
876.481 .0260073
877.151 .0259996
877.820 .0259933
878.489 .0259890
879.158 .0259865
879.826 .0259856
880.494 .0259856
881.162 .0259860
881.829 .0259864
882.496 .0259859
883.163 .0259852
883.829 .0259844
884.495 .0259830
885.160 .0259822
885.825 .0259816
886.490 .0259817
887.154 .0259827
887.818 .0259838
888.482 .0259849
889.145 .0259860
889.808 .0259863
890.471 .0259863
891.133 .0259863
891.795 .0259870
892.456 .0259887
893.117 .0259918
893.778 .0259967
894.439 .0260019
895.099 .0260072
895.758 .0260117
896.417 .0260147
897.076 .0260165
897.735 .0260161
898.393 .0260143
899.051 .0260124
899.708 .0260101
900.365 .0260078
901.022 .0260062
901.678 .0260049
902.334 .0260037
902.990 .0260016
903.645 .0259982
904.300 .0259941
904.954 .0259892
905.608 .0259844
906.262 .0259798
906.915 .0259763
907.568 .0259741
908.221 .0259727
908.873 .0259727
909.525 .0259730
910.176 .0259729
910.828 .0259726
911.478 .0259711
912.129 .0259681
912.778 .0259635
913.428 .0259575
914.077 .0259512
914.726 .0259447
915.375 .0259377
916.023 .0259309
916.670 .0259241
917.318 .0259175
917.964 .0259107
918.611 .0259038
919.257 .0258970
919.903 .0258896
920.548 .0258826
921.193 .0258761
921.838 .0258699
922.482 .0258649
923.126 .0258611
923.770 .0258583
924.413 .0258563
925.056 .0258544
925.698 .0258530
926.340 .0258517
926.982 .0258501
927.623 .0258480
928.264 .0258451
928.904 .0258420
929.544 .0258379
930.184 .0258325
930.823 .0258271
931.462 .0258205
932.101 .0258133
932.739 .0258054
933.377 .0257965
934.014 .0257865
934.651 .0257761
935.288 .0257649
935.924 .0257532
936.560 .0257407
937.196 .0257274
937.831 .0257130
938.466 .0256987
939.100 .0256839
939.734 .0256686
940.368 .0256542
941.001 .0256405
941.634 .0256259
942.266 .0256117
942.899 .0255968
943.530 .0255818
944.162 .0255668
944.793 .0255520
945.423 .0255373
946.053 .0255235
946.683 .0255110
947.313 .0254991
947.942 .0254878
948.571 .0254766
949.199 .0254639
949.827 .0254498
950.455 .0254334
951.082 .0254144
951.709 .0253938
952.335 .0253725
952.961 .0253507
953.587 .0253292
954.212 .0253087
954.837 .0252895
955.462 .0252707
956.086 .0252522
956.710 .0252336
957.334 .0252140
957.957 .0251933
958.579 .0251712
959.202 .0251486
959.824 .0251261
960.445 .0251041
961.067 .0250834
961.688 .0250642
962.308 .0250470
962.928 .0250313
963.548 .0250161
964.168 .0250010
964.787 .0249852
965.406 .0249677
966.024 .0249495
966.642 .0249299
967.260 .0249094
967.877 .0248888
968.494 .0248692
969.110 .0248505
969.727 .0248330
970.342 .0248165
970.958 .0248013
971.573 .0247869
972.188 .0247723
972.802 .0247566
973.416 .0247404
974.030 .0247227
974.643 .0247042
975.256 .0246847
975.869 .0246655
976.481 .0246463
977.093 .0246284
977.705 .0246116
978.316 .0245962
978.927 .0245821
979.538 .0245692
980.148 .0245565
980.758 .0245446
981.367 .0245320
981.977 .0245194
982.586 .0245070
983.194 .0244957
983.802 .0244855
984.410 .0244769
985.018 .0244703
985.625 .0244653
986.232 .0244609
986.838 .0244570
987.445 .0244523
988.050 .0244462
988.656 .0244380
989.261 .0244274
989.866 .0244142
990.471 .0243984
991.075 .0243804
991.679 .0243604
992.282 .0243389
992.886 .0243171
993.489 .0242949
994.091 .0242733
994.694 .0242533
995.296 .0242335
995.897 .0242148
996.499 .0241970
997.100 .0241797
997.701 .0241626
998.301 .0241457
998.901 .0241298
999.501 .0241146
1000.101 .0241011
1000.700 .0240902
1001.299 .0240810
1001.898 .0240753
1002.496 .0240713
1003.094 .0240683
1003.692 .0240665
1004.289 .0240644
1004.887 .0240613
1005.484 .0240579
1006.080 .0240528
1006.677 .0240467
1007.273 .0240393
1007.868 .0240325
1008.464 .0240264
1009.059 .0240219
1009.654 .0240196
1010.249 .0240194
1010.843 .0240215
1011.437 .0240253
1012.031 .0240287
1012.625 .0240327
1013.218 .0240349
1013.811 .0240353
1014.404 .0240337
1014.997 .0240299
1015.589 .0240244
1016.181 .0240192
1016.773 .0240144
1017.365 .0240108
1017.956 .0240080
1018.547 .0240061
1019.138 .0240041
1019.728 .0240016
1020.319 .0239974
1020.909 .0239904
1021.499 .0239812
1022.088 .0239707
1022.678 .0239573
1023.267 .0239436
1023.856 .0239295
1024.445 .0239154
1025.033 .0239021
1025.621 .0238894
1026.209 .0238767
1026.797 .0238634
1027.385 .0238494
1027.972 .0238351
1028.560 .0238201
1029.147 .0238049
1029.734 .0237899
1030.320 .0237757
1030.907 .0237634
1031.493 .0237531
1032.079 .0237433
1032.665 .0237358
1033.250 .0237295
1033.836 .0237242
1034.421 .0237193
1035.006 .0237155
1035.591 .0237133
1036.176 .0237126
1036.761 .0237138
1037.345 .0237176
1037.929 .0237219
1038.514 .0237271
1039.097 .0237313
1039.681 .0237340
1040.265 .0237346
1040.848 .0237328
1041.432 .0237279
1042.015 .0237220
1042.598 .0237155
1043.181 .0237087
1043.764 .0237007
1044.346 .0236940
1044.929 .0236869
1045.511 .0236789
1046.094 .0236689
1046.676 .0236583
1047.258 .0236457
1047.840 .0236338
1048.422 .0236219
1049.003 .0236111
1049.585 .0236022
1050.166 .0235956
1050.748 .0235901
1051.329 .0235874
1051.910 .0235857
1052.491 .0235854
1053.072 .0235853
1053.653 .0235879
1054.234 .0235899
1054.815 .0235917
1055.396 .0235926
1055.976 .0235945
1056.557 .0235955
1057.138 .0235958
1057.718 .0235943
1058.298 .0235932
1058.879 .0235917
1059.459 .0235904
1060.039 .0235882
1060.620 .0235860
1061.200 .0235836
1061.780 .0235811
1062.360 .0235767
1062.940 .0235733
1063.520 .0235695
1064.101 .0235659
1064.681 .0235621
1065.261 .0235593
1065.841 .0235553
1066.421 .0235517
1067.001 .0235463
1067.581 .0235395
1068.161 .0235297
1068.741 .0235194
1069.321 .0235060
1069.901 .0234932
1070.482 .0234812
1071.062 .0234717
1071.642 .0234652
1072.222 .0234641
1072.803 .0234656
1073.383 .0234720
1073.963 .0234798
1074.544 .0234904
1075.124 .0235005
1075.705 .0235100
1076.286 .0235161
1076.866 .0235229
1077.447 .0235286
1078.028 .0235352
1078.609 .0235406
1079.190 .0235483
1079.771 .0235574
1080.352 .0235660
1080.934 .0235704
1081.515 .0235723
1082.097 .0235699
1082.679 .0235642
1083.260 .0235513
1083.842 .0235372
1084.424 .0235213
1085.007 .0235068
1085.589 .0234940
1086.172 .0234825
1086.754 .0234722
1087.337 .0234634
1087.920 .0234525
1088.503 .0234409
1089.087 .0234261
1089.670 .0234102
1090.254 .0233952
1090.838 .0233862
1091.422 .0233830
1092.006 .0233875
1092.590 .0234008
1093.175 .0234230
1093.760 .0234482
1094.345 .0234740
1094.930 .0234973
1095.516 .0235153
1096.102 .0235301
1096.688 .0235406
1097.274 .0235504
1097.860 .0235632
1098.447 .0235798
1099.034 .0236032
1099.622 .0236300
1100.209 .0236579
1100.797 .0236800
1101.385 .0236947
1101.973 .0237001
1102.562 .0236918
1103.151 .0236731
1103.740 .0236470
1104.330 .0236217
1104.920 .0235987
1105.510 .0235835
1106.101 .0235751
1106.691 .0235729
1107.283 .0235768
1107.874 .0235808
1108.466 .0235851
1109.058 .0235879
1109.651 .0235922
1110.244 .0235984
1110.837 .0236096
1111.431 .0236280
1112.025 .0236518
1112.620 .0236839
1113.215 .0237218
1113.810 .0237631
1114.406 .0238044
1115.002 .0238447
1115.599 .0238833
1116.196 .0239174
1116.793 .0239483
1117.391 .0239726
1117.989 .0239921
1118.588 .0240069
1119.187 .0240142
1119.787 .0240124
1120.387 .0240053
1120.988 .0239956
1121.589 .0239832
1122.190 .0239691
1122.793 .0239542
1123.395 .0239344
1123.998 .0239102
1124.602 .0238813
1125.206 .0238498
1125.811 .0238176
1126.416 .0237899
1127.022 .0237704
1127.628 .0237628
1128.235 .0237666
1128.843 .0237796
1129.451 .0238001
1130.059 .0238238
1130.669 .0238467
1131.278 .0238687
1131.889 .0238899
1132.500 .0239156
1133.112 .0239480
1133.724 .0239931
1134.337 .0240517
1134.950 .0241217
1135.564 .0241996
1136.179 .0242800
1136.795 .0243639
1137.411 .0244438
1138.028 .0245171
1138.645 .0245932
1139.263 .0246753
1139.882 .0247505
1140.502 .0248260
1141.122 .0249053
1141.743 .0249845
1142.365 .0250433
1142.987 .0250288
1143.611 .0252016
1144.235 .0253063
1144.859 .0253147
1145.485 .0248552
