Measurement Sequence started on: 10-20-44-796
Integration time: 35
Scans to Average: 2 
>>>>>Begin Spectral Data<<<<<
432.953 .0581752
433.882 .0500938
434.810 .0500206
435.737 .0457914
436.662 .0425579
437.586 .0439860
438.509 .0427348
439.431 .0419286
440.351 .0412672
441.269 .0408003
442.187 .0404347
443.103 .0401061
444.018 .0397818
444.932 .0395056
445.844 .0392980
446.756 .0391278
447.666 .0389925
448.575 .0388519
449.482 .0387115
450.388 .0385438
451.294 .0383523
452.198 .0381467
453.100 .0379447
454.002 .0377675
454.902 .0376194
455.801 .0375078
456.699 .0374388
457.596 .0373976
458.492 .0373797
459.387 .0373688
460.280 .0373702
461.172 .0373750
462.064 .0373854
462.954 .0374038
463.843 .0374374
464.730 .0374854
465.617 .0375503
466.503 .0376316
467.387 .0377158
468.271 .0378047
469.153 .0378932
470.035 .0379715
470.915 .0380338
471.794 .0380787
472.673 .0380990
473.550 .0381009
474.426 .0380870
475.301 .0380524
476.175 .0380062
477.048 .0379558
477.920 .0378926
478.791 .0378192
479.661 .0377419
480.530 .0376618
481.398 .0375749
482.266 .0374897
483.132 .0374016
483.997 .0373125
484.861 .0372316
485.724 .0371598
486.587 .0370984
487.448 .0370495
488.308 .0370037
489.168 .0369647
490.026 .0369328
490.884 .0369031
491.741 .0368709
492.597 .0368408
493.452 .0368132
494.306 .0367833
495.159 .0367488
496.011 .0367131
496.862 .0366720
497.713 .0366281
498.562 .0365701
499.411 .0365017
500.259 .0364248
501.106 .0363404
501.952 .0362511
502.798 .0361612
503.642 .0360694
504.486 .0359766
505.329 .0358775
506.171 .0357758
507.012 .0356646
507.852 .0355458
508.692 .0354137
509.531 .0352772
510.369 .0351341
511.206 .0349881
512.043 .0348389
512.878 .0346996
513.713 .0345605
514.547 .0344283
515.381 .0342914
516.213 .0341501
517.045 .0340026
517.876 .0338480
518.706 .0336834
519.536 .0335162
520.365 .0333442
521.193 .0331802
522.020 .0330154
522.847 .0328620
523.673 .0327091
524.498 .0325614
525.323 .0324183
526.146 .0322772
526.969 .0321276
527.792 .0319692
528.614 .0317975
529.435 .0316341
530.255 .0314807
531.075 .0313472
531.894 .0312325
532.712 .0311417
533.530 .0310781
534.347 .0310293
535.163 .0309858
535.979 .0309507
536.794 .0309193
537.608 .0308895
538.422 .0308504
539.235 .0308133
540.048 .0307770
540.860 .0307422
541.671 .0307083
542.481 .0306664
543.292 .0306127
544.101 .0305517
544.910 .0304813
545.718 .0304064
546.526 .0303380
547.333 .0302713
548.139 .0302142
548.945 .0301691
549.750 .0301419
550.555 .0301189
551.359 .0301032
552.162 .0301058
552.965 .0301212
553.768 .0301450
554.569 .0301777
555.371 .0302139
556.171 .0302600
556.972 .0303077
557.771 .0303624
558.570 .0304152
559.369 .0304764
560.167 .0305421
560.964 .0306112
561.761 .0306838
562.558 .0307628
563.354 .0308416
564.149 .0309223
564.944 .0309988
565.738 .0310644
566.532 .0311221
567.325 .0311773
568.118 .0312356
568.910 .0313021
569.702 .0313767
570.494 .0314684
571.285 .0315697
572.075 .0316785
572.865 .0317890
573.654 .0318963
574.443 .0319964
575.232 .0320862
576.020 .0321636
576.807 .0322319
577.594 .0322944
578.381 .0323538
579.167 .0324092
579.952 .0324632
580.738 .0325144
581.522 .0325589
582.307 .0325966
583.091 .0326296
583.874 .0326557
584.657 .0326783
585.440 .0326974
586.222 .0327145
587.004 .0327306
587.785 .0327462
588.566 .0327619
589.346 .0327769
590.126 .0327910
590.906 .0328029
591.685 .0328120
592.464 .0328187
593.242 .0328237
594.020 .0328271
594.797 .0328308
595.575 .0328354
596.351 .0328404
597.128 .0328449
597.904 .0328478
598.679 .0328499
599.454 .0328491
600.229 .0328449
601.004 .0328387
601.778 .0328305
602.551 .0328210
603.325 .0328114
604.097 .0328030
604.870 .0327966
605.642 .0327919
606.414 .0327868
607.185 .0327810
607.956 .0327734
608.727 .0327619
609.497 .0327464
610.267 .0327269
611.037 .0327039
611.806 .0326773
612.575 .0326483
613.344 .0326186
614.112 .0325886
614.880 .0325602
615.647 .0325326
616.414 .0325062
617.181 .0324812
617.948 .0324557
618.714 .0324304
619.480 .0324052
620.245 .0323788
621.011 .0323518
621.775 .0323248
622.540 .0322978
623.304 .0322713
624.068 .0322461
624.832 .0322229
625.595 .0322011
626.358 .0321818
627.120 .0321633
627.883 .0321437
628.645 .0321234
629.406 .0321019
630.168 .0320778
630.929 .0320520
631.689 .0320240
632.450 .0319955
633.210 .0319682
633.970 .0319421
634.729 .0319177
635.489 .0318959
636.248 .0318767
637.006 .0318577
637.765 .0318373
638.523 .0318169
639.280 .0317942
640.038 .0317695
640.795 .0317443
641.552 .0317186
642.309 .0316932
643.065 .0316687
643.821 .0316457
644.577 .0316239
645.332 .0316026
646.088 .0315813
646.843 .0315595
647.597 .0315369
648.352 .0315134
649.106 .0314882
649.860 .0314632
650.613 .0314389
651.367 .0314145
652.120 .0313909
652.872 .0313684
653.625 .0313463
654.377 .0313246
655.129 .0313031
655.881 .0312817
656.632 .0312600
657.384 .0312386
658.135 .0312180
658.885 .0311983
659.636 .0311795
660.386 .0311615
661.136 .0311438
661.885 .0311275
662.635 .0311112
663.384 .0310959
664.133 .0310816
664.881 .0310677
665.630 .0310534
666.378 .0310399
667.126 .0310263
667.874 .0310112
668.621 .0309953
669.368 .0309787
670.115 .0309606
670.862 .0309417
671.608 .0309222
672.354 .0309037
673.100 .0308867
673.846 .0308718
674.591 .0308576
675.337 .0308455
676.082 .0308356
676.826 .0308259
677.571 .0308159
678.315 .0308069
679.059 .0307967
679.803 .0307860
680.547 .0307747
681.290 .0307628
682.033 .0307495
682.776 .0307363
683.518 .0307219
684.261 .0307055
685.003 .0306879
685.745 .0306685
686.487 .0306473
687.228 .0306260
687.969 .0306039
688.710 .0305805
689.451 .0305570
690.192 .0305332
690.932 .0305074
691.672 .0304807
692.412 .0304532
693.152 .0304252
693.891 .0303977
694.630 .0303706
695.369 .0303441
696.108 .0303183
696.846 .0302937
697.585 .0302685
698.323 .0302432
699.061 .0302174
699.798 .0301907
700.536 .0301637
701.273 .0301366
702.010 .0301105
702.746 .0300860
703.483 .0300635
704.219 .0300429
704.955 .0300233
705.691 .0300046
706.427 .0299862
707.162 .0299680
707.897 .0299497
708.632 .0299315
709.367 .0299135
710.101 .0298955
710.835 .0298777
711.569 .0298605
712.303 .0298429
713.037 .0298248
713.770 .0298062
714.503 .0297863
715.236 .0297650
715.969 .0297430
716.702 .0297202
717.434 .0296983
718.166 .0296763
718.898 .0296539
719.629 .0296315
720.361 .0296088
721.092 .0295855
721.823 .0295616
722.554 .0295371
723.284 .0295121
724.014 .0294856
724.744 .0294586
725.474 .0294304
726.204 .0294019
726.933 .0293738
727.662 .0293457
728.391 .0293183
729.120 .0292916
729.849 .0292656
730.577 .0292414
731.305 .0292183
732.033 .0291963
732.760 .0291746
733.488 .0291531
734.215 .0291321
734.942 .0291114
735.669 .0290914
736.395 .0290722
737.122 .0290541
737.848 .0290368
738.573 .0290198
739.299 .0290029
740.024 .0289860
740.750 .0289691
741.474 .0289523
742.199 .0289347
742.924 .0289162
743.648 .0288983
744.372 .0288811
745.096 .0288651
745.819 .0288499
746.543 .0288351
747.266 .0288210
747.989 .0288071
748.711 .0287933
749.434 .0287794
750.156 .0287658
750.878 .0287527
751.599 .0287400
752.321 .0287286
753.042 .0287183
753.763 .0287097
754.484 .0287031
755.205 .0286982
755.925 .0286938
756.645 .0286896
757.365 .0286856
758.085 .0286814
758.804 .0286765
759.523 .0286704
760.242 .0286636
760.961 .0286561
761.679 .0286486
762.397 .0286404
763.115 .0286314
763.833 .0286213
764.551 .0286097
765.268 .0285957
765.985 .0285793
766.702 .0285604
767.418 .0285393
768.134 .0285169
768.850 .0284941
769.566 .0284708
770.282 .0284484
770.997 .0284269
771.712 .0284068
772.427 .0283876
773.142 .0283693
773.856 .0283512
774.570 .0283332
775.284 .0283155
775.998 .0282982
776.711 .0282808
777.424 .0282645
778.137 .0282484
778.849 .0282329
779.562 .0282178
780.274 .0282030
780.986 .0281888
781.697 .0281747
782.409 .0281607
783.120 .0281470
783.831 .0281339
784.541 .0281220
785.252 .0281114
785.962 .0281025
786.671 .0280956
787.381 .0280909
788.090 .0280878
788.799 .0280864
789.508 .0280863
790.217 .0280871
790.925 .0280882
791.633 .0280896
792.341 .0280904
793.048 .0280897
793.755 .0280882
794.462 .0280851
795.169 .0280800
795.875 .0280734
796.581 .0280648
797.287 .0280544
797.993 .0280422
798.698 .0280281
799.403 .0280123
800.108 .0279956
800.812 .0279778
801.517 .0279594
802.221 .0279412
802.924 .0279233
803.628 .0279060
804.331 .0278904
805.034 .0278759
805.736 .0278628
806.439 .0278510
807.141 .0278405
807.843 .0278308
808.544 .0278215
809.245 .0278125
809.946 .0278033
810.647 .0277946
811.347 .0277856
812.047 .0277762
812.747 .0277674
813.447 .0277581
814.146 .0277483
814.845 .0277383
815.543 .0277280
816.242 .0277176
816.940 .0277072
817.638 .0276971
818.335 .0276874
819.032 .0276787
819.729 .0276709
820.426 .0276633
821.122 .0276559
821.818 .0276480
822.514 .0276386
823.209 .0276281
823.905 .0276159
824.599 .0276022
825.294 .0275875
825.988 .0275717
826.682 .0275551
827.376 .0275372
828.069 .0275182
828.762 .0274986
829.455 .0274783
830.147 .0274569
830.840 .0274353
831.531 .0274141
832.223 .0273948
832.914 .0273772
833.605 .0273617
834.296 .0273486
834.986 .0273375
835.676 .0273278
836.366 .0273185
837.055 .0273094
837.744 .0273013
838.433 .0272927
839.121 .0272844
839.809 .0272756
840.497 .0272674
841.185 .0272591
841.872 .0272509
842.559 .0272421
843.245 .0272323
843.932 .0272214
844.617 .0272091
845.303 .0271960
845.988 .0271825
846.673 .0271684
847.358 .0271546
848.042 .0271407
848.726 .0271276
849.410 .0271150
850.093 .0271032
850.776 .0270924
851.459 .0270825
852.141 .0270721
852.823 .0270615
853.505 .0270510
854.186 .0270401
854.867 .0270286
855.548 .0270164
856.228 .0270038
856.908 .0269911
857.588 .0269785
858.267 .0269661
858.946 .0269538
859.625 .0269427
860.303 .0269317
860.981 .0269201
861.659 .0269080
862.336 .0268952
863.013 .0268816
863.690 .0268673
864.366 .0268526
865.042 .0268377
865.718 .0268233
866.393 .0268090
867.068 .0267950
867.743 .0267811
868.417 .0267672
869.091 .0267529
869.765 .0267380
870.438 .0267228
871.111 .0267067
871.783 .0266907
872.456 .0266744
873.127 .0266582
873.799 .0266419
874.470 .0266253
875.141 .0266088
875.811 .0265923
876.481 .0265760
877.151 .0265606
877.820 .0265464
878.489 .0265339
879.158 .0265224
879.826 .0265123
880.494 .0265026
881.162 .0264932
881.829 .0264832
882.496 .0264723
883.163 .0264602
883.829 .0264473
884.495 .0264338
885.160 .0264208
885.825 .0264088
886.490 .0263982
887.154 .0263889
887.818 .0263805
888.482 .0263723
889.145 .0263641
889.808 .0263554
890.471 .0263467
891.133 .0263374
891.795 .0263283
892.456 .0263194
893.117 .0263112
893.778 .0263039
894.439 .0262971
895.099 .0262905
895.758 .0262842
896.417 .0262777
897.076 .0262709
897.735 .0262636
898.393 .0262563
899.051 .0262492
899.708 .0262417
900.365 .0262341
901.022 .0262258
901.678 .0262168
902.334 .0262065
902.990 .0261950
903.645 .0261827
904.300 .0261705
904.954 .0261585
905.608 .0261472
906.262 .0261365
906.915 .0261269
907.568 .0261168
908.221 .0261064
908.873 .0260952
909.525 .0260827
910.176 .0260688
910.828 .0260542
911.478 .0260388
912.129 .0260236
912.778 .0260086
913.428 .0259946
914.077 .0259813
914.726 .0259688
915.375 .0259562
916.023 .0259440
916.670 .0259325
917.318 .0259214
917.964 .0259108
918.611 .0259017
919.257 .0258940
919.903 .0258874
920.548 .0258816
921.193 .0258766
921.838 .0258715
922.482 .0258660
923.126 .0258592
923.770 .0258507
924.413 .0258404
925.056 .0258289
925.698 .0258166
926.340 .0258037
926.982 .0257910
927.623 .0257782
928.264 .0257658
928.904 .0257532
929.544 .0257400
930.184 .0257253
930.823 .0257101
931.462 .0256941
932.101 .0256768
932.739 .0256593
933.377 .0256419
934.014 .0256248
934.651 .0256089
935.288 .0255937
935.924 .0255800
936.560 .0255674
937.196 .0255558
937.831 .0255441
938.466 .0255322
939.100 .0255196
939.734 .0255060
940.368 .0254913
941.001 .0254766
941.634 .0254609
942.266 .0254455
942.899 .0254306
943.530 .0254163
944.162 .0254025
944.793 .0253900
945.423 .0253783
946.053 .0253671
946.683 .0253561
947.313 .0253446
947.942 .0253318
948.571 .0253185
949.199 .0253033
949.827 .0252867
950.455 .0252693
951.082 .0252519
951.709 .0252343
952.335 .0252179
952.961 .0252024
953.587 .0251874
954.212 .0251731
954.837 .0251594
955.462 .0251448
956.086 .0251296
956.710 .0251138
957.334 .0250976
957.957 .0250812
958.579 .0250663
959.202 .0250521
959.824 .0250396
960.445 .0250283
961.067 .0250182
961.688 .0250085
962.308 .0249993
962.928 .0249897
963.548 .0249793
964.168 .0249680
964.787 .0249555
965.406 .0249416
966.024 .0249280
966.642 .0249143
967.260 .0249017
967.877 .0248898
968.494 .0248788
969.110 .0248680
969.727 .0248573
970.342 .0248467
970.958 .0248362
971.573 .0248254
972.188 .0248150
972.802 .0248048
973.416 .0247957
974.030 .0247873
974.643 .0247807
975.256 .0247760
975.869 .0247735
976.481 .0247729
977.093 .0247744
977.705 .0247780
978.316 .0247840
978.927 .0247911
979.538 .0247996
980.148 .0248076
980.758 .0248143
981.367 .0248193
981.977 .0248226
982.586 .0248235
983.194 .0248232
983.802 .0248219
984.410 .0248206
985.018 .0248196
985.625 .0248192
986.232 .0248186
986.838 .0248175
987.445 .0248147
988.050 .0248092
988.656 .0248014
989.261 .0247920
989.866 .0247805
990.471 .0247693
991.075 .0247592
991.679 .0247511
992.282 .0247448
992.886 .0247406
993.489 .0247378
994.091 .0247356
994.694 .0247331
995.296 .0247291
995.897 .0247232
996.499 .0247163
997.100 .0247080
997.701 .0246998
998.301 .0246915
998.901 .0246838
999.501 .0246766
1000.101 .0246704
1000.700 .0246655
1001.299 .0246619
1001.898 .0246596
1002.496 .0246590
1003.094 .0246599
1003.692 .0246623
1004.289 .0246662
1004.887 .0246717
1005.484 .0246784
1006.080 .0246862
1006.677 .0246945
1007.273 .0247026
1007.868 .0247101
1008.464 .0247179
1009.059 .0247243
1009.654 .0247292
1010.249 .0247327
1010.843 .0247343
1011.437 .0247345
1012.031 .0247338
1012.625 .0247331
1013.218 .0247329
1013.811 .0247345
1014.404 .0247378
1014.997 .0247424
1015.589 .0247480
1016.181 .0247537
1016.773 .0247584
1017.365 .0247621
1017.956 .0247636
1018.547 .0247628
1019.138 .0247608
1019.728 .0247582
1020.319 .0247554
1020.909 .0247531
1021.499 .0247508
1022.088 .0247490
1022.678 .0247457
1023.267 .0247408
1023.856 .0247329
1024.445 .0247228
1025.033 .0247110
1025.621 .0246980
1026.209 .0246859
1026.797 .0246758
1027.385 .0246688
1027.972 .0246669
1028.560 .0246692
1029.147 .0246755
1029.734 .0246860
1030.320 .0247001
1030.907 .0247161
1031.493 .0247332
1032.079 .0247514
1032.665 .0247712
1033.250 .0247913
1033.836 .0248123
1034.421 .0248321
1035.006 .0248513
1035.591 .0248694
1036.176 .0248838
1036.761 .0248947
1037.345 .0249029
1037.929 .0249071
1038.514 .0249085
1039.097 .0249078
1039.681 .0249054
1040.265 .0249019
1040.848 .0248984
1041.432 .0248938
1042.015 .0248873
1042.598 .0248788
1043.181 .0248685
1043.764 .0248548
1044.346 .0248404
1044.929 .0248252
1045.511 .0248111
1046.094 .0248010
1046.676 .0247944
1047.258 .0247905
1047.840 .0247900
1048.422 .0247912
1049.003 .0247930
1049.585 .0247928
1050.166 .0247905
1050.748 .0247864
1051.329 .0247815
1051.910 .0247773
1052.491 .0247737
1053.072 .0247731
1053.653 .0247758
1054.234 .0247807
1054.815 .0247861
1055.396 .0247916
1055.976 .0247960
1056.557 .0247982
1057.138 .0247982
1057.718 .0247954
1058.298 .0247907
1058.879 .0247843
1059.459 .0247779
1060.039 .0247714
1060.620 .0247630
1061.200 .0247539
1061.780 .0247413
1062.360 .0247272
1062.940 .0247108
1063.520 .0246926
1064.101 .0246732
1064.681 .0246547
1065.261 .0246367
1065.841 .0246174
1066.421 .0245995
1067.001 .0245821
1067.581 .0245648
1068.161 .0245476
1068.741 .0245306
1069.321 .0245154
1069.901 .0245031
1070.482 .0244943
1071.062 .0244890
1071.642 .0244882
1072.222 .0244906
1072.803 .0244938
1073.383 .0244979
1073.963 .0245021
1074.544 .0245047
1075.124 .0245049
1075.705 .0245043
1076.286 .0245020
1076.866 .0244992
1077.447 .0244956
1078.028 .0244925
1078.609 .0244897
1079.190 .0244862
1079.771 .0244819
1080.352 .0244759
1080.934 .0244679
1081.515 .0244582
1082.097 .0244463
1082.679 .0244340
1083.260 .0244223
1083.842 .0244094
1084.424 .0243983
1085.007 .0243899
1085.589 .0243842
1086.172 .0243816
1086.754 .0243819
1087.337 .0243852
1087.920 .0243889
1088.503 .0243932
1089.087 .0243962
1089.670 .0243971
1090.254 .0243996
1090.838 .0244019
1091.422 .0244054
1092.006 .0244096
1092.590 .0244134
1093.175 .0244149
1093.760 .0244151
1094.345 .0244105
1094.930 .0244003
1095.516 .0243856
1096.102 .0243674
1096.688 .0243456
1097.274 .0243231
1097.860 .0243040
1098.447 .0242868
1099.034 .0242736
1099.622 .0242638
1100.209 .0242544
1100.797 .0242484
1101.385 .0242426
1101.973 .0242380
1102.562 .0242344
1103.151 .0242321
1103.740 .0242300
1104.330 .0242287
1104.920 .0242286
1105.510 .0242274
1106.101 .0242269
1106.691 .0242257
1107.283 .0242221
1107.874 .0242183
1108.466 .0242143
1109.058 .0242101
1109.651 .0242074
1110.244 .0242066
1110.837 .0242033
1111.431 .0241989
1112.025 .0241913
1112.620 .0241798
1113.215 .0241691
1113.810 .0241602
1114.406 .0241534
1115.002 .0241528
1115.599 .0241594
1116.196 .0241680
1116.793 .0241768
1117.391 .0241842
1117.989 .0241839
1118.588 .0241762
1119.187 .0241617
1119.787 .0241382
1120.387 .0241121
1120.988 .0240877
1121.589 .0240670
1122.190 .0240560
1122.793 .0240553
1123.395 .0240634
1123.998 .0240792
1124.602 .0241025
1125.206 .0241291
1125.811 .0241580
1126.416 .0241894
1127.022 .0242204
1127.628 .0242572
1128.235 .0242943
1128.843 .0243305
1129.451 .0243733
1130.059 .0244214
1130.669 .0244701
1131.278 .0245213
1131.889 .0245710
1132.500 .0246153
1133.112 .0246590
1133.724 .0246958
1134.337 .0247261
1134.950 .0247503
1135.564 .0247687
1136.179 .0247853
1136.795 .0248101
1137.411 .0248521
1138.028 .0249032
1138.645 .0249817
1139.263 .0250726
1139.882 .0251721
1140.502 .0252953
1141.122 .0254281
1141.743 .0255941
1142.365 .0257932
1142.987 .0256304
1143.611 .0261977
1144.235 .0263434
1144.859 .0269967
1145.485 .0274197
