Measurement Sequence started on: 10-20-44-796
Integration time: 35
Scans to Average: 2 
>>>>>Begin Spectral Data<<<<<
432.953 .0554171
433.882 .0436705
434.810 .0420763
435.737 .0421550
436.662 .0399583
437.586 .0409004
438.509 .0399178
439.431 .0393985
440.351 .0389720
441.269 .0386006
442.187 .0383390
443.103 .0381154
444.018 .0379642
444.932 .0378573
445.844 .0377677
446.756 .0376900
447.666 .0375908
448.575 .0374609
449.482 .0373115
450.388 .0371452
451.294 .0369769
452.198 .0368250
453.100 .0366897
454.002 .0365960
454.902 .0365415
455.801 .0365203
456.699 .0365159
457.596 .0365251
458.492 .0365350
459.387 .0365400
460.280 .0365386
461.172 .0365290
462.064 .0365173
462.954 .0365138
463.843 .0365193
464.730 .0365410
465.617 .0365763
466.503 .0366207
467.387 .0366676
468.271 .0367132
469.153 .0367458
470.035 .0367664
470.915 .0367759
471.794 .0367717
472.673 .0367548
473.550 .0367258
474.426 .0366885
475.301 .0366518
476.175 .0366176
477.048 .0365830
477.920 .0365501
478.791 .0365182
479.661 .0364831
480.530 .0364464
481.398 .0364086
482.266 .0363694
483.132 .0363289
483.997 .0362897
484.861 .0362489
485.724 .0362102
486.587 .0361775
487.448 .0361473
488.308 .0361218
489.168 .0361008
490.026 .0360772
490.884 .0360503
491.741 .0360226
492.597 .0359935
493.452 .0359604
494.306 .0359247
495.159 .0358835
496.011 .0358357
496.862 .0357846
497.713 .0357279
498.562 .0356649
499.411 .0355990
500.259 .0355284
501.106 .0354502
501.952 .0353686
502.798 .0352872
503.642 .0352032
504.486 .0351178
505.329 .0350317
506.171 .0349418
507.012 .0348484
507.852 .0347570
508.692 .0346674
509.531 .0345797
510.369 .0344937
511.206 .0344033
512.043 .0343070
512.878 .0342012
513.713 .0340791
514.547 .0339384
515.381 .0337843
516.213 .0336179
517.045 .0334361
517.876 .0332465
518.706 .0330540
519.536 .0328649
520.365 .0326731
521.193 .0324810
522.020 .0322825
522.847 .0320762
523.673 .0318684
524.498 .0316594
525.323 .0314581
526.146 .0312746
526.969 .0311140
527.792 .0309797
528.614 .0308691
529.435 .0307771
530.255 .0306944
531.075 .0306131
531.894 .0305298
532.712 .0304365
533.530 .0303329
534.347 .0302325
535.163 .0301353
535.979 .0300492
536.794 .0299710
537.608 .0299011
538.422 .0298472
539.235 .0297999
540.048 .0297593
540.860 .0297218
541.671 .0296915
542.481 .0296775
543.292 .0296727
544.101 .0296794
544.910 .0296983
545.718 .0297250
546.526 .0297572
547.333 .0297877
548.139 .0298138
548.945 .0298352
549.750 .0298470
550.555 .0298597
551.359 .0298719
552.162 .0298850
552.965 .0299054
553.768 .0299343
554.569 .0299700
555.371 .0300035
556.171 .0300309
556.972 .0300501
557.771 .0300578
558.570 .0300547
559.369 .0300452
560.167 .0300399
560.964 .0300483
561.761 .0300745
562.558 .0301140
563.354 .0301723
564.149 .0302404
564.944 .0303114
565.738 .0303790
566.532 .0304406
567.325 .0304937
568.118 .0305376
568.910 .0305821
569.702 .0306317
570.494 .0306880
571.285 .0307570
572.075 .0308368
572.865 .0309237
573.654 .0310138
574.443 .0311012
575.232 .0311823
576.020 .0312575
576.807 .0313250
577.594 .0313861
578.381 .0314438
579.167 .0315013
579.952 .0315601
580.738 .0316218
581.522 .0316883
582.307 .0317577
583.091 .0318275
583.874 .0318958
584.657 .0319602
585.440 .0320184
586.222 .0320690
587.004 .0321103
587.785 .0321442
588.566 .0321701
589.346 .0321891
590.126 .0322042
590.906 .0322158
591.685 .0322264
592.464 .0322352
593.242 .0322415
594.020 .0322446
594.797 .0322443
595.575 .0322398
596.351 .0322313
597.128 .0322203
597.904 .0322073
598.679 .0321941
599.454 .0321816
600.229 .0321699
601.004 .0321582
601.778 .0321466
602.551 .0321346
603.325 .0321206
604.097 .0321055
604.870 .0320884
605.642 .0320703
606.414 .0320518
607.185 .0320319
607.956 .0320122
608.727 .0319928
609.497 .0319735
610.267 .0319542
611.037 .0319347
611.806 .0319153
612.575 .0318957
613.344 .0318761
614.112 .0318566
614.880 .0318367
615.647 .0318163
616.414 .0317945
617.181 .0317710
617.948 .0317464
618.714 .0317197
619.480 .0316916
620.245 .0316629
621.011 .0316332
621.775 .0316024
622.540 .0315711
623.304 .0315397
624.068 .0315086
624.832 .0314768
625.595 .0314449
626.358 .0314128
627.120 .0313813
627.883 .0313502
628.645 .0313201
629.406 .0312911
630.168 .0312628
630.929 .0312346
631.689 .0312070
632.450 .0311794
633.210 .0311523
633.970 .0311254
634.729 .0310990
635.489 .0310724
636.248 .0310455
637.006 .0310178
637.765 .0309896
638.523 .0309606
639.280 .0309309
640.038 .0309000
640.795 .0308694
641.552 .0308402
642.309 .0308128
643.065 .0307887
643.821 .0307681
644.577 .0307503
645.332 .0307352
646.088 .0307215
646.843 .0307084
647.597 .0306955
648.352 .0306830
649.106 .0306699
649.860 .0306564
650.613 .0306428
651.367 .0306285
652.120 .0306144
652.872 .0306006
653.625 .0305861
654.377 .0305706
655.129 .0305546
655.881 .0305381
656.632 .0305214
657.384 .0305052
658.135 .0304895
658.885 .0304745
659.636 .0304606
660.386 .0304465
661.136 .0304319
661.885 .0304177
662.635 .0304040
663.384 .0303905
664.133 .0303776
664.881 .0303661
665.630 .0303556
666.378 .0303469
667.126 .0303388
667.874 .0303309
668.621 .0303224
669.368 .0303132
670.115 .0303023
670.862 .0302900
671.608 .0302769
672.354 .0302635
673.100 .0302501
673.846 .0302374
674.591 .0302247
675.337 .0302123
676.082 .0301999
676.826 .0301874
677.571 .0301739
678.315 .0301594
679.059 .0301440
679.803 .0301275
680.547 .0301102
681.290 .0300922
682.033 .0300731
682.776 .0300532
683.518 .0300325
684.261 .0300111
685.003 .0299895
685.745 .0299679
686.487 .0299467
687.228 .0299258
687.969 .0299052
688.710 .0298845
689.451 .0298637
690.192 .0298426
690.932 .0298208
691.672 .0297982
692.412 .0297756
693.152 .0297527
693.891 .0297306
694.630 .0297096
695.369 .0296900
696.108 .0296714
696.846 .0296533
697.585 .0296349
698.323 .0296160
699.061 .0295962
699.798 .0295753
700.536 .0295532
701.273 .0295306
702.010 .0295078
702.746 .0294854
703.483 .0294634
704.219 .0294419
704.955 .0294207
705.691 .0293986
706.427 .0293751
707.162 .0293498
707.897 .0293233
708.632 .0292953
709.367 .0292669
710.101 .0292386
710.835 .0292106
711.569 .0291833
712.303 .0291569
713.037 .0291312
713.770 .0291062
714.503 .0290808
715.236 .0290553
715.969 .0290295
716.702 .0290041
717.434 .0289790
718.166 .0289555
718.898 .0289336
719.629 .0289137
720.361 .0288949
721.092 .0288772
721.823 .0288599
722.554 .0288423
723.284 .0288240
724.014 .0288046
724.744 .0287840
725.474 .0287625
726.204 .0287400
726.933 .0287174
727.662 .0286944
728.391 .0286709
729.120 .0286467
729.849 .0286220
730.577 .0285971
731.305 .0285716
732.033 .0285460
732.760 .0285209
733.488 .0284966
734.215 .0284730
734.942 .0284505
735.669 .0284288
736.395 .0284084
737.122 .0283890
737.848 .0283707
738.573 .0283535
739.299 .0283375
740.024 .0283220
740.750 .0283076
741.474 .0282937
742.199 .0282806
742.924 .0282673
743.648 .0282545
744.372 .0282415
745.096 .0282287
745.819 .0282156
746.543 .0282027
747.266 .0281900
747.989 .0281785
748.711 .0281675
749.434 .0281575
750.156 .0281484
750.878 .0281407
751.599 .0281346
752.321 .0281304
753.042 .0281279
753.763 .0281277
754.484 .0281290
755.205 .0281314
755.925 .0281340
756.645 .0281362
757.365 .0281368
758.085 .0281361
758.804 .0281332
759.523 .0281281
760.242 .0281205
760.961 .0281110
761.679 .0280996
762.397 .0280865
763.115 .0280711
763.833 .0280537
764.551 .0280343
765.268 .0280134
765.985 .0279908
766.702 .0279676
767.418 .0279446
768.134 .0279225
768.850 .0279019
769.566 .0278830
770.282 .0278655
770.997 .0278498
771.712 .0278353
772.427 .0278219
773.142 .0278093
773.856 .0277970
774.570 .0277851
775.284 .0277734
775.998 .0277616
776.711 .0277500
777.424 .0277387
778.137 .0277274
778.849 .0277160
779.562 .0277045
780.274 .0276929
780.986 .0276810
781.697 .0276693
782.409 .0276581
783.120 .0276470
783.831 .0276366
784.541 .0276263
785.252 .0276165
785.962 .0276074
786.671 .0275986
787.381 .0275901
788.090 .0275828
788.799 .0275762
789.508 .0275698
790.217 .0275641
790.925 .0275588
791.633 .0275537
792.341 .0275481
793.048 .0275420
793.755 .0275353
794.462 .0275277
795.169 .0275194
795.875 .0275104
796.581 .0275015
797.287 .0274924
797.993 .0274832
798.698 .0274742
799.403 .0274648
800.108 .0274545
800.812 .0274431
801.517 .0274305
802.221 .0274168
802.924 .0274022
803.628 .0273863
804.331 .0273704
805.034 .0273550
805.736 .0273395
806.439 .0273246
807.141 .0273105
807.843 .0272971
808.544 .0272837
809.245 .0272704
809.946 .0272572
810.647 .0272442
811.347 .0272319
812.047 .0272199
812.747 .0272084
813.447 .0271972
814.146 .0271856
814.845 .0271732
815.543 .0271602
816.242 .0271469
816.940 .0271326
817.638 .0271177
818.335 .0271028
819.032 .0270876
819.729 .0270722
820.426 .0270571
821.122 .0270418
821.818 .0270261
822.514 .0270103
823.209 .0269938
823.905 .0269770
824.599 .0269601
825.294 .0269430
825.988 .0269252
826.682 .0269068
827.376 .0268878
828.069 .0268673
828.762 .0268458
829.455 .0268236
830.147 .0268004
830.840 .0267771
831.531 .0267539
832.223 .0267314
832.914 .0267097
833.605 .0266890
834.296 .0266689
834.986 .0266490
835.676 .0266291
836.366 .0266092
837.055 .0265884
837.744 .0265674
838.433 .0265464
839.121 .0265257
839.809 .0265054
840.497 .0264857
841.185 .0264669
841.872 .0264488
842.559 .0264311
843.245 .0264134
843.932 .0263960
844.617 .0263789
845.303 .0263616
845.988 .0263444
846.673 .0263276
847.358 .0263118
848.042 .0262972
848.726 .0262843
849.410 .0262732
850.093 .0262638
850.776 .0262559
851.459 .0262487
852.141 .0262418
852.823 .0262347
853.505 .0262265
854.186 .0262169
854.867 .0262061
855.548 .0261938
856.228 .0261803
856.908 .0261664
857.588 .0261524
858.267 .0261381
858.946 .0261231
859.625 .0261073
860.303 .0260909
860.981 .0260734
861.659 .0260548
862.336 .0260353
863.013 .0260153
863.690 .0259959
864.366 .0259772
865.042 .0259595
865.718 .0259438
866.393 .0259297
867.068 .0259166
867.743 .0259041
868.417 .0258922
869.091 .0258799
869.765 .0258676
870.438 .0258555
871.111 .0258429
871.783 .0258310
872.456 .0258198
873.127 .0258094
873.799 .0257997
874.470 .0257903
875.141 .0257802
875.811 .0257692
876.481 .0257571
877.151 .0257433
877.820 .0257285
878.489 .0257126
879.158 .0256960
879.826 .0256786
880.494 .0256613
881.162 .0256443
881.829 .0256278
882.496 .0256123
883.163 .0255972
883.829 .0255830
884.495 .0255693
885.160 .0255568
885.825 .0255462
886.490 .0255374
887.154 .0255303
887.818 .0255250
888.482 .0255207
889.145 .0255177
889.808 .0255158
890.471 .0255150
891.133 .0255146
891.795 .0255150
892.456 .0255154
893.117 .0255162
893.778 .0255171
894.439 .0255180
895.099 .0255183
895.758 .0255180
896.417 .0255160
897.076 .0255122
897.735 .0255072
898.393 .0255018
899.051 .0254958
899.708 .0254899
900.365 .0254840
901.022 .0254789
901.678 .0254742
902.334 .0254699
902.990 .0254659
903.645 .0254621
904.300 .0254582
904.954 .0254540
905.608 .0254497
906.262 .0254457
906.915 .0254422
907.568 .0254387
908.221 .0254350
908.873 .0254309
909.525 .0254264
910.176 .0254216
910.828 .0254169
911.478 .0254125
912.129 .0254082
912.778 .0254050
913.428 .0254028
914.077 .0254017
914.726 .0254016
915.375 .0254024
916.023 .0254038
916.670 .0254056
917.318 .0254072
917.964 .0254089
918.611 .0254108
919.257 .0254129
919.903 .0254142
920.548 .0254147
921.193 .0254145
921.838 .0254137
922.482 .0254123
923.126 .0254104
923.770 .0254079
924.413 .0254050
925.056 .0254014
925.698 .0253978
926.340 .0253937
926.982 .0253898
927.623 .0253856
928.264 .0253810
928.904 .0253765
929.544 .0253719
930.184 .0253680
930.823 .0253647
931.462 .0253618
932.101 .0253588
932.739 .0253551
933.377 .0253505
934.014 .0253446
934.651 .0253375
935.288 .0253287
935.924 .0253186
936.560 .0253074
937.196 .0252961
937.831 .0252846
938.466 .0252736
939.100 .0252634
939.734 .0252535
940.368 .0252440
941.001 .0252346
941.634 .0252258
942.266 .0252171
942.899 .0252082
943.530 .0251988
944.162 .0251886
944.793 .0251777
945.423 .0251652
946.053 .0251517
946.683 .0251371
947.313 .0251215
947.942 .0251047
948.571 .0250866
949.199 .0250680
949.827 .0250484
950.455 .0250283
951.082 .0250077
951.709 .0249867
952.335 .0249658
952.961 .0249447
953.587 .0249247
954.212 .0249056
954.837 .0248880
955.462 .0248719
956.086 .0248581
956.710 .0248467
957.334 .0248375
957.957 .0248304
958.579 .0248249
959.202 .0248209
959.824 .0248171
960.445 .0248134
961.067 .0248097
961.688 .0248063
962.308 .0248035
962.928 .0248008
963.548 .0247989
964.168 .0247975
964.787 .0247964
965.406 .0247953
966.024 .0247936
966.642 .0247911
967.260 .0247869
967.877 .0247813
968.494 .0247739
969.110 .0247646
969.727 .0247540
970.342 .0247425
970.958 .0247306
971.573 .0247186
972.188 .0247066
972.802 .0246943
973.416 .0246825
974.030 .0246709
974.643 .0246584
975.256 .0246460
975.869 .0246338
976.481 .0246216
977.093 .0246103
977.705 .0246000
978.316 .0245911
978.927 .0245838
979.538 .0245784
980.148 .0245735
980.758 .0245691
981.367 .0245644
981.977 .0245588
982.586 .0245519
983.194 .0245443
983.802 .0245356
984.410 .0245265
985.018 .0245182
985.625 .0245108
986.232 .0245039
986.838 .0244986
987.445 .0244938
988.050 .0244892
988.656 .0244839
989.261 .0244775
989.866 .0244694
990.471 .0244608
991.075 .0244513
991.679 .0244414
992.282 .0244320
992.886 .0244239
993.489 .0244163
994.091 .0244099
994.694 .0244040
995.296 .0243979
995.897 .0243906
996.499 .0243820
997.100 .0243710
997.701 .0243584
998.301 .0243446
998.901 .0243302
999.501 .0243156
1000.101 .0243020
1000.700 .0242890
1001.299 .0242770
1001.898 .0242658
1002.496 .0242550
1003.094 .0242437
1003.692 .0242321
1004.289 .0242196
1004.887 .0242070
1005.484 .0241938
1006.080 .0241814
1006.677 .0241692
1007.273 .0241577
1007.868 .0241463
1008.464 .0241352
1009.059 .0241242
1009.654 .0241134
1010.249 .0241025
1010.843 .0240920
1011.437 .0240817
1012.031 .0240726
1012.625 .0240639
1013.218 .0240562
1013.811 .0240497
1014.404 .0240442
1014.997 .0240387
1015.589 .0240334
1016.181 .0240285
1016.773 .0240239
1017.365 .0240195
1017.956 .0240151
1018.547 .0240114
1019.138 .0240082
1019.728 .0240050
1020.319 .0240013
1020.909 .0239970
1021.499 .0239917
1022.088 .0239852
1022.678 .0239771
1023.267 .0239684
1023.856 .0239585
1024.445 .0239480
1025.033 .0239369
1025.621 .0239256
1026.209 .0239140
1026.797 .0239025
1027.385 .0238909
1027.972 .0238797
1028.560 .0238684
1029.147 .0238571
1029.734 .0238463
1030.320 .0238370
1030.907 .0238285
1031.493 .0238209
1032.079 .0238148
1032.665 .0238105
1033.250 .0238071
1033.836 .0238048
1034.421 .0238031
1035.006 .0238015
1035.591 .0237999
1036.176 .0237975
1036.761 .0237939
1037.345 .0237898
1037.929 .0237846
1038.514 .0237789
1039.097 .0237729
1039.681 .0237672
1040.265 .0237614
1040.848 .0237562
1041.432 .0237511
1042.015 .0237444
1042.598 .0237366
1043.181 .0237268
1043.764 .0237156
1044.346 .0237033
1044.929 .0236905
1045.511 .0236788
1046.094 .0236692
1046.676 .0236630
1047.258 .0236604
1047.840 .0236609
1048.422 .0236632
1049.003 .0236654
1049.585 .0236668
1050.166 .0236659
1050.748 .0236630
1051.329 .0236583
1051.910 .0236533
1052.491 .0236495
1053.072 .0236470
1053.653 .0236464
1054.234 .0236482
1054.815 .0236518
1055.396 .0236547
1055.976 .0236552
1056.557 .0236512
1057.138 .0236420
1057.718 .0236285
1058.298 .0236108
1058.879 .0235913
1059.459 .0235725
1060.039 .0235556
1060.620 .0235409
1061.200 .0235295
1061.780 .0235205
1062.360 .0235124
1062.940 .0235052
1063.520 .0234975
1064.101 .0234885
1064.681 .0234788
1065.261 .0234685
1065.841 .0234590
1066.421 .0234516
1067.001 .0234471
1067.581 .0234444
1068.161 .0234442
1068.741 .0234463
1069.321 .0234485
1069.901 .0234505
1070.482 .0234521
1071.062 .0234525
1071.642 .0234513
1072.222 .0234476
1072.803 .0234416
1073.383 .0234343
1073.963 .0234261
1074.544 .0234176
1075.124 .0234077
1075.705 .0233972
1076.286 .0233854
1076.866 .0233736
1077.447 .0233603
1078.028 .0233469
1078.609 .0233345
1079.190 .0233223
1079.771 .0233103
1080.352 .0232978
1080.934 .0232851
1081.515 .0232731
1082.097 .0232604
1082.679 .0232486
1083.260 .0232365
1083.842 .0232267
1084.424 .0232167
1085.007 .0232093
1085.589 .0232041
1086.172 .0232016
1086.754 .0231998
1087.337 .0232009
1087.920 .0232034
1088.503 .0232074
1089.087 .0232129
1089.670 .0232195
1090.254 .0232288
1090.838 .0232400
1091.422 .0232499
1092.006 .0232612
1092.590 .0232718
1093.175 .0232820
1093.760 .0232880
1094.345 .0232928
1094.930 .0232954
1095.516 .0232958
1096.102 .0232955
1096.688 .0232948
1097.274 .0232954
1097.860 .0232968
1098.447 .0232963
1099.034 .0232950
1099.622 .0232933
1100.209 .0232880
1100.797 .0232784
1101.385 .0232687
1101.973 .0232580
1102.562 .0232475
1103.151 .0232371
1103.740 .0232292
1104.330 .0232253
1104.920 .0232236
1105.510 .0232250
1106.101 .0232276
1106.691 .0232310
1107.283 .0232332
1107.874 .0232332
1108.466 .0232331
1109.058 .0232327
1109.651 .0232317
1110.244 .0232317
1110.837 .0232352
1111.431 .0232422
1112.025 .0232530
1112.620 .0232673
1113.215 .0232877
1113.810 .0233106
1114.406 .0233341
1115.002 .0233602
1115.599 .0233852
1116.196 .0234065
1116.793 .0234255
1117.391 .0234412
1117.989 .0234538
1118.588 .0234620
1119.187 .0234667
1119.787 .0234703
1120.387 .0234752
1120.988 .0234814
1121.589 .0234869
1122.190 .0234959
1122.793 .0235096
1123.395 .0235226
1123.998 .0235380
1124.602 .0235594
1125.206 .0235842
1125.811 .0236144
1126.416 .0236508
1127.022 .0236937
1127.628 .0237447
1128.235 .0238047
1128.843 .0238706
1129.451 .0239397
1130.059 .0240080
1130.669 .0240727
1131.278 .0241307
1131.889 .0241824
1132.500 .0242257
1133.112 .0242609
1133.724 .0242948
1134.337 .0243290
1134.950 .0243611
1135.564 .0243954
1136.179 .0244310
1136.795 .0244693
1137.411 .0245065
1138.028 .0245405
1138.645 .0245750
1139.263 .0246147
1139.882 .0246591
1140.502 .0247151
1141.122 .0247733
1141.743 .0248415
1142.365 .0249176
1142.987 .0250249
1143.611 .0252586
1144.235 .0250483
1144.859 .0251554
1145.485 .0253589
