Measurement Sequence started on: 10-20-44-796
Integration time: 35
Scans to Average: 2 
>>>>>Begin Spectral Data<<<<<
432.953 .0341765
433.882 .0379919
434.810 .0293510
435.737 .0303131
436.662 .0312078
437.586 .0323024
438.509 .0322973
439.431 .0322736
440.351 .0325038
441.269 .0326673
442.187 .0327919
443.103 .0329054
444.018 .0330150
444.932 .0331483
445.844 .0332711
446.756 .0333613
447.666 .0334241
448.575 .0334474
449.482 .0334498
450.388 .0334279
451.294 .0334121
452.198 .0334154
453.100 .0334243
454.002 .0334401
454.902 .0334481
455.801 .0334530
456.699 .0334617
457.596 .0334720
458.492 .0334768
459.387 .0334774
460.280 .0334781
461.172 .0334732
462.064 .0334568
462.954 .0334275
463.843 .0333892
464.730 .0333433
465.617 .0332958
466.503 .0332411
467.387 .0331882
468.271 .0331478
469.153 .0331177
470.035 .0330949
470.915 .0330805
471.794 .0330611
472.673 .0330400
473.550 .0330157
474.426 .0329876
475.301 .0329586
476.175 .0329344
477.048 .0329179
477.920 .0329078
478.791 .0329062
479.661 .0329088
480.530 .0329124
481.398 .0329205
482.266 .0329235
483.132 .0329206
483.997 .0329125
484.861 .0329003
485.724 .0328853
486.587 .0328735
487.448 .0328628
488.308 .0328505
489.168 .0328424
490.026 .0328336
490.884 .0328222
491.741 .0328099
492.597 .0327989
493.452 .0327854
494.306 .0327696
495.159 .0327527
496.011 .0327323
496.862 .0327070
497.713 .0326727
498.562 .0326272
499.411 .0325719
500.259 .0325081
501.106 .0324333
501.952 .0323483
502.798 .0322614
503.642 .0321738
504.486 .0320811
505.329 .0319825
506.171 .0318782
507.012 .0317671
507.852 .0316458
508.692 .0315186
509.531 .0313871
510.369 .0312543
511.206 .0311321
512.043 .0310231
512.878 .0309244
513.713 .0308380
514.547 .0307616
515.381 .0306919
516.213 .0306235
517.045 .0305550
517.876 .0304775
518.706 .0303931
519.536 .0303068
520.365 .0302105
521.193 .0301072
522.020 .0300042
522.847 .0298968
523.673 .0297738
524.498 .0296315
525.323 .0294650
526.146 .0292709
526.969 .0290596
527.792 .0288308
528.614 .0285763
529.435 .0283139
530.255 .0280504
531.075 .0277857
531.894 .0275333
532.712 .0273008
533.530 .0270866
534.347 .0268950
535.163 .0267185
535.979 .0265585
536.794 .0264194
537.608 .0263122
538.422 .0262287
539.235 .0261743
540.048 .0261504
540.860 .0261476
541.671 .0261630
542.481 .0261932
543.292 .0262269
544.101 .0262631
544.910 .0262957
545.718 .0263179
546.526 .0263361
547.333 .0263521
548.139 .0263691
548.945 .0263929
549.750 .0264148
550.555 .0264351
551.359 .0264538
552.162 .0264725
552.965 .0264971
553.768 .0265254
554.569 .0265670
555.371 .0266153
556.171 .0266735
556.972 .0267365
557.771 .0267985
558.570 .0268570
559.369 .0269094
560.167 .0269520
560.964 .0269919
561.761 .0270265
562.558 .0270641
563.354 .0271159
564.149 .0271802
564.944 .0272606
565.738 .0273595
566.532 .0274677
567.325 .0275842
568.118 .0276988
568.910 .0278121
569.702 .0279202
570.494 .0280252
571.285 .0281316
572.075 .0282386
572.865 .0283550
573.654 .0284783
574.443 .0286061
575.232 .0287425
576.020 .0288798
576.807 .0290088
577.594 .0291285
578.381 .0292362
579.167 .0293327
579.952 .0294124
580.738 .0294815
581.522 .0295427
582.307 .0295985
583.091 .0296514
583.874 .0297007
584.657 .0297456
585.440 .0297876
586.222 .0298228
587.004 .0298503
587.785 .0298725
588.566 .0298894
589.346 .0299005
590.126 .0299119
590.906 .0299231
591.685 .0299358
592.464 .0299480
593.242 .0299603
594.020 .0299696
594.797 .0299749
595.575 .0299763
596.351 .0299734
597.128 .0299700
597.904 .0299670
598.679 .0299645
599.454 .0299642
600.229 .0299660
601.004 .0299691
601.778 .0299722
602.551 .0299738
603.325 .0299720
604.097 .0299666
604.870 .0299571
605.642 .0299446
606.414 .0299304
607.185 .0299152
607.956 .0299019
608.727 .0298906
609.497 .0298813
610.267 .0298725
611.037 .0298640
611.806 .0298552
612.575 .0298445
613.344 .0298324
614.112 .0298187
614.880 .0298035
615.647 .0297877
616.414 .0297709
617.181 .0297544
617.948 .0297390
618.714 .0297246
619.480 .0297113
620.245 .0296993
621.011 .0296881
621.775 .0296766
622.540 .0296647
623.304 .0296531
624.068 .0296415
624.832 .0296292
625.595 .0296166
626.358 .0296040
627.120 .0295915
627.883 .0295788
628.645 .0295662
629.406 .0295540
630.168 .0295422
630.929 .0295292
631.689 .0295156
632.450 .0295005
633.210 .0294850
633.970 .0294677
634.729 .0294492
635.489 .0294300
636.248 .0294093
637.006 .0293868
637.765 .0293635
638.523 .0293393
639.280 .0293157
640.038 .0292906
640.795 .0292658
641.552 .0292414
642.309 .0292179
643.065 .0291951
643.821 .0291744
644.577 .0291559
645.332 .0291401
646.088 .0291251
646.843 .0291114
647.597 .0290986
648.352 .0290866
649.106 .0290748
649.860 .0290625
650.613 .0290507
651.367 .0290390
652.120 .0290268
652.872 .0290146
653.625 .0290024
654.377 .0289900
655.129 .0289766
655.881 .0289614
656.632 .0289440
657.384 .0289239
658.135 .0289017
658.885 .0288768
659.636 .0288510
660.386 .0288244
661.136 .0287979
661.885 .0287722
662.635 .0287495
663.384 .0287282
664.133 .0287085
664.881 .0286893
665.630 .0286701
666.378 .0286499
667.126 .0286289
667.874 .0286068
668.621 .0285851
669.368 .0285652
670.115 .0285465
670.862 .0285287
671.608 .0285134
672.354 .0284997
673.100 .0284867
673.846 .0284744
674.591 .0284622
675.337 .0284491
676.082 .0284363
676.826 .0284240
677.571 .0284122
678.315 .0284022
679.059 .0283941
679.803 .0283875
680.547 .0283828
681.290 .0283795
682.033 .0283758
682.776 .0283726
683.518 .0283698
684.261 .0283659
685.003 .0283608
685.745 .0283543
686.487 .0283462
687.228 .0283365
687.969 .0283257
688.710 .0283127
689.451 .0282984
690.192 .0282835
690.932 .0282674
691.672 .0282506
692.412 .0282335
693.152 .0282160
693.891 .0281988
694.630 .0281816
695.369 .0281642
696.108 .0281462
696.846 .0281289
697.585 .0281112
698.323 .0280938
699.061 .0280774
699.798 .0280611
700.536 .0280453
701.273 .0280304
702.010 .0280162
702.746 .0280028
703.483 .0279894
704.219 .0279766
704.955 .0279637
705.691 .0279512
706.427 .0279379
707.162 .0279239
707.897 .0279101
708.632 .0278959
709.367 .0278813
710.101 .0278664
710.835 .0278515
711.569 .0278361
712.303 .0278210
713.037 .0278054
713.770 .0277895
714.503 .0277737
715.236 .0277575
715.969 .0277418
716.702 .0277263
717.434 .0277115
718.166 .0276973
718.898 .0276836
719.629 .0276711
720.361 .0276581
721.092 .0276458
721.823 .0276335
722.554 .0276208
723.284 .0276077
724.014 .0275932
724.744 .0275777
725.474 .0275606
726.204 .0275425
726.933 .0275229
727.662 .0275012
728.391 .0274788
729.120 .0274553
729.849 .0274309
730.577 .0274062
731.305 .0273813
732.033 .0273564
732.760 .0273314
733.488 .0273058
734.215 .0272798
734.942 .0272546
735.669 .0272299
736.395 .0272061
737.122 .0271839
737.848 .0271635
738.573 .0271448
739.299 .0271276
740.024 .0271121
740.750 .0270972
741.474 .0270833
742.199 .0270690
742.924 .0270539
743.648 .0270384
744.372 .0270222
745.096 .0270056
745.819 .0269891
746.543 .0269729
747.266 .0269568
747.989 .0269414
748.711 .0269271
749.434 .0269134
750.156 .0269008
750.878 .0268884
751.599 .0268768
752.321 .0268659
753.042 .0268555
753.763 .0268454
754.484 .0268368
755.205 .0268291
755.925 .0268223
756.645 .0268158
757.365 .0268099
758.085 .0268046
758.804 .0267988
759.523 .0267920
760.242 .0267839
760.961 .0267748
761.679 .0267644
762.397 .0267517
763.115 .0267379
763.833 .0267221
764.551 .0267048
765.268 .0266858
765.985 .0266651
766.702 .0266433
767.418 .0266206
768.134 .0265969
768.850 .0265733
769.566 .0265499
770.282 .0265264
770.997 .0265040
771.712 .0264829
772.427 .0264629
773.142 .0264440
773.856 .0264266
774.570 .0264104
775.284 .0263954
775.998 .0263817
776.711 .0263689
777.424 .0263567
778.137 .0263449
778.849 .0263325
779.562 .0263197
780.274 .0263066
780.986 .0262930
781.697 .0262792
782.409 .0262666
783.120 .0262551
783.831 .0262453
784.541 .0262373
785.252 .0262313
785.962 .0262262
786.671 .0262217
787.381 .0262168
788.090 .0262117
788.799 .0262061
789.508 .0262005
790.217 .0261949
790.925 .0261897
791.633 .0261851
792.341 .0261806
793.048 .0261758
793.755 .0261708
794.462 .0261639
795.169 .0261553
795.875 .0261450
796.581 .0261334
797.287 .0261206
797.993 .0261073
798.698 .0260949
799.403 .0260833
800.108 .0260731
800.812 .0260633
801.517 .0260533
802.221 .0260438
802.924 .0260341
803.628 .0260239
804.331 .0260137
805.034 .0260042
805.736 .0259950
806.439 .0259867
807.141 .0259798
807.843 .0259735
808.544 .0259674
809.245 .0259602
809.946 .0259512
810.647 .0259400
811.347 .0259270
812.047 .0259124
812.747 .0258973
813.447 .0258829
814.146 .0258696
814.845 .0258577
815.543 .0258474
816.242 .0258391
816.940 .0258312
817.638 .0258230
818.335 .0258141
819.032 .0258031
819.729 .0257906
820.426 .0257770
821.122 .0257625
821.818 .0257478
822.514 .0257337
823.209 .0257201
823.905 .0257070
824.599 .0256948
825.294 .0256823
825.988 .0256692
826.682 .0256555
827.376 .0256411
828.069 .0256251
828.762 .0256089
829.455 .0255925
830.147 .0255765
830.840 .0255619
831.531 .0255484
832.223 .0255365
832.914 .0255264
833.605 .0255178
834.296 .0255104
834.986 .0255039
835.676 .0254977
836.366 .0254914
837.055 .0254853
837.744 .0254787
838.433 .0254712
839.121 .0254626
839.809 .0254527
840.497 .0254420
841.185 .0254304
841.872 .0254183
842.559 .0254062
843.245 .0253948
843.932 .0253836
844.617 .0253732
845.303 .0253633
845.988 .0253525
846.673 .0253402
847.358 .0253266
848.042 .0253107
848.726 .0252927
849.410 .0252738
850.093 .0252550
850.776 .0252368
851.459 .0252207
852.141 .0252055
852.823 .0251917
853.505 .0251796
854.186 .0251675
854.867 .0251547
855.548 .0251412
856.228 .0251269
856.908 .0251120
857.588 .0250976
858.267 .0250843
858.946 .0250722
859.625 .0250626
860.303 .0250548
860.981 .0250478
861.659 .0250416
862.336 .0250357
863.013 .0250292
863.690 .0250227
864.366 .0250153
865.042 .0250069
865.718 .0249987
866.393 .0249906
867.068 .0249824
867.743 .0249749
868.417 .0249670
869.091 .0249586
869.765 .0249497
870.438 .0249395
871.111 .0249277
871.783 .0249152
872.456 .0249020
873.127 .0248879
873.799 .0248735
874.470 .0248600
875.141 .0248468
875.811 .0248353
876.481 .0248244
877.151 .0248132
877.820 .0248018
878.489 .0247893
879.158 .0247751
879.826 .0247603
880.494 .0247451
881.162 .0247302
881.829 .0247169
882.496 .0247054
883.163 .0246960
883.829 .0246886
884.495 .0246832
885.160 .0246789
885.825 .0246746
886.490 .0246705
887.154 .0246654
887.818 .0246597
888.482 .0246540
889.145 .0246477
889.808 .0246422
890.471 .0246368
891.133 .0246316
891.795 .0246264
892.456 .0246212
893.117 .0246157
893.778 .0246096
894.439 .0246030
895.099 .0245961
895.758 .0245883
896.417 .0245802
897.076 .0245718
897.735 .0245636
898.393 .0245554
899.051 .0245475
899.708 .0245394
900.365 .0245314
901.022 .0245236
901.678 .0245165
902.334 .0245096
902.990 .0245034
903.645 .0244974
904.300 .0244917
904.954 .0244859
905.608 .0244798
906.262 .0244730
906.915 .0244659
907.568 .0244577
908.221 .0244489
908.873 .0244397
909.525 .0244307
910.176 .0244221
910.828 .0244141
911.478 .0244072
912.129 .0244008
912.778 .0243949
913.428 .0243888
914.077 .0243825
914.726 .0243757
915.375 .0243675
916.023 .0243584
916.670 .0243484
917.318 .0243382
917.964 .0243280
918.611 .0243185
919.257 .0243095
919.903 .0243004
920.548 .0242915
921.193 .0242825
921.838 .0242737
922.482 .0242648
923.126 .0242562
923.770 .0242481
924.413 .0242413
925.056 .0242361
925.698 .0242323
926.340 .0242308
926.982 .0242309
927.623 .0242313
928.264 .0242319
928.904 .0242312
929.544 .0242294
930.184 .0242258
930.823 .0242206
931.462 .0242134
932.101 .0242049
932.739 .0241950
933.377 .0241836
934.014 .0241709
934.651 .0241568
935.288 .0241410
935.924 .0241242
936.560 .0241062
937.196 .0240871
937.831 .0240678
938.466 .0240488
939.100 .0240304
939.734 .0240134
940.368 .0239977
941.001 .0239831
941.634 .0239699
942.266 .0239581
942.899 .0239470
943.530 .0239371
944.162 .0239278
944.793 .0239183
945.423 .0239085
946.053 .0238984
946.683 .0238873
947.313 .0238758
947.942 .0238643
948.571 .0238527
949.199 .0238410
949.827 .0238287
950.455 .0238156
951.082 .0238020
951.709 .0237880
952.335 .0237737
952.961 .0237591
953.587 .0237453
954.212 .0237325
954.837 .0237214
955.462 .0237123
956.086 .0237052
956.710 .0236998
957.334 .0236955
957.957 .0236912
958.579 .0236864
959.202 .0236800
959.824 .0236729
960.445 .0236645
961.067 .0236559
961.688 .0236464
962.308 .0236367
962.928 .0236274
963.548 .0236180
964.168 .0236076
964.787 .0235960
965.406 .0235827
966.024 .0235680
966.642 .0235514
967.260 .0235338
967.877 .0235157
968.494 .0234986
969.110 .0234826
969.727 .0234678
970.342 .0234550
970.958 .0234445
971.573 .0234359
972.188 .0234298
972.802 .0234257
973.416 .0234229
974.030 .0234211
974.643 .0234204
975.256 .0234194
975.869 .0234185
976.481 .0234173
977.093 .0234164
977.705 .0234161
978.316 .0234166
978.927 .0234174
979.538 .0234189
980.148 .0234211
980.758 .0234224
981.367 .0234227
981.977 .0234220
982.586 .0234195
983.194 .0234158
983.802 .0234107
984.410 .0234049
985.018 .0233985
985.625 .0233929
986.232 .0233878
986.838 .0233838
987.445 .0233815
988.050 .0233792
988.656 .0233779
989.261 .0233762
989.866 .0233733
990.471 .0233691
991.075 .0233646
991.679 .0233591
992.282 .0233530
992.886 .0233467
993.489 .0233406
994.091 .0233345
994.694 .0233291
995.296 .0233234
995.897 .0233175
996.499 .0233114
997.100 .0233043
997.701 .0232957
998.301 .0232872
998.901 .0232779
999.501 .0232689
1000.101 .0232602
1000.700 .0232520
1001.299 .0232435
1001.898 .0232352
1002.496 .0232280
1003.094 .0232213
1003.692 .0232158
1004.289 .0232121
1004.887 .0232095
1005.484 .0232089
1006.080 .0232092
1006.677 .0232093
1007.273 .0232083
1007.868 .0232066
1008.464 .0232030
1009.059 .0231972
1009.654 .0231909
1010.249 .0231853
1010.843 .0231807
1011.437 .0231786
1012.031 .0231785
1012.625 .0231796
1013.218 .0231819
1013.811 .0231838
1014.404 .0231838
1014.997 .0231831
1015.589 .0231816
1016.181 .0231794
1016.773 .0231778
1017.365 .0231784
1017.956 .0231800
1018.547 .0231830
1019.138 .0231877
1019.728 .0231926
1020.319 .0231968
1020.909 .0231996
1021.499 .0231993
1022.088 .0231962
1022.678 .0231899
1023.267 .0231812
1023.856 .0231711
1024.445 .0231610
1025.033 .0231506
1025.621 .0231404
1026.209 .0231306
1026.797 .0231218
1027.385 .0231134
1027.972 .0231055
1028.560 .0230982
1029.147 .0230909
1029.734 .0230831
1030.320 .0230758
1030.907 .0230698
1031.493 .0230661
1032.079 .0230650
1032.665 .0230672
1033.250 .0230717
1033.836 .0230775
1034.421 .0230841
1035.006 .0230899
1035.591 .0230938
1036.176 .0230953
1036.761 .0230933
1037.345 .0230888
1037.929 .0230822
1038.514 .0230748
1039.097 .0230673
1039.681 .0230605
1040.265 .0230546
1040.848 .0230489
1041.432 .0230424
1042.015 .0230350
1042.598 .0230266
1043.181 .0230172
1043.764 .0230070
1044.346 .0229970
1044.929 .0229872
1045.511 .0229784
1046.094 .0229714
1046.676 .0229646
1047.258 .0229591
1047.840 .0229549
1048.422 .0229508
1049.003 .0229470
1049.585 .0229449
1050.166 .0229441
1050.748 .0229446
1051.329 .0229469
1051.910 .0229502
1052.491 .0229536
1053.072 .0229559
1053.653 .0229566
1054.234 .0229557
1054.815 .0229546
1055.396 .0229538
1055.976 .0229550
1056.557 .0229602
1057.138 .0229681
1057.718 .0229767
1058.298 .0229859
1058.879 .0229932
1059.459 .0229970
1060.039 .0229951
1060.620 .0229887
1061.200 .0229798
1061.780 .0229697
1062.360 .0229605
1062.940 .0229548
1063.520 .0229546
1064.101 .0229581
1064.681 .0229629
1065.261 .0229673
1065.841 .0229694
1066.421 .0229680
1067.001 .0229614
1067.581 .0229510
1068.161 .0229384
1068.741 .0229243
1069.321 .0229099
1069.901 .0228964
1070.482 .0228846
1071.062 .0228732
1071.642 .0228632
1072.222 .0228532
1072.803 .0228428
1073.383 .0228321
1073.963 .0228219
1074.544 .0228135
1075.124 .0228075
1075.705 .0228028
1076.286 .0227996
1076.866 .0227991
1077.447 .0228014
1078.028 .0228050
1078.609 .0228111
1079.190 .0228194
1079.771 .0228298
1080.352 .0228400
1080.934 .0228494
1081.515 .0228571
1082.097 .0228614
1082.679 .0228617
1083.260 .0228574
1083.842 .0228480
1084.424 .0228323
1085.007 .0228127
1085.589 .0227909
1086.172 .0227663
1086.754 .0227405
1087.337 .0227151
1087.920 .0226911
1088.503 .0226695
1089.087 .0226487
1089.670 .0226297
1090.254 .0226120
1090.838 .0225963
1091.422 .0225795
1092.006 .0225633
1092.590 .0225496
1093.175 .0225382
1093.760 .0225278
1094.345 .0225232
1094.930 .0225217
1095.516 .0225235
1096.102 .0225283
1096.688 .0225365
1097.274 .0225446
1097.860 .0225508
1098.447 .0225538
1099.034 .0225561
1099.622 .0225575
1100.209 .0225599
1100.797 .0225602
1101.385 .0225623
1101.973 .0225648
1102.562 .0225642
1103.151 .0225596
1103.740 .0225532
1104.330 .0225410
1104.920 .0225225
1105.510 .0224984
1106.101 .0224723
1106.691 .0224469
1107.283 .0224273
1107.874 .0224159
1108.466 .0224123
1109.058 .0224175
1109.651 .0224296
1110.244 .0224464
1110.837 .0224642
1111.431 .0224809
1112.025 .0224942
1112.620 .0225042
1113.215 .0225140
1113.810 .0225255
1114.406 .0225433
1115.002 .0225724
1115.599 .0226130
1116.196 .0226605
1116.793 .0227099
1117.391 .0227598
1117.989 .0228048
1118.588 .0228457
1119.187 .0228781
1119.787 .0229008
1120.387 .0229155
1120.988 .0229309
1121.589 .0229447
1122.190 .0229603
1122.793 .0229827
1123.395 .0230061
1123.998 .0230302
1124.602 .0230523
1125.206 .0230680
1125.811 .0230790
1126.416 .0230887
1127.022 .0230966
1127.628 .0230991
1128.235 .0230987
1128.843 .0230962
1129.451 .0230902
1130.059 .0230855
1130.669 .0230781
1131.278 .0230650
1131.889 .0230534
1132.500 .0230434
1133.112 .0230331
1133.724 .0230277
1134.337 .0230259
1134.950 .0230278
1135.564 .0230339
1136.179 .0230417
1136.795 .0230509
1137.411 .0230609
1138.028 .0230745
1138.645 .0230871
1139.263 .0231020
1139.882 .0231179
1140.502 .0231377
1141.122 .0231703
1141.743 .0232214
1142.365 .0232761
1142.987 .0232543
1143.611 .0233826
1144.235 .0236017
1144.859 .0238069
1145.485 .0235773
