Measurement Sequence started on: 10-20-44-796
Integration time: 35
Scans to Average: 2 
>>>>>Begin Spectral Data<<<<<
432.953 .0550916
433.882 .0490830
434.810 .0471867
435.737 .0408796
436.662 .0398224
437.586 .0410951
438.509 .0397822
439.431 .0388885
440.351 .0382237
441.269 .0378353
442.187 .0375254
443.103 .0372523
444.018 .0370571
444.932 .0369206
445.844 .0368031
446.756 .0367017
447.666 .0366125
448.575 .0365167
449.482 .0364275
450.388 .0363484
451.294 .0362735
452.198 .0362109
453.100 .0361667
454.002 .0361313
454.902 .0361019
455.801 .0360900
456.699 .0360867
457.596 .0360956
458.492 .0361155
459.387 .0361292
460.280 .0361384
461.172 .0361419
462.064 .0361395
462.954 .0361251
463.843 .0361043
464.730 .0360827
465.617 .0360531
466.503 .0360194
467.387 .0359838
468.271 .0359429
469.153 .0359025
470.035 .0358552
470.915 .0357959
471.794 .0357263
472.673 .0356492
473.550 .0355700
474.426 .0354956
475.301 .0354341
476.175 .0353868
477.048 .0353501
477.920 .0353296
478.791 .0353183
479.661 .0353120
480.530 .0353125
481.398 .0353154
482.266 .0353180
483.132 .0353227
483.997 .0353274
484.861 .0353340
485.724 .0353473
486.587 .0353665
487.448 .0353881
488.308 .0354119
489.168 .0354349
490.026 .0354522
490.884 .0354579
491.741 .0354528
492.597 .0354315
493.452 .0353949
494.306 .0353445
495.159 .0352806
496.011 .0352094
496.862 .0351370
497.713 .0350625
498.562 .0349878
499.411 .0349140
500.259 .0348344
501.106 .0347488
501.952 .0346536
502.798 .0345502
503.642 .0344399
504.486 .0343248
505.329 .0342114
506.171 .0340993
507.012 .0339925
507.852 .0338939
508.692 .0337996
509.531 .0337119
510.369 .0336220
511.206 .0335272
512.043 .0334245
512.878 .0333103
513.713 .0331874
514.547 .0330599
515.381 .0329291
516.213 .0328062
517.045 .0326871
517.876 .0325736
518.706 .0324611
519.536 .0323502
520.365 .0322385
521.193 .0321194
522.020 .0319913
522.847 .0318531
523.673 .0317005
524.498 .0315391
525.323 .0313649
526.146 .0311903
526.969 .0310218
527.792 .0308623
528.614 .0307092
529.435 .0305690
530.255 .0304344
531.075 .0302983
531.894 .0301619
532.712 .0300246
533.530 .0298791
534.347 .0297329
535.163 .0295913
535.979 .0294677
536.794 .0293646
537.608 .0292878
538.422 .0292314
539.235 .0291967
540.048 .0291723
540.860 .0291491
541.671 .0291218
542.481 .0291017
543.292 .0290754
544.101 .0290488
544.910 .0290203
545.718 .0289978
546.526 .0289794
547.333 .0289707
548.139 .0289680
548.945 .0289743
549.750 .0289832
550.555 .0290023
551.359 .0290230
552.162 .0290484
552.965 .0290786
553.768 .0291179
554.569 .0291643
555.371 .0292167
556.171 .0292715
556.972 .0293326
557.771 .0293940
558.570 .0294526
559.369 .0295073
560.167 .0295583
560.964 .0296098
561.761 .0296601
562.558 .0297121
563.354 .0297724
564.149 .0298386
564.944 .0299117
565.738 .0299896
566.532 .0300696
567.325 .0301454
568.118 .0302131
568.910 .0302747
569.702 .0303269
570.494 .0303706
571.285 .0304091
572.075 .0304468
572.865 .0304861
573.654 .0305299
574.443 .0305760
575.232 .0306270
576.020 .0306819
576.807 .0307354
577.594 .0307860
578.381 .0308339
579.167 .0308782
579.952 .0309195
580.738 .0309584
581.522 .0309983
582.307 .0310387
583.091 .0310835
583.874 .0311305
584.657 .0311791
585.440 .0312298
586.222 .0312790
587.004 .0313265
587.785 .0313719
588.566 .0314142
589.346 .0314525
590.126 .0314853
590.906 .0315121
591.685 .0315342
592.464 .0315520
593.242 .0315657
594.020 .0315753
594.797 .0315825
595.575 .0315865
596.351 .0315872
597.128 .0315846
597.904 .0315787
598.679 .0315694
599.454 .0315562
600.229 .0315392
601.004 .0315201
601.778 .0315000
602.551 .0314791
603.325 .0314591
604.097 .0314409
604.870 .0314237
605.642 .0314079
606.414 .0313930
607.185 .0313779
607.956 .0313618
608.727 .0313450
609.497 .0313263
610.267 .0313062
611.037 .0312854
611.806 .0312630
612.575 .0312407
613.344 .0312185
614.112 .0311958
614.880 .0311724
615.647 .0311489
616.414 .0311253
617.181 .0311006
617.948 .0310759
618.714 .0310512
619.480 .0310269
620.245 .0310039
621.011 .0309815
621.775 .0309600
622.540 .0309402
623.304 .0309223
624.068 .0309055
624.832 .0308902
625.595 .0308751
626.358 .0308603
627.120 .0308448
627.883 .0308279
628.645 .0308091
629.406 .0307878
630.168 .0307650
630.929 .0307399
631.689 .0307126
632.450 .0306837
633.210 .0306545
633.970 .0306257
634.729 .0305977
635.489 .0305696
636.248 .0305415
637.006 .0305136
637.765 .0304853
638.523 .0304556
639.280 .0304249
640.038 .0303938
640.795 .0303622
641.552 .0303306
642.309 .0303004
643.065 .0302718
643.821 .0302466
644.577 .0302240
645.332 .0302034
646.088 .0301840
646.843 .0301653
647.597 .0301461
648.352 .0301264
649.106 .0301061
649.860 .0300844
650.613 .0300627
651.367 .0300424
652.120 .0300232
652.872 .0300061
653.625 .0299910
654.377 .0299785
655.129 .0299674
655.881 .0299570
656.632 .0299460
657.384 .0299356
658.135 .0299248
658.885 .0299141
659.636 .0299030
660.386 .0298924
661.136 .0298825
661.885 .0298728
662.635 .0298633
663.384 .0298537
664.133 .0298441
664.881 .0298348
665.630 .0298247
666.378 .0298154
667.126 .0298056
667.874 .0297962
668.621 .0297868
669.368 .0297774
670.115 .0297666
670.862 .0297554
671.608 .0297431
672.354 .0297301
673.100 .0297165
673.846 .0297027
674.591 .0296891
675.337 .0296758
676.082 .0296631
676.826 .0296508
677.571 .0296385
678.315 .0296269
679.059 .0296144
679.803 .0296016
680.547 .0295879
681.290 .0295731
682.033 .0295573
682.776 .0295407
683.518 .0295230
684.261 .0295048
685.003 .0294859
685.745 .0294666
686.487 .0294469
687.228 .0294272
687.969 .0294077
688.710 .0293881
689.451 .0293682
690.192 .0293487
690.932 .0293288
691.672 .0293092
692.412 .0292890
693.152 .0292691
693.891 .0292491
694.630 .0292292
695.369 .0292089
696.108 .0291890
696.846 .0291692
697.585 .0291493
698.323 .0291293
699.061 .0291094
699.798 .0290894
700.536 .0290692
701.273 .0290487
702.010 .0290287
702.746 .0290084
703.483 .0289886
704.219 .0289683
704.955 .0289485
705.691 .0289290
706.427 .0289093
707.162 .0288898
707.897 .0288706
708.632 .0288516
709.367 .0288323
710.101 .0288128
710.835 .0287931
711.569 .0287728
712.303 .0287517
713.037 .0287307
713.770 .0287098
714.503 .0286884
715.236 .0286671
715.969 .0286460
716.702 .0286251
717.434 .0286043
718.166 .0285828
718.898 .0285615
719.629 .0285396
720.361 .0285179
721.092 .0284953
721.823 .0284724
722.554 .0284498
723.284 .0284276
724.014 .0284053
724.744 .0283829
725.474 .0283598
726.204 .0283362
726.933 .0283118
727.662 .0282866
728.391 .0282603
729.120 .0282345
729.849 .0282091
730.577 .0281846
731.305 .0281609
732.033 .0281388
732.760 .0281174
733.488 .0280973
734.215 .0280775
734.942 .0280578
735.669 .0280376
736.395 .0280177
737.122 .0279979
737.848 .0279783
738.573 .0279592
739.299 .0279408
740.024 .0279230
740.750 .0279058
741.474 .0278886
742.199 .0278711
742.924 .0278539
743.648 .0278367
744.372 .0278187
745.096 .0278010
745.819 .0277839
746.543 .0277679
747.266 .0277531
747.989 .0277403
748.711 .0277291
749.434 .0277195
750.156 .0277117
750.878 .0277043
751.599 .0276978
752.321 .0276920
753.042 .0276861
753.763 .0276806
754.484 .0276752
755.205 .0276697
755.925 .0276642
756.645 .0276591
757.365 .0276540
758.085 .0276482
758.804 .0276417
759.523 .0276340
760.242 .0276244
760.961 .0276134
761.679 .0276005
762.397 .0275862
763.115 .0275713
763.833 .0275553
764.551 .0275388
765.268 .0275222
765.985 .0275050
766.702 .0274879
767.418 .0274701
768.134 .0274520
768.850 .0274334
769.566 .0274147
770.282 .0273961
770.997 .0273785
771.712 .0273617
772.427 .0273460
773.142 .0273313
773.856 .0273177
774.570 .0273047
775.284 .0272923
775.998 .0272805
776.711 .0272688
777.424 .0272576
778.137 .0272469
778.849 .0272359
779.562 .0272258
780.274 .0272159
780.986 .0272064
781.697 .0271971
782.409 .0271877
783.120 .0271784
783.831 .0271689
784.541 .0271596
785.252 .0271504
785.962 .0271414
786.671 .0271326
787.381 .0271240
788.090 .0271162
788.799 .0271090
789.508 .0271027
790.217 .0270972
790.925 .0270924
791.633 .0270881
792.341 .0270841
793.048 .0270801
793.755 .0270756
794.462 .0270709
795.169 .0270653
795.875 .0270591
796.581 .0270526
797.287 .0270461
797.993 .0270396
798.698 .0270332
799.403 .0270267
800.108 .0270197
800.812 .0270120
801.517 .0270033
802.221 .0269937
802.924 .0269832
803.628 .0269718
804.331 .0269601
805.034 .0269486
805.736 .0269374
806.439 .0269264
807.141 .0269165
807.843 .0269074
808.544 .0268987
809.245 .0268901
809.946 .0268817
810.647 .0268737
811.347 .0268657
812.047 .0268575
812.747 .0268493
813.447 .0268412
814.146 .0268329
814.845 .0268242
815.543 .0268155
816.242 .0268067
816.940 .0267976
817.638 .0267879
818.335 .0267779
819.032 .0267670
819.729 .0267554
820.426 .0267425
821.122 .0267283
821.818 .0267123
822.514 .0266945
823.209 .0266755
823.905 .0266557
824.599 .0266352
825.294 .0266144
825.988 .0265930
826.682 .0265721
827.376 .0265503
828.069 .0265284
828.762 .0265063
829.455 .0264841
830.147 .0264620
830.840 .0264398
831.531 .0264180
832.223 .0263977
832.914 .0263784
833.605 .0263606
834.296 .0263439
834.986 .0263281
835.676 .0263124
836.366 .0262964
837.055 .0262798
837.744 .0262626
838.433 .0262445
839.121 .0262264
839.809 .0262077
840.497 .0261892
841.185 .0261707
841.872 .0261525
842.559 .0261347
843.245 .0261168
843.932 .0260983
844.617 .0260795
845.303 .0260599
845.988 .0260402
846.673 .0260203
847.358 .0260009
848.042 .0259825
848.726 .0259653
849.410 .0259494
850.093 .0259345
850.776 .0259211
851.459 .0259086
852.141 .0258965
852.823 .0258850
853.505 .0258734
854.186 .0258615
854.867 .0258499
855.548 .0258377
856.228 .0258255
856.908 .0258138
857.588 .0258019
858.267 .0257899
858.946 .0257777
859.625 .0257647
860.303 .0257506
860.981 .0257357
861.659 .0257200
862.336 .0257030
863.013 .0256851
863.690 .0256665
864.366 .0256468
865.042 .0256272
865.718 .0256074
866.393 .0255875
867.068 .0255677
867.743 .0255483
868.417 .0255284
869.091 .0255086
869.765 .0254891
870.438 .0254702
871.111 .0254518
871.783 .0254344
872.456 .0254176
873.127 .0254020
873.799 .0253873
874.470 .0253736
875.141 .0253605
875.811 .0253486
876.481 .0253368
877.151 .0253252
877.820 .0253133
878.489 .0253014
879.158 .0252887
879.826 .0252755
880.494 .0252614
881.162 .0252463
881.829 .0252303
882.496 .0252136
883.163 .0251964
883.829 .0251792
884.495 .0251620
885.160 .0251453
885.825 .0251295
886.490 .0251149
887.154 .0251016
887.818 .0250897
888.482 .0250793
889.145 .0250704
889.808 .0250632
890.471 .0250577
891.133 .0250544
891.795 .0250530
892.456 .0250533
893.117 .0250547
893.778 .0250570
894.439 .0250596
895.099 .0250614
895.758 .0250617
896.417 .0250603
897.076 .0250569
897.735 .0250519
898.393 .0250456
899.051 .0250388
899.708 .0250319
900.365 .0250252
901.022 .0250186
901.678 .0250121
902.334 .0250056
902.990 .0249991
903.645 .0249923
904.300 .0249860
904.954 .0249802
905.608 .0249753
906.262 .0249725
906.915 .0249718
907.568 .0249730
908.221 .0249759
908.873 .0249795
909.525 .0249830
910.176 .0249852
910.828 .0249863
911.478 .0249857
912.129 .0249839
912.778 .0249810
913.428 .0249774
914.077 .0249733
914.726 .0249693
915.375 .0249648
916.023 .0249603
916.670 .0249560
917.318 .0249513
917.964 .0249464
918.611 .0249417
919.257 .0249369
919.903 .0249328
920.548 .0249293
921.193 .0249266
921.838 .0249247
922.482 .0249237
923.126 .0249230
923.770 .0249229
924.413 .0249231
925.056 .0249232
925.698 .0249234
926.340 .0249240
926.982 .0249245
927.623 .0249246
928.264 .0249247
928.904 .0249243
929.544 .0249234
930.184 .0249221
930.823 .0249200
931.462 .0249175
932.101 .0249144
932.739 .0249107
933.377 .0249065
934.014 .0249018
934.651 .0248968
935.288 .0248912
935.924 .0248853
936.560 .0248788
937.196 .0248718
937.831 .0248645
938.466 .0248567
939.100 .0248488
939.734 .0248403
940.368 .0248313
941.001 .0248221
941.634 .0248125
942.266 .0248026
942.899 .0247921
943.530 .0247811
944.162 .0247688
944.793 .0247559
945.423 .0247417
946.053 .0247266
946.683 .0247109
947.313 .0246958
947.942 .0246801
948.571 .0246646
949.199 .0246490
949.827 .0246330
950.455 .0246168
951.082 .0246006
951.709 .0245841
952.335 .0245683
952.961 .0245527
953.587 .0245379
954.212 .0245239
954.837 .0245113
955.462 .0244999
956.086 .0244898
956.710 .0244814
957.334 .0244742
957.957 .0244679
958.579 .0244626
959.202 .0244579
959.824 .0244533
960.445 .0244486
961.067 .0244435
961.688 .0244382
962.308 .0244327
962.928 .0244271
963.548 .0244216
964.168 .0244168
964.787 .0244125
965.406 .0244085
966.024 .0244053
966.642 .0244022
967.260 .0243989
967.877 .0243951
968.494 .0243904
969.110 .0243846
969.727 .0243774
970.342 .0243692
970.958 .0243604
971.573 .0243514
972.188 .0243427
972.802 .0243341
973.416 .0243264
974.030 .0243189
974.643 .0243114
975.256 .0243037
975.869 .0242959
976.481 .0242873
977.093 .0242786
977.705 .0242698
978.316 .0242613
978.927 .0242533
979.538 .0242465
980.148 .0242397
980.758 .0242333
981.367 .0242268
981.977 .0242199
982.586 .0242122
983.194 .0242047
983.802 .0241963
984.410 .0241876
985.018 .0241795
985.625 .0241719
986.232 .0241643
986.838 .0241571
987.445 .0241500
988.050 .0241429
988.656 .0241356
989.261 .0241282
989.866 .0241199
990.471 .0241130
991.075 .0241072
991.679 .0241025
992.282 .0240990
992.886 .0240966
993.489 .0240951
994.091 .0240934
994.694 .0240917
995.296 .0240891
995.897 .0240854
996.499 .0240814
997.100 .0240761
997.701 .0240705
998.301 .0240645
998.901 .0240587
999.501 .0240529
1000.101 .0240470
1000.700 .0240402
1001.299 .0240319
1001.898 .0240230
1002.496 .0240129
1003.094 .0240020
1003.692 .0239899
1004.289 .0239779
1004.887 .0239663
1005.484 .0239546
1006.080 .0239430
1006.677 .0239312
1007.273 .0239191
1007.868 .0239060
1008.464 .0238922
1009.059 .0238778
1009.654 .0238629
1010.249 .0238491
1010.843 .0238366
1011.437 .0238256
1012.031 .0238160
1012.625 .0238082
1013.218 .0238006
1013.811 .0237936
1014.404 .0237867
1014.997 .0237794
1015.589 .0237725
1016.181 .0237667
1016.773 .0237613
1017.365 .0237575
1017.956 .0237551
1018.547 .0237538
1019.138 .0237527
1019.728 .0237521
1020.319 .0237508
1020.909 .0237481
1021.499 .0237443
1022.088 .0237390
1022.678 .0237325
1023.267 .0237259
1023.856 .0237188
1024.445 .0237110
1025.033 .0237029
1025.621 .0236939
1026.209 .0236842
1026.797 .0236738
1027.385 .0236628
1027.972 .0236511
1028.560 .0236396
1029.147 .0236285
1029.734 .0236182
1030.320 .0236083
1030.907 .0235999
1031.493 .0235922
1032.079 .0235852
1032.665 .0235784
1033.250 .0235719
1033.836 .0235655
1034.421 .0235596
1035.006 .0235537
1035.591 .0235478
1036.176 .0235414
1036.761 .0235352
1037.345 .0235286
1037.929 .0235210
1038.514 .0235125
1039.097 .0235033
1039.681 .0234929
1040.265 .0234825
1040.848 .0234711
1041.432 .0234596
1042.015 .0234488
1042.598 .0234388
1043.181 .0234296
1043.764 .0234214
1044.346 .0234149
1044.929 .0234097
1045.511 .0234059
1046.094 .0234041
1046.676 .0234028
1047.258 .0234026
1047.840 .0234029
1048.422 .0234031
1049.003 .0234026
1049.585 .0234011
1050.166 .0233986
1050.748 .0233957
1051.329 .0233925
1051.910 .0233889
1052.491 .0233850
1053.072 .0233803
1053.653 .0233747
1054.234 .0233668
1054.815 .0233564
1055.396 .0233431
1055.976 .0233270
1056.557 .0233087
1057.138 .0232890
1057.718 .0232693
1058.298 .0232503
1058.879 .0232324
1059.459 .0232169
1060.039 .0232026
1060.620 .0231899
1061.200 .0231780
1061.780 .0231664
1062.360 .0231555
1062.940 .0231460
1063.520 .0231371
1064.101 .0231298
1064.681 .0231241
1065.261 .0231203
1065.841 .0231174
1066.421 .0231160
1067.001 .0231143
1067.581 .0231120
1068.161 .0231092
1068.741 .0231056
1069.321 .0231007
1069.901 .0230965
1070.482 .0230915
1071.062 .0230861
1071.642 .0230803
1072.222 .0230740
1072.803 .0230672
1073.383 .0230598
1073.963 .0230527
1074.544 .0230454
1075.124 .0230383
1075.705 .0230322
1076.286 .0230275
1076.866 .0230248
1077.447 .0230245
1078.028 .0230249
1078.609 .0230269
1079.190 .0230306
1079.771 .0230352
1080.352 .0230399
1080.934 .0230446
1081.515 .0230498
1082.097 .0230547
1082.679 .0230567
1083.260 .0230580
1083.842 .0230569
1084.424 .0230551
1085.007 .0230506
1085.589 .0230431
1086.172 .0230337
1086.754 .0230215
1087.337 .0230080
1087.920 .0229941
1088.503 .0229803
1089.087 .0229686
1089.670 .0229579
1090.254 .0229486
1090.838 .0229407
1091.422 .0229323
1092.006 .0229233
1092.590 .0229141
1093.175 .0229052
1093.760 .0228960
1094.345 .0228868
1094.930 .0228798
1095.516 .0228757
1096.102 .0228737
1096.688 .0228758
1097.274 .0228792
1097.860 .0228838
1098.447 .0228890
1099.034 .0228921
1099.622 .0228917
1100.209 .0228898
1100.797 .0228853
1101.385 .0228805
1101.973 .0228761
1102.562 .0228731
1103.151 .0228717
1103.740 .0228750
1104.330 .0228814
1104.920 .0228888
1105.510 .0228978
1106.101 .0229077
1106.691 .0229146
1107.283 .0229199
1107.874 .0229222
1108.466 .0229213
1109.058 .0229182
1109.651 .0229145
1110.244 .0229077
1110.837 .0229038
1111.431 .0229012
1112.025 .0229022
1112.620 .0229078
1113.215 .0229181
1113.810 .0229313
1114.406 .0229446
1115.002 .0229579
1115.599 .0229674
1116.196 .0229717
1116.793 .0229732
1117.391 .0229690
1117.989 .0229629
1118.588 .0229570
1119.187 .0229507
1119.787 .0229444
1120.387 .0229401
1120.988 .0229348
1121.589 .0229279
1122.190 .0229160
1122.793 .0228980
1123.395 .0228734
1123.998 .0228437
1124.602 .0228138
1125.206 .0227866
1125.811 .0227708
1126.416 .0227682
1127.022 .0227796
1127.628 .0228068
1128.235 .0228470
1128.843 .0228966
1129.451 .0229533
1130.059 .0230152
1130.669 .0230807
1131.278 .0231495
1131.889 .0232206
1132.500 .0232967
1133.112 .0233777
1133.724 .0234631
1134.337 .0235533
1134.950 .0236443
1135.564 .0237368
1136.179 .0238258
1136.795 .0239121
1137.411 .0239933
1138.028 .0240689
1138.645 .0241402
1139.263 .0242033
1139.882 .0242589
1140.502 .0243118
1141.122 .0243604
1141.743 .0244041
1142.365 .0244398
1142.987 .0244291
1143.611 .0245861
1144.235 .0246064
1144.859 .0245416
1145.485 .0244363
