Measurement Sequence started on: 10-20-44-796
Integration time: 35
Scans to Average: 2 
>>>>>Begin Spectral Data<<<<<
432.953 .0318746
433.882 .0368414
434.810 .0351269
435.737 .0350033
436.662 .0343854
437.586 .0346317
438.509 .0346218
439.431 .0344771
440.351 .0344048
441.269 .0343507
442.187 .0343176
443.103 .0342949
444.018 .0342726
444.932 .0342589
445.844 .0342584
446.756 .0342545
447.666 .0342536
448.575 .0342492
449.482 .0342501
450.388 .0342604
451.294 .0342747
452.198 .0343035
453.100 .0343390
454.002 .0343883
454.902 .0344436
455.801 .0344897
456.699 .0345332
457.596 .0345806
458.492 .0346300
459.387 .0346710
460.280 .0347047
461.172 .0347342
462.064 .0347537
462.954 .0347610
463.843 .0347486
464.730 .0347257
465.617 .0346976
466.503 .0346638
467.387 .0346201
468.271 .0345670
469.153 .0345064
470.035 .0344357
470.915 .0343585
471.794 .0342694
472.673 .0341713
473.550 .0340718
474.426 .0339769
475.301 .0338888
476.175 .0338120
477.048 .0337488
477.920 .0336977
478.791 .0336593
479.661 .0336267
480.530 .0335956
481.398 .0335660
482.266 .0335401
483.132 .0335167
483.997 .0334968
484.861 .0334849
485.724 .0334815
486.587 .0334907
487.448 .0335091
488.308 .0335315
489.168 .0335565
490.026 .0335803
490.884 .0336009
491.741 .0336118
492.597 .0336162
493.452 .0336140
494.306 .0336050
495.159 .0335934
496.011 .0335766
496.862 .0335581
497.713 .0335358
498.562 .0335088
499.411 .0334730
500.259 .0334262
501.106 .0333669
501.952 .0332942
502.798 .0332106
503.642 .0331169
504.486 .0330151
505.329 .0329095
506.171 .0328039
507.012 .0326989
507.852 .0325962
508.692 .0324986
509.531 .0324001
510.369 .0323030
511.206 .0322038
512.043 .0321016
512.878 .0319961
513.713 .0318859
514.547 .0317710
515.381 .0316528
516.213 .0315315
517.045 .0314049
517.876 .0312738
518.706 .0311405
519.536 .0310010
520.365 .0308549
521.193 .0307034
522.020 .0305444
522.847 .0303760
523.673 .0301981
524.498 .0300104
525.323 .0298122
526.146 .0296085
526.969 .0294016
527.792 .0291947
528.614 .0289930
529.435 .0287976
530.255 .0286047
531.075 .0284137
531.894 .0282180
532.712 .0280177
533.530 .0278078
534.347 .0275937
535.163 .0273768
535.979 .0271683
536.794 .0269836
537.608 .0268262
538.422 .0267044
539.235 .0266229
540.048 .0265757
540.860 .0265573
541.671 .0265616
542.481 .0265853
543.292 .0266218
544.101 .0266742
544.910 .0267395
545.718 .0268202
546.526 .0269203
547.333 .0270411
548.139 .0271735
548.945 .0273175
549.750 .0274610
550.555 .0275941
551.359 .0277183
552.162 .0278310
552.965 .0279269
553.768 .0280169
554.569 .0280997
555.371 .0281802
556.171 .0282562
556.972 .0283304
557.771 .0283983
558.570 .0284656
559.369 .0285274
560.167 .0285818
560.964 .0286329
561.761 .0286891
562.558 .0287458
563.354 .0288098
564.149 .0288762
564.944 .0289443
565.738 .0290121
566.532 .0290770
567.325 .0291333
568.118 .0291862
568.910 .0292361
569.702 .0292868
570.494 .0293385
571.285 .0293963
572.075 .0294595
572.865 .0295324
573.654 .0296107
574.443 .0296893
575.232 .0297664
576.020 .0298404
576.807 .0299082
577.594 .0299713
578.381 .0300287
579.167 .0300833
579.952 .0301374
580.738 .0301936
581.522 .0302515
582.307 .0303098
583.091 .0303692
583.874 .0304259
584.657 .0304775
585.440 .0305227
586.222 .0305593
587.004 .0305888
587.785 .0306128
588.566 .0306321
589.346 .0306486
590.126 .0306628
590.906 .0306772
591.685 .0306914
592.464 .0307038
593.242 .0307147
594.020 .0307218
594.797 .0307256
595.575 .0307263
596.351 .0307226
597.128 .0307162
597.904 .0307083
598.679 .0306997
599.454 .0306899
600.229 .0306789
601.004 .0306675
601.778 .0306554
602.551 .0306421
603.325 .0306278
604.097 .0306119
604.870 .0305956
605.642 .0305794
606.414 .0305634
607.185 .0305478
607.956 .0305321
608.727 .0305166
609.497 .0305011
610.267 .0304849
611.037 .0304681
611.806 .0304497
612.575 .0304306
613.344 .0304112
614.112 .0303914
614.880 .0303714
615.647 .0303515
616.414 .0303323
617.181 .0303135
617.948 .0302945
618.714 .0302748
619.480 .0302540
620.245 .0302329
621.011 .0302114
621.775 .0301891
622.540 .0301669
623.304 .0301459
624.068 .0301264
624.832 .0301087
625.595 .0300926
626.358 .0300773
627.120 .0300628
627.883 .0300478
628.645 .0300313
629.406 .0300130
630.168 .0299928
630.929 .0299709
631.689 .0299480
632.450 .0299247
633.210 .0299013
633.970 .0298787
634.729 .0298574
635.489 .0298371
636.248 .0298172
637.006 .0297974
637.765 .0297777
638.523 .0297575
639.280 .0297374
640.038 .0297164
640.795 .0296955
641.552 .0296754
642.309 .0296564
643.065 .0296389
643.821 .0296232
644.577 .0296094
645.332 .0295965
646.088 .0295839
646.843 .0295712
647.597 .0295576
648.352 .0295434
649.106 .0295283
649.860 .0295120
650.613 .0294948
651.367 .0294777
652.120 .0294605
652.872 .0294444
653.625 .0294288
654.377 .0294137
655.129 .0293994
655.881 .0293858
656.632 .0293723
657.384 .0293595
658.135 .0293477
658.885 .0293362
659.636 .0293248
660.386 .0293138
661.136 .0293028
661.885 .0292924
662.635 .0292823
663.384 .0292729
664.133 .0292636
664.881 .0292552
665.630 .0292467
666.378 .0292385
667.126 .0292305
667.874 .0292219
668.621 .0292122
669.368 .0292008
670.115 .0291882
670.862 .0291739
671.608 .0291589
672.354 .0291442
673.100 .0291302
673.846 .0291172
674.591 .0291052
675.337 .0290937
676.082 .0290820
676.826 .0290691
677.571 .0290545
678.315 .0290372
679.059 .0290178
679.803 .0289964
680.547 .0289738
681.290 .0289510
682.033 .0289286
682.776 .0289066
683.518 .0288859
684.261 .0288664
685.003 .0288472
685.745 .0288277
686.487 .0288076
687.228 .0287868
687.969 .0287652
688.710 .0287430
689.451 .0287217
690.192 .0287010
690.932 .0286820
691.672 .0286642
692.412 .0286474
693.152 .0286316
693.891 .0286159
694.630 .0286000
695.369 .0285834
696.108 .0285652
696.846 .0285459
697.585 .0285250
698.323 .0285039
699.061 .0284820
699.798 .0284600
700.536 .0284382
701.273 .0284165
702.010 .0283951
702.746 .0283741
703.483 .0283531
704.219 .0283329
704.955 .0283128
705.691 .0282926
706.427 .0282726
707.162 .0282529
707.897 .0282335
708.632 .0282151
709.367 .0281973
710.101 .0281801
710.835 .0281630
711.569 .0281465
712.303 .0281297
713.037 .0281131
713.770 .0280972
714.503 .0280812
715.236 .0280656
715.969 .0280501
716.702 .0280345
717.434 .0280192
718.166 .0280034
718.898 .0279871
719.629 .0279698
720.361 .0279521
721.092 .0279329
721.823 .0279125
722.554 .0278914
723.284 .0278697
724.014 .0278472
724.744 .0278239
725.474 .0277997
726.204 .0277751
726.933 .0277500
727.662 .0277238
728.391 .0276969
729.120 .0276698
729.849 .0276428
730.577 .0276168
731.305 .0275916
732.033 .0275682
732.760 .0275463
733.488 .0275264
734.215 .0275079
734.942 .0274908
735.669 .0274751
736.395 .0274603
737.122 .0274463
737.848 .0274328
738.573 .0274191
739.299 .0274056
740.024 .0273919
740.750 .0273788
741.474 .0273656
742.199 .0273526
742.924 .0273398
743.648 .0273276
744.372 .0273156
745.096 .0273039
745.819 .0272920
746.543 .0272798
747.266 .0272671
747.989 .0272537
748.711 .0272404
749.434 .0272279
750.156 .0272165
750.878 .0272069
751.599 .0271996
752.321 .0271947
753.042 .0271918
753.763 .0271907
754.484 .0271912
755.205 .0271925
755.925 .0271941
756.645 .0271952
757.365 .0271960
758.085 .0271964
758.804 .0271958
759.523 .0271940
760.242 .0271909
760.961 .0271862
761.679 .0271794
762.397 .0271703
763.115 .0271590
763.833 .0271449
764.551 .0271289
765.268 .0271104
765.985 .0270902
766.702 .0270682
767.418 .0270453
768.134 .0270220
768.850 .0269989
769.566 .0269760
770.282 .0269539
770.997 .0269327
771.712 .0269135
772.427 .0268954
773.142 .0268791
773.856 .0268641
774.570 .0268508
775.284 .0268385
775.998 .0268269
776.711 .0268161
777.424 .0268062
778.137 .0267968
778.849 .0267877
779.562 .0267786
780.274 .0267695
780.986 .0267602
781.697 .0267511
782.409 .0267418
783.120 .0267331
783.831 .0267247
784.541 .0267168
785.252 .0267096
785.962 .0267030
786.671 .0266969
787.381 .0266909
788.090 .0266850
788.799 .0266788
789.508 .0266719
790.217 .0266646
790.925 .0266566
791.633 .0266481
792.341 .0266393
793.048 .0266302
793.755 .0266205
794.462 .0266106
795.169 .0266009
795.875 .0265908
796.581 .0265807
797.287 .0265704
797.993 .0265600
798.698 .0265494
799.403 .0265387
800.108 .0265282
800.812 .0265178
801.517 .0265078
802.221 .0264982
802.924 .0264889
803.628 .0264800
804.331 .0264716
805.034 .0264633
805.736 .0264552
806.439 .0264473
807.141 .0264387
807.843 .0264296
808.544 .0264199
809.245 .0264090
809.946 .0263972
810.647 .0263844
811.347 .0263713
812.047 .0263583
812.747 .0263460
813.447 .0263347
814.146 .0263247
814.845 .0263163
815.543 .0263091
816.242 .0263028
816.940 .0262969
817.638 .0262908
818.335 .0262844
819.032 .0262778
819.729 .0262707
820.426 .0262636
821.122 .0262568
821.818 .0262501
822.514 .0262440
823.209 .0262384
823.905 .0262327
824.599 .0262267
825.294 .0262196
825.988 .0262105
826.682 .0261995
827.376 .0261866
828.069 .0261717
828.762 .0261550
829.455 .0261375
830.147 .0261191
830.840 .0261001
831.531 .0260817
832.223 .0260634
832.914 .0260458
833.605 .0260284
834.296 .0260110
834.986 .0259937
835.676 .0259763
836.366 .0259594
837.055 .0259434
837.744 .0259292
838.433 .0259168
839.121 .0259067
839.809 .0258993
840.497 .0258946
841.185 .0258919
841.872 .0258908
842.559 .0258910
843.245 .0258912
843.932 .0258911
844.617 .0258899
845.303 .0258880
845.988 .0258855
846.673 .0258817
847.358 .0258768
848.042 .0258708
848.726 .0258635
849.410 .0258545
850.093 .0258436
850.776 .0258313
851.459 .0258170
852.141 .0258008
852.823 .0257832
853.505 .0257647
854.186 .0257455
854.867 .0257265
855.548 .0257075
856.228 .0256897
856.908 .0256731
857.588 .0256580
858.267 .0256445
858.946 .0256331
859.625 .0256233
860.303 .0256148
860.981 .0256073
861.659 .0256006
862.336 .0255942
863.013 .0255879
863.690 .0255814
864.366 .0255743
865.042 .0255667
865.718 .0255583
866.393 .0255496
867.068 .0255407
867.743 .0255313
868.417 .0255212
869.091 .0255103
869.765 .0254993
870.438 .0254872
871.111 .0254743
871.783 .0254606
872.456 .0254458
873.127 .0254301
873.799 .0254134
874.470 .0253965
875.141 .0253802
875.811 .0253649
876.481 .0253506
877.151 .0253376
877.820 .0253262
878.489 .0253163
879.158 .0253075
879.826 .0252994
880.494 .0252915
881.162 .0252829
881.829 .0252744
882.496 .0252656
883.163 .0252571
883.829 .0252497
884.495 .0252434
885.160 .0252384
885.825 .0252344
886.490 .0252313
887.154 .0252287
887.818 .0252262
888.482 .0252238
889.145 .0252206
889.808 .0252174
890.471 .0252143
891.133 .0252120
891.795 .0252104
892.456 .0252097
893.117 .0252090
893.778 .0252086
894.439 .0252073
895.099 .0252053
895.758 .0252022
896.417 .0251985
897.076 .0251939
897.735 .0251890
898.393 .0251841
899.051 .0251796
899.708 .0251753
900.365 .0251711
901.022 .0251662
901.678 .0251606
902.334 .0251537
902.990 .0251453
903.645 .0251356
904.300 .0251249
904.954 .0251129
905.608 .0251005
906.262 .0250883
906.915 .0250767
907.568 .0250653
908.221 .0250549
908.873 .0250447
909.525 .0250345
910.176 .0250240
910.828 .0250128
911.478 .0250005
912.129 .0249873
912.778 .0249731
913.428 .0249582
914.077 .0249431
914.726 .0249290
915.375 .0249153
916.023 .0249034
916.670 .0248933
917.318 .0248838
917.964 .0248744
918.611 .0248649
919.257 .0248542
919.903 .0248420
920.548 .0248284
921.193 .0248140
921.838 .0247996
922.482 .0247864
923.126 .0247745
923.770 .0247643
924.413 .0247557
925.056 .0247483
925.698 .0247410
926.340 .0247340
926.982 .0247266
927.623 .0247186
928.264 .0247108
928.904 .0247033
929.544 .0246965
930.184 .0246907
930.823 .0246859
931.462 .0246818
932.101 .0246778
932.739 .0246733
933.377 .0246677
934.014 .0246609
934.651 .0246529
935.288 .0246435
935.924 .0246333
936.560 .0246226
937.196 .0246118
937.831 .0246008
938.466 .0245892
939.100 .0245768
939.734 .0245629
940.368 .0245475
941.001 .0245306
941.634 .0245126
942.266 .0244938
942.899 .0244747
943.530 .0244549
944.162 .0244347
944.793 .0244140
945.423 .0243922
946.053 .0243696
946.683 .0243465
947.313 .0243224
947.942 .0242981
948.571 .0242738
949.199 .0242499
949.827 .0242265
950.455 .0242040
951.082 .0241821
951.709 .0241615
952.335 .0241419
952.961 .0241236
953.587 .0241068
954.212 .0240922
954.837 .0240791
955.462 .0240677
956.086 .0240579
956.710 .0240497
957.334 .0240422
957.957 .0240353
958.579 .0240283
959.202 .0240217
959.824 .0240147
960.445 .0240073
961.067 .0239997
961.688 .0239922
962.308 .0239839
962.928 .0239752
963.548 .0239656
964.168 .0239548
964.787 .0239429
965.406 .0239297
966.024 .0239156
966.642 .0239014
967.260 .0238874
967.877 .0238739
968.494 .0238611
969.110 .0238494
969.727 .0238373
970.342 .0238256
970.958 .0238140
971.573 .0238024
972.188 .0237908
972.802 .0237796
973.416 .0237689
974.030 .0237584
974.643 .0237485
975.256 .0237394
975.869 .0237309
976.481 .0237232
977.093 .0237152
977.705 .0237078
978.316 .0237006
978.927 .0236940
979.538 .0236878
980.148 .0236821
980.758 .0236770
981.367 .0236726
981.977 .0236682
982.586 .0236641
983.194 .0236602
983.802 .0236559
984.410 .0236505
985.018 .0236446
985.625 .0236375
986.232 .0236300
986.838 .0236221
987.445 .0236143
988.050 .0236060
988.656 .0235981
989.261 .0235903
989.866 .0235824
990.471 .0235747
991.075 .0235669
991.679 .0235585
992.282 .0235508
992.886 .0235432
993.489 .0235365
994.091 .0235310
994.694 .0235277
995.296 .0235256
995.897 .0235249
996.499 .0235252
997.100 .0235261
997.701 .0235272
998.301 .0235287
998.901 .0235300
999.501 .0235311
1000.101 .0235326
1000.700 .0235347
1001.299 .0235371
1001.898 .0235406
1002.496 .0235439
1003.094 .0235466
1003.692 .0235483
1004.289 .0235490
1004.887 .0235485
1005.484 .0235476
1006.080 .0235468
1006.677 .0235460
1007.273 .0235460
1007.868 .0235469
1008.464 .0235484
1009.059 .0235506
1009.654 .0235533
1010.249 .0235556
1010.843 .0235573
1011.437 .0235582
1012.031 .0235579
1012.625 .0235570
1013.218 .0235565
1013.811 .0235564
1014.404 .0235572
1014.997 .0235582
1015.589 .0235600
1016.181 .0235620
1016.773 .0235641
1017.365 .0235655
1017.956 .0235660
1018.547 .0235655
1019.138 .0235642
1019.728 .0235613
1020.319 .0235576
1020.909 .0235537
1021.499 .0235504
1022.088 .0235468
1022.678 .0235431
1023.267 .0235390
1023.856 .0235349
1024.445 .0235302
1025.033 .0235250
1025.621 .0235186
1026.209 .0235113
1026.797 .0235034
1027.385 .0234955
1027.972 .0234885
1028.560 .0234828
1029.147 .0234786
1029.734 .0234768
1030.320 .0234777
1030.907 .0234807
1031.493 .0234844
1032.079 .0234897
1032.665 .0234965
1033.250 .0235033
1033.836 .0235093
1034.421 .0235141
1035.006 .0235188
1035.591 .0235226
1036.176 .0235258
1036.761 .0235277
1037.345 .0235296
1037.929 .0235307
1038.514 .0235299
1039.097 .0235273
1039.681 .0235237
1040.265 .0235178
1040.848 .0235100
1041.432 .0235014
1042.015 .0234926
1042.598 .0234835
1043.181 .0234763
1043.764 .0234707
1044.346 .0234676
1044.929 .0234667
1045.511 .0234674
1046.094 .0234689
1046.676 .0234719
1047.258 .0234744
1047.840 .0234760
1048.422 .0234770
1049.003 .0234777
1049.585 .0234768
1050.166 .0234758
1050.748 .0234748
1051.329 .0234733
1051.910 .0234712
1052.491 .0234689
1053.072 .0234654
1053.653 .0234609
1054.234 .0234547
1054.815 .0234476
1055.396 .0234392
1055.976 .0234309
1056.557 .0234227
1057.138 .0234152
1057.718 .0234093
1058.298 .0234059
1058.879 .0234038
1059.459 .0234045
1060.039 .0234066
1060.620 .0234094
1061.200 .0234115
1061.780 .0234124
1062.360 .0234113
1062.940 .0234089
1063.520 .0234066
1064.101 .0234056
1064.681 .0234061
1065.261 .0234100
1065.841 .0234148
1066.421 .0234210
1067.001 .0234254
1067.581 .0234271
1068.161 .0234237
1068.741 .0234157
1069.321 .0234020
1069.901 .0233852
1070.482 .0233673
1071.062 .0233504
1071.642 .0233355
1072.222 .0233253
1072.803 .0233176
1073.383 .0233128
1073.963 .0233092
1074.544 .0233056
1075.124 .0232998
1075.705 .0232939
1076.286 .0232864
1076.866 .0232788
1077.447 .0232723
1078.028 .0232691
1078.609 .0232680
1079.190 .0232695
1079.771 .0232719
1080.352 .0232738
1080.934 .0232758
1081.515 .0232784
1082.097 .0232789
1082.679 .0232794
1083.260 .0232799
1083.842 .0232809
1084.424 .0232805
1085.007 .0232801
1085.589 .0232788
1086.172 .0232761
1086.754 .0232727
1087.337 .0232690
1087.920 .0232655
1088.503 .0232644
1089.087 .0232647
1089.670 .0232668
1090.254 .0232673
1090.838 .0232653
1091.422 .0232596
1092.006 .0232491
1092.590 .0232358
1093.175 .0232196
1093.760 .0232033
1094.345 .0231898
1094.930 .0231803
1095.516 .0231752
1096.102 .0231743
1096.688 .0231776
1097.274 .0231825
1097.860 .0231850
1098.447 .0231862
1099.034 .0231844
1099.622 .0231819
1100.209 .0231811
1100.797 .0231834
1101.385 .0231895
1101.973 .0232006
1102.562 .0232131
1103.151 .0232269
1103.740 .0232382
1104.330 .0232475
1104.920 .0232499
1105.510 .0232491
1106.101 .0232458
1106.691 .0232397
1107.283 .0232342
1107.874 .0232319
1108.466 .0232313
1109.058 .0232354
1109.651 .0232397
1110.244 .0232453
1110.837 .0232505
1111.431 .0232569
1112.025 .0232646
1112.620 .0232730
1113.215 .0232852
1113.810 .0232998
1114.406 .0233152
1115.002 .0233343
1115.599 .0233512
1116.196 .0233680
1116.793 .0233813
1117.391 .0233913
1117.989 .0233987
1118.588 .0234040
1119.187 .0234079
1119.787 .0234121
1120.387 .0234172
1120.988 .0234236
1121.589 .0234275
1122.190 .0234299
1122.793 .0234320
1123.395 .0234339
1123.998 .0234370
1124.602 .0234420
1125.206 .0234506
1125.811 .0234675
1126.416 .0234879
1127.022 .0235157
1127.628 .0235484
1128.235 .0235853
1128.843 .0236243
1129.451 .0236620
1130.059 .0236966
1130.669 .0237310
1131.278 .0237640
1131.889 .0237992
1132.500 .0238358
1133.112 .0238761
1133.724 .0239199
1134.337 .0239669
1134.950 .0240141
1135.564 .0240618
1136.179 .0241065
1136.795 .0241522
1137.411 .0241977
1138.028 .0242470
1138.645 .0243022
1139.263 .0243721
1139.882 .0244499
1140.502 .0245350
1141.122 .0246230
1141.743 .0247291
1142.365 .0248434
1142.987 .0248964
1143.611 .0249693
1144.235 .0249706
1144.859 .0255220
1145.485 .0256780
