Measurement Sequence started on: 10-20-44-796
Integration time: 35
Scans to Average: 2 
>>>>>Begin Spectral Data<<<<<
432.953 .0437194
433.882 .0415128
434.810 .0321892
435.737 .0331468
436.662 .0325223
437.586 .0335100
438.509 .0328035
439.431 .0323564
440.351 .0322266
441.269 .0320698
442.187 .0319528
443.103 .0318519
444.018 .0317901
444.932 .0317694
445.844 .0317481
446.756 .0317374
447.666 .0317223
448.575 .0317066
449.482 .0316794
450.388 .0316445
451.294 .0316202
452.198 .0315941
453.100 .0315690
454.002 .0315574
454.902 .0315494
455.801 .0315521
456.699 .0315593
457.596 .0315701
458.492 .0315801
459.387 .0315892
460.280 .0316001
461.172 .0316002
462.064 .0315949
462.954 .0315815
463.843 .0315593
464.730 .0315356
465.617 .0315102
466.503 .0314833
467.387 .0314588
468.271 .0314343
469.153 .0314077
470.035 .0313774
470.915 .0313461
471.794 .0313116
472.673 .0312775
473.550 .0312453
474.426 .0312145
475.301 .0311897
476.175 .0311728
477.048 .0311598
477.920 .0311509
478.791 .0311436
479.661 .0311346
480.530 .0311238
481.398 .0311038
482.266 .0310787
483.132 .0310494
483.997 .0310179
484.861 .0309844
485.724 .0309505
486.587 .0309209
487.448 .0308907
488.308 .0308590
489.168 .0308276
490.026 .0307898
490.884 .0307486
491.741 .0306979
492.597 .0306403
493.452 .0305794
494.306 .0305174
495.159 .0304583
496.011 .0304060
496.862 .0303611
497.713 .0303241
498.562 .0302905
499.411 .0302618
500.259 .0302334
501.106 .0302011
501.952 .0301623
502.798 .0301179
503.642 .0300693
504.486 .0300191
505.329 .0299665
506.171 .0299185
507.012 .0298728
507.852 .0298253
508.692 .0297741
509.531 .0297146
510.369 .0296498
511.206 .0295761
512.043 .0294871
512.878 .0293844
513.713 .0292682
514.547 .0291415
515.381 .0290028
516.213 .0288561
517.045 .0287033
517.876 .0285388
518.706 .0283600
519.536 .0281704
520.365 .0279720
521.193 .0277702
522.020 .0275719
522.847 .0273785
523.673 .0271956
524.498 .0270221
525.323 .0268577
526.146 .0267057
526.969 .0265668
527.792 .0264356
528.614 .0263041
529.435 .0261774
530.255 .0260561
531.075 .0259369
531.894 .0258269
532.712 .0257281
533.530 .0256403
534.347 .0255628
535.163 .0254940
535.979 .0254356
536.794 .0253825
537.608 .0253274
538.422 .0252724
539.235 .0252165
540.048 .0251592
540.860 .0251001
541.671 .0250465
542.481 .0250006
543.292 .0249671
544.101 .0249432
544.910 .0249297
545.718 .0249288
546.526 .0249401
547.333 .0249565
548.139 .0249822
548.945 .0250193
549.750 .0250651
550.555 .0251176
551.359 .0251797
552.162 .0252391
552.965 .0252972
553.768 .0253533
554.569 .0254054
555.371 .0254510
556.171 .0254983
556.972 .0255450
557.771 .0255944
558.570 .0256494
559.369 .0257094
560.167 .0257748
560.964 .0258498
561.761 .0259300
562.558 .0260134
563.354 .0261021
564.149 .0261959
564.944 .0262897
565.738 .0263887
566.532 .0264908
567.325 .0265931
568.118 .0266954
568.910 .0267959
569.702 .0268944
570.494 .0269931
571.285 .0270903
572.075 .0271869
572.865 .0272798
573.654 .0273679
574.443 .0274488
575.232 .0275209
576.020 .0275852
576.807 .0276415
577.594 .0276947
578.381 .0277471
579.167 .0278005
579.952 .0278596
580.738 .0279245
581.522 .0279949
582.307 .0280684
583.091 .0281410
583.874 .0282110
584.657 .0282766
585.440 .0283355
586.222 .0283888
587.004 .0284384
587.785 .0284860
588.566 .0285319
589.346 .0285764
590.126 .0286203
590.906 .0286609
591.685 .0286973
592.464 .0287270
593.242 .0287486
594.020 .0287635
594.797 .0287719
595.575 .0287747
596.351 .0287746
597.128 .0287722
597.904 .0287683
598.679 .0287640
599.454 .0287590
600.229 .0287522
601.004 .0287438
601.778 .0287343
602.551 .0287235
603.325 .0287109
604.097 .0286985
604.870 .0286862
605.642 .0286753
606.414 .0286661
607.185 .0286568
607.956 .0286491
608.727 .0286432
609.497 .0286374
610.267 .0286317
611.037 .0286258
611.806 .0286198
612.575 .0286125
613.344 .0286037
614.112 .0285930
614.880 .0285796
615.647 .0285642
616.414 .0285462
617.181 .0285263
617.948 .0285060
618.714 .0284856
619.480 .0284656
620.245 .0284470
621.011 .0284292
621.775 .0284116
622.540 .0283949
623.304 .0283784
624.068 .0283624
624.832 .0283467
625.595 .0283323
626.358 .0283195
627.120 .0283081
627.883 .0282981
628.645 .0282894
629.406 .0282820
630.168 .0282753
630.929 .0282681
631.689 .0282610
632.450 .0282533
633.210 .0282452
633.970 .0282358
634.729 .0282261
635.489 .0282150
636.248 .0282027
637.006 .0281888
637.765 .0281723
638.523 .0281531
639.280 .0281315
640.038 .0281074
640.795 .0280823
641.552 .0280558
642.309 .0280291
643.065 .0280028
643.821 .0279776
644.577 .0279524
645.332 .0279276
646.088 .0279031
646.843 .0278779
647.597 .0278517
648.352 .0278251
649.106 .0277990
649.860 .0277741
650.613 .0277520
651.367 .0277331
652.120 .0277183
652.872 .0277076
653.625 .0277001
654.377 .0276958
655.129 .0276930
655.881 .0276900
656.632 .0276860
657.384 .0276802
658.135 .0276737
658.885 .0276656
659.636 .0276573
660.386 .0276491
661.136 .0276420
661.885 .0276351
662.635 .0276286
663.384 .0276224
664.133 .0276154
664.881 .0276073
665.630 .0275987
666.378 .0275889
667.126 .0275785
667.874 .0275675
668.621 .0275564
669.368 .0275449
670.115 .0275341
670.862 .0275234
671.608 .0275135
672.354 .0275046
673.100 .0274968
673.846 .0274896
674.591 .0274835
675.337 .0274781
676.082 .0274732
676.826 .0274685
677.571 .0274639
678.315 .0274585
679.059 .0274532
679.803 .0274476
680.547 .0274426
681.290 .0274373
682.033 .0274320
682.776 .0274261
683.518 .0274189
684.261 .0274102
685.003 .0274004
685.745 .0273890
686.487 .0273761
687.228 .0273619
687.969 .0273468
688.710 .0273312
689.451 .0273155
690.192 .0272996
690.932 .0272836
691.672 .0272675
692.412 .0272508
693.152 .0272336
693.891 .0272170
694.630 .0272013
695.369 .0271865
696.108 .0271731
696.846 .0271604
697.585 .0271483
698.323 .0271366
699.061 .0271253
699.798 .0271136
700.536 .0271016
701.273 .0270889
702.010 .0270759
702.746 .0270626
703.483 .0270487
704.219 .0270344
704.955 .0270197
705.691 .0270050
706.427 .0269896
707.162 .0269738
707.897 .0269584
708.632 .0269433
709.367 .0269286
710.101 .0269140
710.835 .0268995
711.569 .0268844
712.303 .0268685
713.037 .0268521
713.770 .0268350
714.503 .0268173
715.236 .0267993
715.969 .0267812
716.702 .0267634
717.434 .0267462
718.166 .0267287
718.898 .0267111
719.629 .0266932
720.361 .0266745
721.092 .0266551
721.823 .0266351
722.554 .0266148
723.284 .0265942
724.014 .0265732
724.744 .0265517
725.474 .0265293
726.204 .0265062
726.933 .0264818
727.662 .0264564
728.391 .0264299
729.120 .0264026
729.849 .0263753
730.577 .0263487
731.305 .0263225
732.033 .0262975
732.760 .0262732
733.488 .0262499
734.215 .0262273
734.942 .0262056
735.669 .0261849
736.395 .0261654
737.122 .0261476
737.848 .0261312
738.573 .0261161
739.299 .0261025
740.024 .0260899
740.750 .0260786
741.474 .0260677
742.199 .0260563
742.924 .0260445
743.648 .0260321
744.372 .0260187
745.096 .0260044
745.819 .0259894
746.543 .0259740
747.266 .0259580
747.989 .0259422
748.711 .0259268
749.434 .0259123
750.156 .0258990
750.878 .0258870
751.599 .0258762
752.321 .0258673
753.042 .0258601
753.763 .0258546
754.484 .0258512
755.205 .0258496
755.925 .0258493
756.645 .0258499
757.365 .0258514
758.085 .0258530
758.804 .0258542
759.523 .0258549
760.242 .0258546
760.961 .0258530
761.679 .0258501
762.397 .0258452
763.115 .0258386
763.833 .0258306
764.551 .0258203
765.268 .0258081
765.985 .0257945
766.702 .0257789
767.418 .0257618
768.134 .0257434
768.850 .0257242
769.566 .0257045
770.282 .0256848
770.997 .0256654
771.712 .0256464
772.427 .0256289
773.142 .0256126
773.856 .0255975
774.570 .0255842
775.284 .0255721
775.998 .0255611
776.711 .0255512
777.424 .0255416
778.137 .0255324
778.849 .0255235
779.562 .0255149
780.274 .0255064
780.986 .0254982
781.697 .0254903
782.409 .0254828
783.120 .0254757
783.831 .0254691
784.541 .0254624
785.252 .0254557
785.962 .0254485
786.671 .0254405
787.381 .0254315
788.090 .0254214
788.799 .0254105
789.508 .0253988
790.217 .0253862
790.925 .0253732
791.633 .0253602
792.341 .0253475
793.048 .0253348
793.755 .0253223
794.462 .0253098
795.169 .0252969
795.875 .0252838
796.581 .0252703
797.287 .0252564
797.993 .0252424
798.698 .0252288
799.403 .0252155
800.108 .0252029
800.812 .0251914
801.517 .0251805
802.221 .0251703
802.924 .0251608
803.628 .0251509
804.331 .0251407
805.034 .0251303
805.736 .0251191
806.439 .0251065
807.141 .0250932
807.843 .0250790
808.544 .0250637
809.245 .0250481
809.946 .0250322
810.647 .0250161
811.347 .0250008
812.047 .0249857
812.747 .0249707
813.447 .0249559
814.146 .0249410
814.845 .0249252
815.543 .0249091
816.242 .0248928
816.940 .0248761
817.638 .0248597
818.335 .0248443
819.032 .0248297
819.729 .0248161
820.426 .0248035
821.122 .0247911
821.818 .0247784
822.514 .0247647
823.209 .0247499
823.905 .0247338
824.599 .0247166
825.294 .0246987
825.988 .0246801
826.682 .0246616
827.376 .0246433
828.069 .0246252
828.762 .0246072
829.455 .0245884
830.147 .0245692
830.840 .0245488
831.531 .0245276
832.223 .0245057
832.914 .0244833
833.605 .0244607
834.296 .0244382
834.986 .0244163
835.676 .0243948
836.366 .0243739
837.055 .0243538
837.744 .0243340
838.433 .0243143
839.121 .0242950
839.809 .0242756
840.497 .0242565
841.185 .0242382
841.872 .0242204
842.559 .0242038
843.245 .0241884
843.932 .0241745
844.617 .0241620
845.303 .0241508
845.988 .0241408
846.673 .0241312
847.358 .0241221
848.042 .0241129
848.726 .0241037
849.410 .0240945
850.093 .0240853
850.776 .0240762
851.459 .0240672
852.141 .0240580
852.823 .0240491
853.505 .0240401
854.186 .0240306
854.867 .0240206
855.548 .0240094
856.228 .0239974
856.908 .0239853
857.588 .0239729
858.267 .0239610
858.946 .0239495
859.625 .0239385
860.303 .0239279
860.981 .0239177
861.659 .0239076
862.336 .0238969
863.013 .0238858
863.690 .0238741
864.366 .0238621
865.042 .0238500
865.718 .0238386
866.393 .0238282
867.068 .0238194
867.743 .0238118
868.417 .0238050
869.091 .0237992
869.765 .0237933
870.438 .0237874
871.111 .0237810
871.783 .0237739
872.456 .0237666
873.127 .0237591
873.799 .0237517
874.470 .0237448
875.141 .0237388
875.811 .0237333
876.481 .0237281
877.151 .0237226
877.820 .0237163
878.489 .0237087
879.158 .0237001
879.826 .0236901
880.494 .0236794
881.162 .0236687
881.829 .0236583
882.496 .0236485
883.163 .0236401
883.829 .0236327
884.495 .0236267
885.160 .0236218
885.825 .0236178
886.490 .0236147
887.154 .0236127
887.818 .0236115
888.482 .0236114
889.145 .0236122
889.808 .0236141
890.471 .0236161
891.133 .0236186
891.795 .0236206
892.456 .0236219
893.117 .0236225
893.778 .0236225
894.439 .0236217
895.099 .0236202
895.758 .0236179
896.417 .0236150
897.076 .0236115
897.735 .0236073
898.393 .0236022
899.051 .0235971
899.708 .0235913
900.365 .0235856
901.022 .0235800
901.678 .0235746
902.334 .0235693
902.990 .0235642
903.645 .0235588
904.300 .0235532
904.954 .0235476
905.608 .0235418
906.262 .0235364
906.915 .0235321
907.568 .0235286
908.221 .0235264
908.873 .0235254
909.525 .0235253
910.176 .0235254
910.828 .0235260
911.478 .0235261
912.129 .0235258
912.778 .0235255
913.428 .0235249
914.077 .0235242
914.726 .0235240
915.375 .0235238
916.023 .0235238
916.670 .0235243
917.318 .0235247
917.964 .0235243
918.611 .0235232
919.257 .0235212
919.903 .0235177
920.548 .0235132
921.193 .0235081
921.838 .0235024
922.482 .0234969
923.126 .0234914
923.770 .0234861
924.413 .0234812
925.056 .0234765
925.698 .0234718
926.340 .0234671
926.982 .0234624
927.623 .0234572
928.264 .0234515
928.904 .0234455
929.544 .0234387
930.184 .0234312
930.823 .0234231
931.462 .0234140
932.101 .0234041
932.739 .0233934
933.377 .0233818
934.014 .0233694
934.651 .0233565
935.288 .0233434
935.924 .0233301
936.560 .0233171
937.196 .0233041
937.831 .0232905
938.466 .0232764
939.100 .0232615
939.734 .0232459
940.368 .0232298
941.001 .0232130
941.634 .0231961
942.266 .0231795
942.899 .0231631
943.530 .0231463
944.162 .0231293
944.793 .0231116
945.423 .0230924
946.053 .0230712
946.683 .0230486
947.313 .0230249
947.942 .0230009
948.571 .0229767
949.199 .0229528
949.827 .0229295
950.455 .0229069
951.082 .0228849
951.709 .0228635
952.335 .0228423
952.961 .0228211
953.587 .0228000
954.212 .0227791
954.837 .0227589
955.462 .0227398
956.086 .0227216
956.710 .0227051
957.334 .0226895
957.957 .0226740
958.579 .0226583
959.202 .0226425
959.824 .0226258
960.445 .0226086
961.067 .0225912
961.688 .0225737
962.308 .0225569
962.928 .0225414
963.548 .0225262
964.168 .0225118
964.787 .0224976
965.406 .0224832
966.024 .0224684
966.642 .0224538
967.260 .0224385
967.877 .0224235
968.494 .0224086
969.110 .0223937
969.727 .0223787
970.342 .0223645
970.958 .0223506
971.573 .0223372
972.188 .0223248
972.802 .0223128
973.416 .0223018
974.030 .0222919
974.643 .0222823
975.256 .0222731
975.869 .0222638
976.481 .0222540
977.093 .0222437
977.705 .0222337
978.316 .0222237
978.927 .0222147
979.538 .0222069
980.148 .0222005
980.758 .0221950
981.367 .0221901
981.977 .0221857
982.586 .0221808
983.194 .0221752
983.802 .0221682
984.410 .0221599
985.018 .0221509
985.625 .0221415
986.232 .0221322
986.838 .0221233
987.445 .0221149
988.050 .0221066
988.656 .0220983
989.261 .0220894
989.866 .0220797
990.471 .0220688
991.075 .0220572
991.679 .0220449
992.282 .0220316
992.886 .0220189
993.489 .0220067
994.091 .0219954
994.694 .0219850
995.296 .0219754
995.897 .0219662
996.499 .0219574
997.100 .0219487
997.701 .0219399
998.301 .0219316
998.901 .0219242
999.501 .0219177
1000.101 .0219126
1000.700 .0219088
1001.299 .0219057
1001.898 .0219030
1002.496 .0219003
1003.094 .0218963
1003.692 .0218914
1004.289 .0218854
1004.887 .0218788
1005.484 .0218722
1006.080 .0218663
1006.677 .0218616
1007.273 .0218583
1007.868 .0218566
1008.464 .0218557
1009.059 .0218552
1009.654 .0218546
1010.249 .0218539
1010.843 .0218531
1011.437 .0218526
1012.031 .0218524
1012.625 .0218533
1013.218 .0218553
1013.811 .0218579
1014.404 .0218608
1014.997 .0218632
1015.589 .0218647
1016.181 .0218651
1016.773 .0218636
1017.365 .0218618
1017.956 .0218594
1018.547 .0218572
1019.138 .0218555
1019.728 .0218554
1020.319 .0218560
1020.909 .0218570
1021.499 .0218579
1022.088 .0218585
1022.678 .0218578
1023.267 .0218567
1023.856 .0218545
1024.445 .0218527
1025.033 .0218516
1025.621 .0218515
1026.209 .0218524
1026.797 .0218548
1027.385 .0218575
1027.972 .0218606
1028.560 .0218627
1029.147 .0218640
1029.734 .0218633
1030.320 .0218615
1030.907 .0218585
1031.493 .0218550
1032.079 .0218514
1032.665 .0218486
1033.250 .0218465
1033.836 .0218454
1034.421 .0218450
1035.006 .0218451
1035.591 .0218454
1036.176 .0218454
1036.761 .0218443
1037.345 .0218424
1037.929 .0218389
1038.514 .0218349
1039.097 .0218301
1039.681 .0218261
1040.265 .0218229
1040.848 .0218217
1041.432 .0218231
1042.015 .0218270
1042.598 .0218334
1043.181 .0218421
1043.764 .0218528
1044.346 .0218652
1044.929 .0218783
1045.511 .0218924
1046.094 .0219072
1046.676 .0219238
1047.258 .0219406
1047.840 .0219585
1048.422 .0219768
1049.003 .0219949
1049.585 .0220117
1050.166 .0220260
1050.748 .0220375
1051.329 .0220455
1051.910 .0220505
1052.491 .0220527
1053.072 .0220526
1053.653 .0220513
1054.234 .0220489
1054.815 .0220454
1055.396 .0220409
1055.976 .0220353
1056.557 .0220274
1057.138 .0220180
1057.718 .0220077
1058.298 .0219962
1058.879 .0219847
1059.459 .0219743
1060.039 .0219663
1060.620 .0219598
1061.200 .0219558
1061.780 .0219521
1062.360 .0219480
1062.940 .0219437
1063.520 .0219381
1064.101 .0219310
1064.681 .0219245
1065.261 .0219188
1065.841 .0219134
1066.421 .0219106
1067.001 .0219102
1067.581 .0219109
1068.161 .0219144
1068.741 .0219192
1069.321 .0219243
1069.901 .0219290
1070.482 .0219341
1071.062 .0219385
1071.642 .0219425
1072.222 .0219465
1072.803 .0219487
1073.383 .0219497
1073.963 .0219496
1074.544 .0219471
1075.124 .0219432
1075.705 .0219401
1076.286 .0219370
1076.866 .0219343
1077.447 .0219334
1078.028 .0219338
1078.609 .0219354
1079.190 .0219378
1079.771 .0219411
1080.352 .0219441
1080.934 .0219470
1081.515 .0219508
1082.097 .0219551
1082.679 .0219613
1083.260 .0219693
1083.842 .0219784
1084.424 .0219886
1085.007 .0219994
1085.589 .0220077
1086.172 .0220125
1086.754 .0220144
1087.337 .0220125
1087.920 .0220080
1088.503 .0220021
1089.087 .0219974
1089.670 .0219953
1090.254 .0219966
1090.838 .0220005
1091.422 .0220073
1092.006 .0220185
1092.590 .0220317
1093.175 .0220458
1093.760 .0220609
1094.345 .0220755
1094.930 .0220887
1095.516 .0221029
1096.102 .0221178
1096.688 .0221331
1097.274 .0221506
1097.860 .0221668
1098.447 .0221834
1099.034 .0221981
1099.622 .0222093
1100.209 .0222169
1100.797 .0222211
1101.385 .0222203
1101.973 .0222138
1102.562 .0222045
1103.151 .0221941
1103.740 .0221833
1104.330 .0221735
1104.920 .0221623
1105.510 .0221508
1106.101 .0221370
1106.691 .0221193
1107.283 .0220981
1107.874 .0220757
1108.466 .0220495
1109.058 .0220251
1109.651 .0220049
1110.244 .0219878
1110.837 .0219754
1111.431 .0219684
1112.025 .0219641
1112.620 .0219606
1113.215 .0219573
1113.810 .0219529
1114.406 .0219502
1115.002 .0219545
1115.599 .0219623
1116.196 .0219766
1116.793 .0220000
1117.391 .0220287
1117.989 .0220560
1118.588 .0220836
1119.187 .0221055
1119.787 .0221190
1120.387 .0221258
1120.988 .0221268
1121.589 .0221239
1122.190 .0221210
1122.793 .0221205
1123.395 .0221215
1123.998 .0221252
1124.602 .0221308
1125.206 .0221325
1125.811 .0221339
1126.416 .0221356
1127.022 .0221370
1127.628 .0221389
1128.235 .0221460
1128.843 .0221587
1129.451 .0221774
1130.059 .0222022
1130.669 .0222354
1131.278 .0222749
1131.889 .0223169
1132.500 .0223590
1133.112 .0223987
1133.724 .0224364
1134.337 .0224729
1134.950 .0225034
1135.564 .0225317
1136.179 .0225570
1136.795 .0225799
1137.411 .0225986
1138.028 .0226172
1138.645 .0226375
1139.263 .0226579
1139.882 .0226717
1140.502 .0226860
1141.122 .0226977
1141.743 .0227060
1142.365 .0227158
1142.987 .0226112
1143.611 .0227756
1144.235 .0227652
1144.859 .0226623
1145.485 .0228216
