Measurement Sequence started on: 10-20-44-796
Integration time: 35
Scans to Average: 2 
>>>>>Begin Spectral Data<<<<<
432.953 .0306770
433.882 .0369589
434.810 .0352174
435.737 .0357396
436.662 .0352910
437.586 .0366106
438.509 .0372152
439.431 .0376466
440.351 .0381127
441.269 .0385215
442.187 .0388660
443.103 .0391240
444.018 .0393261
444.932 .0394786
445.844 .0396196
446.756 .0397589
447.666 .0398821
448.575 .0399959
449.482 .0400708
450.388 .0401183
451.294 .0401219
452.198 .0401041
453.100 .0400596
454.002 .0400089
454.902 .0399548
455.801 .0399153
456.699 .0398851
457.596 .0398723
458.492 .0398715
459.387 .0398749
460.280 .0398705
461.172 .0398617
462.064 .0398423
462.954 .0398135
463.843 .0397679
464.730 .0397201
465.617 .0396687
466.503 .0396197
467.387 .0395682
468.271 .0395186
469.153 .0394770
470.035 .0394400
470.915 .0394062
471.794 .0393746
472.673 .0393384
473.550 .0393000
474.426 .0392583
475.301 .0392157
476.175 .0391758
477.048 .0391372
477.920 .0391008
478.791 .0390705
479.661 .0390408
480.530 .0390126
481.398 .0389797
482.266 .0389465
483.132 .0389080
483.997 .0388596
484.861 .0388035
485.724 .0387458
486.587 .0386889
487.448 .0386306
488.308 .0385710
489.168 .0385142
490.026 .0384566
490.884 .0383963
491.741 .0383314
492.597 .0382641
493.452 .0381981
494.306 .0381349
495.159 .0380763
496.011 .0380296
496.862 .0379942
497.713 .0379656
498.562 .0379405
499.411 .0379127
500.259 .0378726
501.106 .0378156
501.952 .0377463
502.798 .0376616
503.642 .0375669
504.486 .0374614
505.329 .0373531
506.171 .0372482
507.012 .0371470
507.852 .0370433
508.692 .0369364
509.531 .0368182
510.369 .0366860
511.206 .0365347
512.043 .0363736
512.878 .0362039
513.713 .0360442
514.547 .0359000
515.381 .0357755
516.213 .0356694
517.045 .0355868
517.876 .0355139
518.706 .0354528
519.536 .0353913
520.365 .0353228
521.193 .0352464
522.020 .0351562
522.847 .0350519
523.673 .0349305
524.498 .0347905
525.323 .0346374
526.146 .0344598
526.969 .0342669
527.792 .0340480
528.614 .0338019
529.435 .0335518
530.255 .0333072
531.075 .0330692
531.894 .0328497
532.712 .0326528
533.530 .0324804
534.347 .0323345
535.163 .0322082
535.979 .0321048
536.794 .0320251
537.608 .0319790
538.422 .0319558
539.235 .0319543
540.048 .0319829
540.860 .0320145
541.671 .0320493
542.481 .0320775
543.292 .0320727
544.101 .0320437
544.910 .0319912
545.718 .0319193
546.526 .0318427
547.333 .0317716
548.139 .0317132
548.945 .0316724
549.750 .0316499
550.555 .0316373
551.359 .0316310
552.162 .0316390
552.965 .0316558
553.768 .0316816
554.569 .0317368
555.371 .0318015
556.171 .0318829
556.972 .0319840
557.771 .0320910
558.570 .0321978
559.369 .0323000
560.167 .0323870
560.964 .0324540
561.761 .0325045
562.558 .0325384
563.354 .0325562
564.149 .0325729
564.944 .0325870
565.738 .0326001
566.532 .0326140
567.325 .0326274
568.118 .0326349
568.910 .0326477
569.702 .0326645
570.494 .0326828
571.285 .0327060
572.075 .0327358
572.865 .0327734
573.654 .0328126
574.443 .0328531
575.232 .0328916
576.020 .0329267
576.807 .0329579
577.594 .0329838
578.381 .0330078
579.167 .0330321
579.952 .0330606
580.738 .0330907
581.522 .0331234
582.307 .0331577
583.091 .0331891
583.874 .0332178
584.657 .0332403
585.440 .0332595
586.222 .0332716
587.004 .0332829
587.785 .0332934
588.566 .0333025
589.346 .0333124
590.126 .0333217
590.906 .0333299
591.685 .0333369
592.464 .0333400
593.242 .0333387
594.020 .0333325
594.797 .0333234
595.575 .0333100
596.351 .0332948
597.128 .0332791
597.904 .0332619
598.679 .0332453
599.454 .0332290
600.229 .0332119
601.004 .0331954
601.778 .0331785
602.551 .0331594
603.325 .0331394
604.097 .0331186
604.870 .0330960
605.642 .0330731
606.414 .0330510
607.185 .0330292
607.956 .0330087
608.727 .0329906
609.497 .0329749
610.267 .0329607
611.037 .0329492
611.806 .0329364
612.575 .0329224
613.344 .0329067
614.112 .0328866
614.880 .0328641
615.647 .0328400
616.414 .0328141
617.181 .0327875
617.948 .0327615
618.714 .0327366
619.480 .0327120
620.245 .0326883
621.011 .0326629
621.775 .0326358
622.540 .0326061
623.304 .0325742
624.068 .0325406
624.832 .0325076
625.595 .0324751
626.358 .0324443
627.120 .0324159
627.883 .0323883
628.645 .0323625
629.406 .0323386
630.168 .0323145
630.929 .0322899
631.689 .0322631
632.450 .0322347
633.210 .0322051
633.970 .0321738
634.729 .0321415
635.489 .0321084
636.248 .0320745
637.006 .0320387
637.765 .0320016
638.523 .0319639
639.280 .0319248
640.038 .0318849
640.795 .0318438
641.552 .0318011
642.309 .0317583
643.065 .0317156
643.821 .0316747
644.577 .0316362
645.332 .0315995
646.088 .0315639
646.843 .0315307
647.597 .0314978
648.352 .0314647
649.106 .0314321
649.860 .0314001
650.613 .0313673
651.367 .0313350
652.120 .0313037
652.872 .0312738
653.625 .0312468
654.377 .0312222
655.129 .0311990
655.881 .0311785
656.632 .0311591
657.384 .0311400
658.135 .0311211
658.885 .0311020
659.636 .0310817
660.386 .0310609
661.136 .0310399
661.885 .0310179
662.635 .0309958
663.384 .0309751
664.133 .0309548
664.881 .0309357
665.630 .0309185
666.378 .0309022
667.126 .0308874
667.874 .0308725
668.621 .0308569
669.368 .0308397
670.115 .0308216
670.862 .0308017
671.608 .0307810
672.354 .0307605
673.100 .0307410
673.846 .0307231
674.591 .0307078
675.337 .0306953
676.082 .0306843
676.826 .0306743
677.571 .0306650
678.315 .0306540
679.059 .0306420
679.803 .0306286
680.547 .0306145
681.290 .0305993
682.033 .0305836
682.776 .0305684
683.518 .0305530
684.261 .0305387
685.003 .0305251
685.745 .0305114
686.487 .0304992
687.228 .0304870
687.969 .0304749
688.710 .0304634
689.451 .0304526
690.192 .0304415
690.932 .0304299
691.672 .0304175
692.412 .0304036
693.152 .0303880
693.891 .0303711
694.630 .0303525
695.369 .0303330
696.108 .0303130
696.846 .0302921
697.585 .0302710
698.323 .0302504
699.061 .0302296
699.798 .0302084
700.536 .0301860
701.273 .0301620
702.010 .0301362
702.746 .0301091
703.483 .0300811
704.219 .0300534
704.955 .0300262
705.691 .0300003
706.427 .0299761
707.162 .0299546
707.897 .0299348
708.632 .0299169
709.367 .0299003
710.101 .0298837
710.835 .0298667
711.569 .0298494
712.303 .0298314
713.037 .0298143
713.770 .0297973
714.503 .0297806
715.236 .0297634
715.969 .0297469
716.702 .0297300
717.434 .0297128
718.166 .0296944
718.898 .0296744
719.629 .0296522
720.361 .0296279
721.092 .0296009
721.823 .0295716
722.554 .0295400
723.284 .0295071
724.014 .0294719
724.744 .0294357
725.474 .0293981
726.204 .0293608
726.933 .0293236
727.662 .0292870
728.391 .0292510
729.120 .0292155
729.849 .0291805
730.577 .0291472
731.305 .0291149
732.033 .0290847
732.760 .0290564
733.488 .0290310
734.215 .0290084
734.942 .0289891
735.669 .0289717
736.395 .0289566
737.122 .0289422
737.848 .0289277
738.573 .0289117
739.299 .0288945
740.024 .0288763
740.750 .0288570
741.474 .0288370
742.199 .0288167
742.924 .0287957
743.648 .0287751
744.372 .0287531
745.096 .0287310
745.819 .0287083
746.543 .0286845
747.266 .0286600
747.989 .0286354
748.711 .0286110
749.434 .0285883
750.156 .0285673
750.878 .0285485
751.599 .0285318
752.321 .0285174
753.042 .0285049
753.763 .0284938
754.484 .0284843
755.205 .0284760
755.925 .0284683
756.645 .0284619
757.365 .0284554
758.085 .0284485
758.804 .0284414
759.523 .0284333
760.242 .0284238
760.961 .0284123
761.679 .0283989
762.397 .0283837
763.115 .0283670
763.833 .0283490
764.551 .0283298
765.268 .0283096
765.985 .0282893
766.702 .0282678
767.418 .0282459
768.134 .0282241
768.850 .0282027
769.566 .0281816
770.282 .0281611
770.997 .0281410
771.712 .0281219
772.427 .0281035
773.142 .0280861
773.856 .0280695
774.570 .0280541
775.284 .0280393
775.998 .0280252
776.711 .0280118
777.424 .0279995
778.137 .0279876
778.849 .0279768
779.562 .0279666
780.274 .0279572
780.986 .0279485
781.697 .0279412
782.409 .0279350
783.120 .0279299
783.831 .0279260
784.541 .0279233
785.252 .0279208
785.962 .0279183
786.671 .0279157
787.381 .0279137
788.090 .0279124
788.799 .0279119
789.508 .0279126
790.217 .0279154
790.925 .0279191
791.633 .0279240
792.341 .0279293
793.048 .0279344
793.755 .0279389
794.462 .0279427
795.169 .0279457
795.875 .0279479
796.581 .0279502
797.287 .0279526
797.993 .0279548
798.698 .0279571
799.403 .0279585
800.108 .0279585
800.812 .0279575
801.517 .0279547
802.221 .0279498
802.924 .0279437
803.628 .0279366
804.331 .0279282
805.034 .0279188
805.736 .0279089
806.439 .0278988
807.141 .0278889
807.843 .0278798
808.544 .0278710
809.245 .0278638
809.946 .0278588
810.647 .0278554
811.347 .0278533
812.047 .0278528
812.747 .0278525
813.447 .0278519
814.146 .0278502
814.845 .0278482
815.543 .0278460
816.242 .0278444
816.940 .0278432
817.638 .0278425
818.335 .0278423
819.032 .0278421
819.729 .0278404
820.426 .0278369
821.122 .0278304
821.818 .0278204
822.514 .0278073
823.209 .0277928
823.905 .0277763
824.599 .0277597
825.294 .0277435
825.988 .0277279
826.682 .0277121
827.376 .0276961
828.069 .0276800
828.762 .0276633
829.455 .0276460
830.147 .0276270
830.840 .0276070
831.531 .0275874
832.223 .0275680
832.914 .0275492
833.605 .0275315
834.296 .0275154
834.986 .0275001
835.676 .0274864
836.366 .0274736
837.055 .0274616
837.744 .0274502
838.433 .0274389
839.121 .0274270
839.809 .0274139
840.497 .0273997
841.185 .0273849
841.872 .0273698
842.559 .0273550
843.245 .0273404
843.932 .0273267
844.617 .0273138
845.303 .0273020
845.988 .0272907
846.673 .0272795
847.358 .0272678
848.042 .0272558
848.726 .0272425
849.410 .0272282
850.093 .0272131
850.776 .0271977
851.459 .0271824
852.141 .0271675
852.823 .0271525
853.505 .0271383
854.186 .0271244
854.867 .0271111
855.548 .0270976
856.228 .0270839
856.908 .0270697
857.588 .0270548
858.267 .0270392
858.946 .0270227
859.625 .0270055
860.303 .0269878
860.981 .0269693
861.659 .0269506
862.336 .0269311
863.013 .0269111
863.690 .0268907
864.366 .0268701
865.042 .0268488
865.718 .0268267
866.393 .0268040
867.068 .0267804
867.743 .0267568
868.417 .0267329
869.091 .0267090
869.765 .0266854
870.438 .0266621
871.111 .0266390
871.783 .0266162
872.456 .0265942
873.127 .0265729
873.799 .0265527
874.470 .0265334
875.141 .0265149
875.811 .0264973
876.481 .0264805
877.151 .0264646
877.820 .0264486
878.489 .0264326
879.158 .0264162
879.826 .0263994
880.494 .0263820
881.162 .0263641
881.829 .0263462
882.496 .0263278
883.163 .0263097
883.829 .0262920
884.495 .0262750
885.160 .0262595
885.825 .0262454
886.490 .0262331
887.154 .0262220
887.818 .0262119
888.482 .0262020
889.145 .0261921
889.808 .0261823
890.471 .0261719
891.133 .0261614
891.795 .0261511
892.456 .0261418
893.117 .0261341
893.778 .0261282
894.439 .0261236
895.099 .0261196
895.758 .0261159
896.417 .0261113
897.076 .0261056
897.735 .0260980
898.393 .0260890
899.051 .0260793
899.708 .0260692
900.365 .0260593
901.022 .0260499
901.678 .0260417
902.334 .0260341
902.990 .0260264
903.645 .0260178
904.300 .0260081
904.954 .0259974
905.608 .0259859
906.262 .0259738
906.915 .0259618
907.568 .0259502
908.221 .0259397
908.873 .0259304
909.525 .0259215
910.176 .0259127
910.828 .0259044
911.478 .0258957
912.129 .0258861
912.778 .0258759
913.428 .0258653
914.077 .0258549
914.726 .0258446
915.375 .0258346
916.023 .0258248
916.670 .0258158
917.318 .0258071
917.964 .0257981
918.611 .0257888
919.257 .0257792
919.903 .0257685
920.548 .0257582
921.193 .0257483
921.838 .0257391
922.482 .0257307
923.126 .0257244
923.770 .0257195
924.413 .0257154
925.056 .0257118
925.698 .0257088
926.340 .0257057
926.982 .0257021
927.623 .0256980
928.264 .0256940
928.904 .0256904
929.544 .0256871
930.184 .0256834
930.823 .0256802
931.462 .0256767
932.101 .0256728
932.739 .0256681
933.377 .0256636
934.014 .0256585
934.651 .0256534
935.288 .0256480
935.924 .0256431
936.560 .0256382
937.196 .0256336
937.831 .0256292
938.466 .0256248
939.100 .0256200
939.734 .0256154
940.368 .0256105
941.001 .0256065
941.634 .0256026
942.266 .0255996
942.899 .0255971
943.530 .0255951
944.162 .0255927
944.793 .0255900
945.423 .0255859
946.053 .0255809
946.683 .0255738
947.313 .0255652
947.942 .0255547
948.571 .0255435
949.199 .0255314
949.827 .0255184
950.455 .0255044
951.082 .0254903
951.709 .0254749
952.335 .0254587
952.961 .0254415
953.587 .0254237
954.212 .0254057
954.837 .0253887
955.462 .0253728
956.086 .0253595
956.710 .0253493
957.334 .0253425
957.957 .0253382
958.579 .0253368
959.202 .0253366
959.824 .0253376
960.445 .0253399
961.067 .0253428
961.688 .0253455
962.308 .0253490
962.928 .0253526
963.548 .0253563
964.168 .0253598
964.787 .0253629
965.406 .0253650
966.024 .0253662
966.642 .0253657
967.260 .0253635
967.877 .0253600
968.494 .0253559
969.110 .0253502
969.727 .0253436
970.342 .0253366
970.958 .0253296
971.573 .0253229
972.188 .0253170
972.802 .0253124
973.416 .0253090
974.030 .0253064
974.643 .0253038
975.256 .0253005
975.869 .0252964
976.481 .0252915
977.093 .0252854
977.705 .0252788
978.316 .0252725
978.927 .0252672
979.538 .0252631
980.148 .0252599
980.758 .0252576
981.367 .0252559
981.977 .0252541
982.586 .0252528
983.194 .0252517
983.802 .0252517
984.410 .0252527
985.018 .0252551
985.625 .0252586
986.232 .0252624
986.838 .0252661
987.445 .0252692
988.050 .0252719
988.656 .0252740
989.261 .0252743
989.866 .0252740
990.471 .0252734
991.075 .0252719
991.679 .0252688
992.282 .0252645
992.886 .0252587
993.489 .0252519
994.091 .0252442
994.694 .0252363
995.296 .0252294
995.897 .0252237
996.499 .0252193
997.100 .0252159
997.701 .0252139
998.301 .0252124
998.901 .0252109
999.501 .0252099
1000.101 .0252088
1000.700 .0252077
1001.299 .0252075
1001.898 .0252079
1002.496 .0252094
1003.094 .0252112
1003.692 .0252119
1004.289 .0252110
1004.887 .0252087
1005.484 .0252046
1006.080 .0251996
1006.677 .0251939
1007.273 .0251883
1007.868 .0251834
1008.464 .0251794
1009.059 .0251756
1009.654 .0251726
1010.249 .0251702
1010.843 .0251673
1011.437 .0251638
1012.031 .0251601
1012.625 .0251555
1013.218 .0251503
1013.811 .0251452
1014.404 .0251400
1014.997 .0251348
1015.589 .0251297
1016.181 .0251247
1016.773 .0251204
1017.365 .0251169
1017.956 .0251129
1018.547 .0251091
1019.138 .0251055
1019.728 .0251020
1020.319 .0250984
1020.909 .0250960
1021.499 .0250946
1022.088 .0250943
1022.678 .0250939
1023.267 .0250946
1023.856 .0250952
1024.445 .0250958
1025.033 .0250955
1025.621 .0250953
1026.209 .0250949
1026.797 .0250945
1027.385 .0250948
1027.972 .0250968
1028.560 .0250994
1029.147 .0251030
1029.734 .0251060
1030.320 .0251078
1030.907 .0251076
1031.493 .0251052
1032.079 .0251000
1032.665 .0250937
1033.250 .0250853
1033.836 .0250755
1034.421 .0250656
1035.006 .0250566
1035.591 .0250469
1036.176 .0250363
1036.761 .0250248
1037.345 .0250102
1037.929 .0249927
1038.514 .0249724
1039.097 .0249499
1039.681 .0249269
1040.265 .0249041
1040.848 .0248820
1041.432 .0248616
1042.015 .0248431
1042.598 .0248257
1043.181 .0248099
1043.764 .0247960
1044.346 .0247827
1044.929 .0247694
1045.511 .0247579
1046.094 .0247484
1046.676 .0247407
1047.258 .0247353
1047.840 .0247320
1048.422 .0247310
1049.003 .0247304
1049.585 .0247292
1050.166 .0247266
1050.748 .0247220
1051.329 .0247160
1051.910 .0247070
1052.491 .0246961
1053.072 .0246833
1053.653 .0246689
1054.234 .0246532
1054.815 .0246367
1055.396 .0246190
1055.976 .0245991
1056.557 .0245764
1057.138 .0245521
1057.718 .0245245
1058.298 .0244944
1058.879 .0244634
1059.459 .0244329
1060.039 .0244038
1060.620 .0243768
1061.200 .0243519
1061.780 .0243313
1062.360 .0243144
1062.940 .0243011
1063.520 .0242898
1064.101 .0242805
1064.681 .0242723
1065.261 .0242638
1065.841 .0242530
1066.421 .0242412
1067.001 .0242276
1067.581 .0242137
1068.161 .0241987
1068.741 .0241842
1069.321 .0241709
1069.901 .0241596
1070.482 .0241499
1071.062 .0241398
1071.642 .0241283
1072.222 .0241167
1072.803 .0241016
1073.383 .0240835
1073.963 .0240635
1074.544 .0240411
1075.124 .0240182
1075.705 .0239981
1076.286 .0239812
1076.866 .0239677
1077.447 .0239586
1078.028 .0239528
1078.609 .0239494
1079.190 .0239477
1079.771 .0239483
1080.352 .0239485
1080.934 .0239496
1081.515 .0239526
1082.097 .0239555
1082.679 .0239601
1083.260 .0239670
1083.842 .0239748
1084.424 .0239830
1085.007 .0239882
1085.589 .0239909
1086.172 .0239887
1086.754 .0239828
1087.337 .0239730
1087.920 .0239581
1088.503 .0239416
1089.087 .0239242
1089.670 .0239063
1090.254 .0238906
1090.838 .0238781
1091.422 .0238682
1092.006 .0238589
1092.590 .0238513
1093.175 .0238442
1093.760 .0238370
1094.345 .0238313
1094.930 .0238282
1095.516 .0238288
1096.102 .0238346
1096.688 .0238434
1097.274 .0238538
1097.860 .0238650
1098.447 .0238724
1099.034 .0238722
1099.622 .0238641
1100.209 .0238496
1100.797 .0238299
1101.385 .0238060
1101.973 .0237858
1102.562 .0237696
1103.151 .0237592
1103.740 .0237546
1104.330 .0237545
1104.920 .0237576
1105.510 .0237613
1106.101 .0237635
1106.691 .0237635
1107.283 .0237643
1107.874 .0237691
1108.466 .0237781
1109.058 .0237960
1109.651 .0238226
1110.244 .0238553
1110.837 .0238906
1111.431 .0239260
1112.025 .0239554
1112.620 .0239762
1113.215 .0239890
1113.810 .0239920
1114.406 .0239910
1115.002 .0239834
1115.599 .0239727
1116.196 .0239590
1116.793 .0239454
1117.391 .0239297
1117.989 .0239134
1118.588 .0238959
1119.187 .0238800
1119.787 .0238630
1120.387 .0238488
1120.988 .0238351
1121.589 .0238266
1122.190 .0238204
1122.793 .0238195
1123.395 .0238207
1123.998 .0238318
1124.602 .0238466
1125.206 .0238732
1125.811 .0239070
1126.416 .0239493
1127.022 .0239984
1127.628 .0240508
1128.235 .0241018
1128.843 .0241528
1129.451 .0241974
1130.059 .0242403
1130.669 .0242759
1131.278 .0243161
1131.889 .0243573
1132.500 .0244076
1133.112 .0244665
1133.724 .0245345
1134.337 .0246080
1134.950 .0246827
1135.564 .0247496
1136.179 .0248122
1136.795 .0248718
1137.411 .0249289
1138.028 .0249860
1138.645 .0250526
1139.263 .0251306
1139.882 .0252201
1140.502 .0253119
1141.122 .0254042
1141.743 .0255045
1142.365 .0256223
1142.987 .0257600
1143.611 .0256793
1144.235 .0256756
1144.859 .0261011
1145.485 .0266833
