Measurement Sequence started on: 10-20-44-796
Integration time: 35
Scans to Average: 2 
>>>>>Begin Spectral Data<<<<<
432.953 .0314809
433.882 .0431720
434.810 .0392783
435.737 .0369940
436.662 .0359366
437.586 .0370650
438.509 .0370931
439.431 .0368753
440.351 .0368456
441.269 .0368827
442.187 .0369137
443.103 .0369158
444.018 .0368859
444.932 .0368451
445.844 .0368136
446.756 .0367891
447.666 .0367701
448.575 .0367518
449.482 .0367166
450.388 .0366728
451.294 .0366111
452.198 .0365414
453.100 .0364618
454.002 .0363894
454.902 .0363189
455.801 .0362553
456.699 .0362072
457.596 .0361631
458.492 .0361253
459.387 .0360924
460.280 .0360589
461.172 .0360276
462.064 .0360000
462.954 .0359745
463.843 .0359484
464.730 .0359303
465.617 .0359166
466.503 .0359018
467.387 .0358858
468.271 .0358660
469.153 .0358376
470.035 .0358010
470.915 .0357564
471.794 .0357056
472.673 .0356563
473.550 .0356111
474.426 .0355709
475.301 .0355397
476.175 .0355185
477.048 .0355024
477.920 .0354882
478.791 .0354782
479.661 .0354646
480.530 .0354487
481.398 .0354315
482.266 .0354144
483.132 .0353981
483.997 .0353846
484.861 .0353751
485.724 .0353740
486.587 .0353754
487.448 .0353776
488.308 .0353770
489.168 .0353742
490.026 .0353634
490.884 .0353425
491.741 .0353119
492.597 .0352754
493.452 .0352282
494.306 .0351738
495.159 .0351099
496.011 .0350437
496.862 .0349739
497.713 .0348991
498.562 .0348194
499.411 .0347369
500.259 .0346497
501.106 .0345583
501.952 .0344628
502.798 .0343672
503.642 .0342717
504.486 .0341785
505.329 .0340871
506.171 .0340001
507.012 .0339162
507.852 .0338381
508.692 .0337614
509.531 .0336841
510.369 .0336029
511.206 .0335186
512.043 .0334315
512.878 .0333407
513.713 .0332455
514.547 .0331442
515.381 .0330402
516.213 .0329333
517.045 .0328172
517.876 .0326917
518.706 .0325535
519.536 .0324059
520.365 .0322423
521.193 .0320638
522.020 .0318708
522.847 .0316730
523.673 .0314705
524.498 .0312637
525.323 .0310513
526.146 .0308455
526.969 .0306498
527.792 .0304675
528.614 .0302961
529.435 .0301422
530.255 .0300029
531.075 .0298714
531.894 .0297435
532.712 .0296235
533.530 .0294959
534.347 .0293744
535.163 .0292498
535.979 .0291351
536.794 .0290323
537.608 .0289553
538.422 .0289076
539.235 .0288929
540.048 .0289006
540.860 .0289209
541.671 .0289404
542.481 .0289617
543.292 .0289685
544.101 .0289666
544.910 .0289627
545.718 .0289615
546.526 .0289625
547.333 .0289807
548.139 .0290127
548.945 .0290642
549.750 .0291236
550.555 .0291894
551.359 .0292544
552.162 .0293123
552.965 .0293637
553.768 .0294037
554.569 .0294388
555.371 .0294690
556.171 .0294891
556.972 .0295069
557.771 .0295237
558.570 .0295400
559.369 .0295601
560.167 .0295877
560.964 .0296237
561.761 .0296646
562.558 .0297134
563.354 .0297675
564.149 .0298179
564.944 .0298674
565.738 .0299157
566.532 .0299576
567.325 .0300008
568.118 .0300424
568.910 .0300854
569.702 .0301338
570.494 .0301893
571.285 .0302511
572.075 .0303180
572.865 .0303883
573.654 .0304544
574.443 .0305150
575.232 .0305726
576.020 .0306237
576.807 .0306721
577.594 .0307200
578.381 .0307678
579.167 .0308175
579.952 .0308698
580.738 .0309271
581.522 .0309890
582.307 .0310544
583.091 .0311223
583.874 .0311895
584.657 .0312529
585.440 .0313144
586.222 .0313714
587.004 .0314249
587.785 .0314732
588.566 .0315158
589.346 .0315522
590.126 .0315811
590.906 .0316037
591.685 .0316196
592.464 .0316297
593.242 .0316365
594.020 .0316370
594.797 .0316355
595.575 .0316314
596.351 .0316255
597.128 .0316177
597.904 .0316082
598.679 .0315965
599.454 .0315828
600.229 .0315676
601.004 .0315523
601.778 .0315366
602.551 .0315213
603.325 .0315068
604.097 .0314934
604.870 .0314796
605.642 .0314660
606.414 .0314508
607.185 .0314352
607.956 .0314176
608.727 .0313984
609.497 .0313775
610.267 .0313559
611.037 .0313339
611.806 .0313109
612.575 .0312873
613.344 .0312638
614.112 .0312394
614.880 .0312145
615.647 .0311887
616.414 .0311618
617.181 .0311341
617.948 .0311062
618.714 .0310777
619.480 .0310498
620.245 .0310223
621.011 .0309959
621.775 .0309703
622.540 .0309456
623.304 .0309217
624.068 .0308990
624.832 .0308773
625.595 .0308558
626.358 .0308339
627.120 .0308120
627.883 .0307895
628.645 .0307672
629.406 .0307454
630.168 .0307242
630.929 .0307038
631.689 .0306839
632.450 .0306638
633.210 .0306438
633.970 .0306233
634.729 .0306009
635.489 .0305769
636.248 .0305507
637.006 .0305223
637.765 .0304918
638.523 .0304607
639.280 .0304291
640.038 .0303972
640.795 .0303658
641.552 .0303342
642.309 .0303026
643.065 .0302718
643.821 .0302413
644.577 .0302112
645.332 .0301818
646.088 .0301529
646.843 .0301244
647.597 .0300974
648.352 .0300717
649.106 .0300474
649.860 .0300246
650.613 .0300038
651.367 .0299847
652.120 .0299668
652.872 .0299505
653.625 .0299352
654.377 .0299212
655.129 .0299087
655.881 .0298968
656.632 .0298856
657.384 .0298757
658.135 .0298674
658.885 .0298599
659.636 .0298539
660.386 .0298492
661.136 .0298452
661.885 .0298413
662.635 .0298373
663.384 .0298326
664.133 .0298273
664.881 .0298217
665.630 .0298151
666.378 .0298084
667.126 .0298015
667.874 .0297937
668.621 .0297859
669.368 .0297777
670.115 .0297683
670.862 .0297577
671.608 .0297462
672.354 .0297335
673.100 .0297195
673.846 .0297052
674.591 .0296901
675.337 .0296744
676.082 .0296582
676.826 .0296414
677.571 .0296241
678.315 .0296071
679.059 .0295899
679.803 .0295731
680.547 .0295573
681.290 .0295416
682.033 .0295255
682.776 .0295098
683.518 .0294938
684.261 .0294772
685.003 .0294603
685.745 .0294433
686.487 .0294264
687.228 .0294098
687.969 .0293935
688.710 .0293779
689.451 .0293626
690.192 .0293473
690.932 .0293311
691.672 .0293148
692.412 .0292974
693.152 .0292790
693.891 .0292600
694.630 .0292407
695.369 .0292214
696.108 .0292024
696.846 .0291832
697.585 .0291648
698.323 .0291466
699.061 .0291285
699.798 .0291102
700.536 .0290918
701.273 .0290728
702.010 .0290532
702.746 .0290328
703.483 .0290119
704.219 .0289903
704.955 .0289686
705.691 .0289466
706.427 .0289248
707.162 .0289035
707.897 .0288824
708.632 .0288612
709.367 .0288402
710.101 .0288186
710.835 .0287962
711.569 .0287730
712.303 .0287496
713.037 .0287262
713.770 .0287031
714.503 .0286805
715.236 .0286588
715.969 .0286381
716.702 .0286180
717.434 .0285978
718.166 .0285772
718.898 .0285562
719.629 .0285347
720.361 .0285126
721.092 .0284904
721.823 .0284681
722.554 .0284458
723.284 .0284236
724.014 .0284013
724.744 .0283785
725.474 .0283549
726.204 .0283309
726.933 .0283066
727.662 .0282822
728.391 .0282582
729.120 .0282344
729.849 .0282112
730.577 .0281887
731.305 .0281659
732.033 .0281427
732.760 .0281195
733.488 .0280959
734.215 .0280724
734.942 .0280495
735.669 .0280273
736.395 .0280062
737.122 .0279866
737.848 .0279678
738.573 .0279491
739.299 .0279302
740.024 .0279106
740.750 .0278901
741.474 .0278692
742.199 .0278481
742.924 .0278271
743.648 .0278073
744.372 .0277881
745.096 .0277702
745.819 .0277535
746.543 .0277372
747.266 .0277209
747.989 .0277049
748.711 .0276887
749.434 .0276726
750.156 .0276576
750.878 .0276445
751.599 .0276342
752.321 .0276268
753.042 .0276223
753.763 .0276204
754.484 .0276207
755.205 .0276225
755.925 .0276243
756.645 .0276259
757.365 .0276266
758.085 .0276258
758.804 .0276237
759.523 .0276200
760.242 .0276146
760.961 .0276075
761.679 .0275987
762.397 .0275882
763.115 .0275756
763.833 .0275613
764.551 .0275453
765.268 .0275277
765.985 .0275088
766.702 .0274888
767.418 .0274683
768.134 .0274480
768.850 .0274278
769.566 .0274085
770.282 .0273898
770.997 .0273727
771.712 .0273565
772.427 .0273419
773.142 .0273286
773.856 .0273171
774.570 .0273061
775.284 .0272962
775.998 .0272864
776.711 .0272768
777.424 .0272667
778.137 .0272567
778.849 .0272462
779.562 .0272356
780.274 .0272249
780.986 .0272151
781.697 .0272055
782.409 .0271970
783.120 .0271889
783.831 .0271821
784.541 .0271757
785.252 .0271706
785.962 .0271654
786.671 .0271610
787.381 .0271567
788.090 .0271524
788.799 .0271479
789.508 .0271434
790.217 .0271383
790.925 .0271332
791.633 .0271275
792.341 .0271219
793.048 .0271158
793.755 .0271100
794.462 .0271036
795.169 .0270974
795.875 .0270909
796.581 .0270840
797.287 .0270768
797.993 .0270697
798.698 .0270619
799.403 .0270540
800.108 .0270461
800.812 .0270382
801.517 .0270307
802.221 .0270236
802.924 .0270161
803.628 .0270092
804.331 .0270023
805.034 .0269954
805.736 .0269880
806.439 .0269802
807.141 .0269720
807.843 .0269635
808.544 .0269546
809.245 .0269451
809.946 .0269352
810.647 .0269252
811.347 .0269149
812.047 .0269045
812.747 .0268939
813.447 .0268830
814.146 .0268720
814.845 .0268607
815.543 .0268486
816.242 .0268362
816.940 .0268233
817.638 .0268100
818.335 .0267965
819.032 .0267827
819.729 .0267691
820.426 .0267554
821.122 .0267416
821.818 .0267269
822.514 .0267119
823.209 .0266960
823.905 .0266791
824.599 .0266613
825.294 .0266424
825.988 .0266225
826.682 .0266022
827.376 .0265812
828.069 .0265599
828.762 .0265382
829.455 .0265163
830.147 .0264937
830.840 .0264711
831.531 .0264484
832.223 .0264262
832.914 .0264045
833.605 .0263837
834.296 .0263634
834.986 .0263437
835.676 .0263240
836.366 .0263045
837.055 .0262849
837.744 .0262653
838.433 .0262454
839.121 .0262260
839.809 .0262067
840.497 .0261881
841.185 .0261699
841.872 .0261525
842.559 .0261355
843.245 .0261186
843.932 .0261018
844.617 .0260849
845.303 .0260681
845.988 .0260519
846.673 .0260362
847.358 .0260219
848.042 .0260090
848.726 .0259972
849.410 .0259868
850.093 .0259772
850.776 .0259685
851.459 .0259598
852.141 .0259507
852.823 .0259410
853.505 .0259303
854.186 .0259188
854.867 .0259065
855.548 .0258933
856.228 .0258799
856.908 .0258662
857.588 .0258521
858.267 .0258378
858.946 .0258228
859.625 .0258073
860.303 .0257914
860.981 .0257750
861.659 .0257577
862.336 .0257399
863.013 .0257219
863.690 .0257040
864.366 .0256858
865.042 .0256677
865.718 .0256493
866.393 .0256310
867.068 .0256126
867.743 .0255944
868.417 .0255761
869.091 .0255583
869.765 .0255407
870.438 .0255231
871.111 .0255056
871.783 .0254881
872.456 .0254700
873.127 .0254515
873.799 .0254326
874.470 .0254131
875.141 .0253931
875.811 .0253738
876.481 .0253550
877.151 .0253373
877.820 .0253208
878.489 .0253054
879.158 .0252908
879.826 .0252774
880.494 .0252644
881.162 .0252517
881.829 .0252393
882.496 .0252266
883.163 .0252133
883.829 .0252002
884.495 .0251870
885.160 .0251743
885.825 .0251625
886.490 .0251519
887.154 .0251421
887.818 .0251334
888.482 .0251254
889.145 .0251183
889.808 .0251118
890.471 .0251051
891.133 .0250980
891.795 .0250908
892.456 .0250834
893.117 .0250762
893.778 .0250691
894.439 .0250624
895.099 .0250556
895.758 .0250497
896.417 .0250437
897.076 .0250381
897.735 .0250329
898.393 .0250281
899.051 .0250237
899.708 .0250197
900.365 .0250154
901.022 .0250112
901.678 .0250066
902.334 .0250017
902.990 .0249961
903.645 .0249906
904.300 .0249850
904.954 .0249802
905.608 .0249760
906.262 .0249725
906.915 .0249698
907.568 .0249678
908.221 .0249656
908.873 .0249634
909.525 .0249605
910.176 .0249574
910.828 .0249537
911.478 .0249498
912.129 .0249458
912.778 .0249420
913.428 .0249386
914.077 .0249354
914.726 .0249322
915.375 .0249292
916.023 .0249261
916.670 .0249234
917.318 .0249207
917.964 .0249186
918.611 .0249170
919.257 .0249159
919.903 .0249151
920.548 .0249144
921.193 .0249135
921.838 .0249126
922.482 .0249117
923.126 .0249107
923.770 .0249103
924.413 .0249104
925.056 .0249113
925.698 .0249128
926.340 .0249147
926.982 .0249170
927.623 .0249185
928.264 .0249196
928.904 .0249193
929.544 .0249177
930.184 .0249151
930.823 .0249115
931.462 .0249074
932.101 .0249020
932.739 .0248958
933.377 .0248884
934.014 .0248794
934.651 .0248694
935.288 .0248583
935.924 .0248471
936.560 .0248359
937.196 .0248252
937.831 .0248149
938.466 .0248055
939.100 .0247971
939.734 .0247892
940.368 .0247816
941.001 .0247746
941.634 .0247676
942.266 .0247609
942.899 .0247546
943.530 .0247483
944.162 .0247419
944.793 .0247356
945.423 .0247280
946.053 .0247190
946.683 .0247086
947.313 .0246970
947.942 .0246839
948.571 .0246698
949.199 .0246550
949.827 .0246396
950.455 .0246242
951.082 .0246089
951.709 .0245936
952.335 .0245786
952.961 .0245639
953.587 .0245494
954.212 .0245354
954.837 .0245222
955.462 .0245096
956.086 .0244986
956.710 .0244891
957.334 .0244809
957.957 .0244735
958.579 .0244676
959.202 .0244623
959.824 .0244570
960.445 .0244521
961.067 .0244474
961.688 .0244431
962.308 .0244394
962.928 .0244362
963.548 .0244337
964.168 .0244318
964.787 .0244307
965.406 .0244292
966.024 .0244279
966.642 .0244260
967.260 .0244229
967.877 .0244190
968.494 .0244143
969.110 .0244087
969.727 .0244024
970.342 .0243964
970.958 .0243904
971.573 .0243842
972.188 .0243781
972.802 .0243708
973.416 .0243629
974.030 .0243535
974.643 .0243428
975.256 .0243310
975.869 .0243188
976.481 .0243066
977.093 .0242948
977.705 .0242842
978.316 .0242751
978.927 .0242671
979.538 .0242602
980.148 .0242538
980.758 .0242478
981.367 .0242422
981.977 .0242370
982.586 .0242321
983.194 .0242283
983.802 .0242252
984.410 .0242227
985.018 .0242207
985.625 .0242191
986.232 .0242175
986.838 .0242156
987.445 .0242130
988.050 .0242099
988.656 .0242063
989.261 .0242026
989.866 .0241987
990.471 .0241947
991.075 .0241903
991.679 .0241851
992.282 .0241791
992.886 .0241725
993.489 .0241648
994.091 .0241569
994.694 .0241490
995.296 .0241415
995.897 .0241343
996.499 .0241277
997.100 .0241212
997.701 .0241153
998.301 .0241091
998.901 .0241023
999.501 .0240948
1000.101 .0240871
1000.700 .0240793
1001.299 .0240714
1001.898 .0240636
1002.496 .0240559
1003.094 .0240485
1003.692 .0240420
1004.289 .0240353
1004.887 .0240292
1005.484 .0240230
1006.080 .0240166
1006.677 .0240102
1007.273 .0240033
1007.868 .0239961
1008.464 .0239888
1009.059 .0239816
1009.654 .0239744
1010.249 .0239668
1010.843 .0239597
1011.437 .0239528
1012.031 .0239459
1012.625 .0239387
1013.218 .0239308
1013.811 .0239221
1014.404 .0239134
1014.997 .0239042
1015.589 .0238953
1016.181 .0238873
1016.773 .0238802
1017.365 .0238741
1017.956 .0238691
1018.547 .0238648
1019.138 .0238604
1019.728 .0238553
1020.319 .0238497
1020.909 .0238425
1021.499 .0238341
1022.088 .0238255
1022.678 .0238165
1023.267 .0238084
1023.856 .0238009
1024.445 .0237934
1025.033 .0237861
1025.621 .0237789
1026.209 .0237706
1026.797 .0237615
1027.385 .0237525
1027.972 .0237430
1028.560 .0237336
1029.147 .0237249
1029.734 .0237174
1030.320 .0237109
1030.907 .0237056
1031.493 .0237014
1032.079 .0236974
1032.665 .0236943
1033.250 .0236909
1033.836 .0236878
1034.421 .0236854
1035.006 .0236822
1035.591 .0236779
1036.176 .0236718
1036.761 .0236639
1037.345 .0236530
1037.929 .0236397
1038.514 .0236241
1039.097 .0236066
1039.681 .0235891
1040.265 .0235709
1040.848 .0235535
1041.432 .0235374
1042.015 .0235217
1042.598 .0235062
1043.181 .0234905
1043.764 .0234743
1044.346 .0234579
1044.929 .0234426
1045.511 .0234289
1046.094 .0234176
1046.676 .0234099
1047.258 .0234048
1047.840 .0234024
1048.422 .0234029
1049.003 .0234047
1049.585 .0234063
1050.166 .0234080
1050.748 .0234089
1051.329 .0234093
1051.910 .0234102
1052.491 .0234108
1053.072 .0234119
1053.653 .0234130
1054.234 .0234125
1054.815 .0234099
1055.396 .0234055
1055.976 .0233990
1056.557 .0233907
1057.138 .0233818
1057.718 .0233730
1058.298 .0233646
1058.879 .0233572
1059.459 .0233502
1060.039 .0233438
1060.620 .0233366
1061.200 .0233274
1061.780 .0233165
1062.360 .0233051
1062.940 .0232936
1063.520 .0232827
1064.101 .0232730
1064.681 .0232644
1065.261 .0232561
1065.841 .0232479
1066.421 .0232373
1067.001 .0232242
1067.581 .0232082
1068.161 .0231896
1068.741 .0231706
1069.321 .0231508
1069.901 .0231328
1070.482 .0231169
1071.062 .0231037
1071.642 .0230925
1072.222 .0230815
1072.803 .0230704
1073.383 .0230587
1073.963 .0230457
1074.544 .0230325
1075.124 .0230201
1075.705 .0230099
1076.286 .0230031
1076.866 .0230009
1077.447 .0230014
1078.028 .0230040
1078.609 .0230073
1079.190 .0230118
1079.771 .0230143
1080.352 .0230154
1080.934 .0230140
1081.515 .0230102
1082.097 .0230070
1082.679 .0230030
1083.260 .0229980
1083.842 .0229955
1084.424 .0229934
1085.007 .0229916
1085.589 .0229899
1086.172 .0229887
1086.754 .0229865
1087.337 .0229844
1087.920 .0229812
1088.503 .0229752
1089.087 .0229664
1089.670 .0229544
1090.254 .0229386
1090.838 .0229210
1091.422 .0229028
1092.006 .0228816
1092.590 .0228612
1093.175 .0228425
1093.760 .0228237
1094.345 .0228074
1094.930 .0227922
1095.516 .0227789
1096.102 .0227656
1096.688 .0227525
1097.274 .0227409
1097.860 .0227302
1098.447 .0227234
1099.034 .0227189
1099.622 .0227172
1100.209 .0227181
1100.797 .0227202
1101.385 .0227237
1101.973 .0227284
1102.562 .0227337
1103.151 .0227397
1103.740 .0227463
1104.330 .0227528
1104.920 .0227607
1105.510 .0227675
1106.101 .0227751
1106.691 .0227821
1107.283 .0227877
1107.874 .0227940
1108.466 .0228006
1109.058 .0228102
1109.651 .0228231
1110.244 .0228408
1110.837 .0228629
1111.431 .0228867
1112.025 .0229137
1112.620 .0229398
1113.215 .0229644
1113.810 .0229847
1114.406 .0230015
1115.002 .0230118
1115.599 .0230191
1116.196 .0230223
1116.793 .0230227
1117.391 .0230228
1117.989 .0230215
1118.588 .0230176
1119.187 .0230126
1119.787 .0230043
1120.387 .0229921
1120.988 .0229770
1121.589 .0229617
1122.190 .0229417
1122.793 .0229218
1123.395 .0229029
1123.998 .0228877
1124.602 .0228786
1125.206 .0228767
1125.811 .0228790
1126.416 .0228894
1127.022 .0229070
1127.628 .0229269
1128.235 .0229512
1128.843 .0229790
1129.451 .0230111
1130.059 .0230492
1130.669 .0230915
1131.278 .0231392
1131.889 .0231890
1132.500 .0232448
1133.112 .0233016
1133.724 .0233575
1134.337 .0234141
1134.950 .0234678
1135.564 .0235237
1136.179 .0235804
1136.795 .0236401
1137.411 .0237050
1138.028 .0237732
1138.645 .0238486
1139.263 .0239193
1139.882 .0239880
1140.502 .0240623
1141.122 .0241386
1141.743 .0242250
1142.365 .0243325
1142.987 .0242441
1143.611 .0245590
1144.235 .0246430
1144.859 .0248584
1145.485 .0253433
