Measurement Sequence started on: 10-20-44-796
Integration time: 35
Scans to Average: 2 
>>>>>Begin Spectral Data<<<<<
432.953 .0426169
433.882 .0488377
434.810 .0467447
435.737 .0421567
436.662 .0406523
437.586 .0414118
438.509 .0407385
439.431 .0400545
440.351 .0395844
441.269 .0393519
442.187 .0392154
443.103 .0391334
444.018 .0390956
444.932 .0390651
445.844 .0390757
446.756 .0390718
447.666 .0390504
448.575 .0390033
449.482 .0389362
450.388 .0388839
451.294 .0388355
452.198 .0388259
453.100 .0388538
454.002 .0389307
454.902 .0390336
455.801 .0391484
456.699 .0392709
457.596 .0393830
458.492 .0394788
459.387 .0395404
460.280 .0395763
461.172 .0395850
462.064 .0395698
462.954 .0395383
463.843 .0394824
464.730 .0394118
465.617 .0393267
466.503 .0392263
467.387 .0391084
468.271 .0389760
469.153 .0388320
470.035 .0386748
470.915 .0385163
471.794 .0383573
472.673 .0381987
473.550 .0380464
474.426 .0379072
475.301 .0377805
476.175 .0376646
477.048 .0375669
477.920 .0374831
478.791 .0374094
479.661 .0373418
480.530 .0372784
481.398 .0372156
482.266 .0371578
483.132 .0371045
483.997 .0370515
484.861 .0370060
485.724 .0369701
486.587 .0369355
487.448 .0369083
488.308 .0368841
489.168 .0368608
490.026 .0368362
490.884 .0368125
491.741 .0367883
492.597 .0367660
493.452 .0367538
494.306 .0367492
495.159 .0367513
496.011 .0367672
496.862 .0367850
497.713 .0368018
498.562 .0368103
499.411 .0368016
500.259 .0367739
501.106 .0367308
501.952 .0366681
502.798 .0365973
503.642 .0365236
504.486 .0364488
505.329 .0363732
506.171 .0362969
507.012 .0362153
507.852 .0361213
508.692 .0360115
509.531 .0358850
510.369 .0357358
511.206 .0355748
512.043 .0354008
512.878 .0352306
513.713 .0350707
514.547 .0349224
515.381 .0347851
516.213 .0346616
517.045 .0345455
517.876 .0344328
518.706 .0343183
519.536 .0342085
520.365 .0340996
521.193 .0339918
522.020 .0338840
522.847 .0337810
523.673 .0336778
524.498 .0335742
525.323 .0334659
526.146 .0333575
526.969 .0332502
527.792 .0331422
528.614 .0330287
529.435 .0329151
530.255 .0328000
531.075 .0326706
531.894 .0325278
532.712 .0323695
533.530 .0321859
534.347 .0319843
535.163 .0317781
535.979 .0315750
536.794 .0313884
537.608 .0312271
538.422 .0310918
539.235 .0309770
540.048 .0308860
540.860 .0308006
541.671 .0307286
542.481 .0306643
543.292 .0306056
544.101 .0305508
544.910 .0305080
545.718 .0304746
546.526 .0304560
547.333 .0304541
548.139 .0304655
548.945 .0304849
549.750 .0305133
550.555 .0305463
551.359 .0305891
552.162 .0306358
552.965 .0306940
553.768 .0307560
554.569 .0308247
555.371 .0308901
556.171 .0309582
556.972 .0310256
557.771 .0310927
558.570 .0311601
559.369 .0312299
560.167 .0313012
560.964 .0313769
561.761 .0314573
562.558 .0315483
563.354 .0316458
564.149 .0317468
564.944 .0318494
565.738 .0319535
566.532 .0320552
567.325 .0321531
568.118 .0322443
568.910 .0323325
569.702 .0324132
570.494 .0324890
571.285 .0325634
572.075 .0326350
572.865 .0327027
573.654 .0327658
574.443 .0328236
575.232 .0328728
576.020 .0329130
576.807 .0329430
577.594 .0329668
578.381 .0329859
579.167 .0330027
579.952 .0330181
580.738 .0330371
581.522 .0330616
582.307 .0330891
583.091 .0331235
583.874 .0331607
584.657 .0331973
585.440 .0332335
586.222 .0332680
587.004 .0332985
587.785 .0333251
588.566 .0333481
589.346 .0333663
590.126 .0333813
590.906 .0333925
591.685 .0333997
592.464 .0334043
593.242 .0334076
594.020 .0334083
594.797 .0334050
595.575 .0333988
596.351 .0333897
597.128 .0333802
597.904 .0333698
598.679 .0333605
599.454 .0333499
600.229 .0333405
601.004 .0333316
601.778 .0333234
602.551 .0333156
603.325 .0333082
604.097 .0333014
604.870 .0332947
605.642 .0332884
606.414 .0332827
607.185 .0332758
607.956 .0332698
608.727 .0332632
609.497 .0332550
610.267 .0332448
611.037 .0332334
611.806 .0332186
612.575 .0332019
613.344 .0331822
614.112 .0331600
614.880 .0331364
615.647 .0331114
616.414 .0330858
617.181 .0330595
617.948 .0330336
618.714 .0330078
619.480 .0329819
620.245 .0329565
621.011 .0329309
621.775 .0329042
622.540 .0328769
623.304 .0328483
624.068 .0328196
624.832 .0327909
625.595 .0327625
626.358 .0327357
627.120 .0327107
627.883 .0326867
628.645 .0326646
629.406 .0326430
630.168 .0326231
630.929 .0326029
631.689 .0325819
632.450 .0325596
633.210 .0325370
633.970 .0325128
634.729 .0324877
635.489 .0324611
636.248 .0324336
637.006 .0324053
637.765 .0323765
638.523 .0323475
639.280 .0323178
640.038 .0322880
640.795 .0322586
641.552 .0322284
642.309 .0321990
643.065 .0321691
643.821 .0321398
644.577 .0321113
645.332 .0320836
646.088 .0320571
646.843 .0320326
647.597 .0320106
648.352 .0319911
649.106 .0319741
649.860 .0319585
650.613 .0319443
651.367 .0319312
652.120 .0319190
652.872 .0319061
653.625 .0318925
654.377 .0318791
655.129 .0318651
655.881 .0318512
656.632 .0318369
657.384 .0318223
658.135 .0318085
658.885 .0317946
659.636 .0317798
660.386 .0317647
661.136 .0317497
661.885 .0317346
662.635 .0317201
663.384 .0317062
664.133 .0316933
664.881 .0316809
665.630 .0316691
666.378 .0316577
667.126 .0316457
667.874 .0316322
668.621 .0316170
669.368 .0316008
670.115 .0315835
670.862 .0315646
671.608 .0315455
672.354 .0315268
673.100 .0315083
673.846 .0314899
674.591 .0314711
675.337 .0314511
676.082 .0314307
676.826 .0314082
677.571 .0313847
678.315 .0313611
679.059 .0313371
679.803 .0313139
680.547 .0312923
681.290 .0312721
682.033 .0312524
682.776 .0312327
683.518 .0312129
684.261 .0311919
685.003 .0311695
685.745 .0311456
686.487 .0311210
687.228 .0310973
687.969 .0310752
688.710 .0310542
689.451 .0310357
690.192 .0310188
690.932 .0310025
691.672 .0309856
692.412 .0309674
693.152 .0309473
693.891 .0309243
694.630 .0308992
695.369 .0308728
696.108 .0308453
696.846 .0308175
697.585 .0307901
698.323 .0307637
699.061 .0307383
699.798 .0307131
700.536 .0306877
701.273 .0306627
702.010 .0306378
702.746 .0306129
703.483 .0305878
704.219 .0305632
704.955 .0305388
705.691 .0305148
706.427 .0304914
707.162 .0304687
707.897 .0304468
708.632 .0304251
709.367 .0304035
710.101 .0303819
710.835 .0303599
711.569 .0303375
712.303 .0303151
713.037 .0302928
713.770 .0302698
714.503 .0302466
715.236 .0302234
715.969 .0302008
716.702 .0301791
717.434 .0301583
718.166 .0301386
718.898 .0301198
719.629 .0301022
720.361 .0300856
721.092 .0300697
721.823 .0300548
722.554 .0300403
723.284 .0300264
724.014 .0300122
724.744 .0299976
725.474 .0299821
726.204 .0299665
726.933 .0299503
727.662 .0299334
728.391 .0299159
729.120 .0298980
729.849 .0298801
730.577 .0298622
731.305 .0298445
732.033 .0298266
732.760 .0298081
733.488 .0297894
734.215 .0297696
734.942 .0297496
735.669 .0297288
736.395 .0297081
737.122 .0296875
737.848 .0296669
738.573 .0296459
739.299 .0296243
740.024 .0296022
740.750 .0295793
741.474 .0295553
742.199 .0295312
742.924 .0295065
743.648 .0294826
744.372 .0294596
745.096 .0294388
745.819 .0294198
746.543 .0294033
747.266 .0293889
747.989 .0293768
748.711 .0293660
749.434 .0293558
750.156 .0293462
750.878 .0293381
751.599 .0293313
752.321 .0293258
753.042 .0293220
753.763 .0293205
754.484 .0293203
755.205 .0293212
755.925 .0293223
756.645 .0293223
757.365 .0293205
758.085 .0293161
758.804 .0293084
759.523 .0292975
760.242 .0292840
760.961 .0292685
761.679 .0292519
762.397 .0292340
763.115 .0292149
763.833 .0291949
764.551 .0291745
765.268 .0291529
765.985 .0291299
766.702 .0291062
767.418 .0290825
768.134 .0290588
768.850 .0290362
769.566 .0290148
770.282 .0289956
770.997 .0289783
771.712 .0289626
772.427 .0289481
773.142 .0289344
773.856 .0289206
774.570 .0289067
775.284 .0288924
775.998 .0288774
776.711 .0288617
777.424 .0288457
778.137 .0288298
778.849 .0288142
779.562 .0287993
780.274 .0287857
780.986 .0287731
781.697 .0287622
782.409 .0287527
783.120 .0287446
783.831 .0287373
784.541 .0287310
785.252 .0287254
785.962 .0287205
786.671 .0287156
787.381 .0287112
788.090 .0287069
788.799 .0287025
789.508 .0286972
790.217 .0286906
790.925 .0286821
791.633 .0286712
792.341 .0286568
793.048 .0286399
793.755 .0286207
794.462 .0285997
795.169 .0285775
795.875 .0285558
796.581 .0285346
797.287 .0285138
797.993 .0284943
798.698 .0284764
799.403 .0284598
800.108 .0284442
800.812 .0284295
801.517 .0284162
802.221 .0284051
802.924 .0283962
803.628 .0283893
804.331 .0283853
805.034 .0283835
805.736 .0283823
806.439 .0283815
807.141 .0283804
807.843 .0283778
808.544 .0283731
809.245 .0283660
809.946 .0283558
810.647 .0283433
811.347 .0283291
812.047 .0283142
812.747 .0282990
813.447 .0282841
814.146 .0282691
814.845 .0282541
815.543 .0282392
816.242 .0282233
816.940 .0282062
817.638 .0281888
818.335 .0281705
819.032 .0281517
819.729 .0281335
820.426 .0281166
821.122 .0281011
821.818 .0280875
822.514 .0280749
823.209 .0280622
823.905 .0280489
824.599 .0280341
825.294 .0280174
825.988 .0279986
826.682 .0279782
827.376 .0279564
828.069 .0279346
828.762 .0279136
829.455 .0278930
830.147 .0278742
830.840 .0278577
831.531 .0278423
832.223 .0278287
832.914 .0278166
833.605 .0278055
834.296 .0277958
834.986 .0277874
835.676 .0277802
836.366 .0277742
837.055 .0277697
837.744 .0277654
838.433 .0277610
839.121 .0277569
839.809 .0277518
840.497 .0277454
841.185 .0277381
841.872 .0277282
842.559 .0277164
843.245 .0277030
843.932 .0276874
844.617 .0276701
845.303 .0276520
845.988 .0276327
846.673 .0276123
847.358 .0275916
848.042 .0275710
848.726 .0275503
849.410 .0275306
850.093 .0275118
850.776 .0274941
851.459 .0274783
852.141 .0274634
852.823 .0274498
853.505 .0274381
854.186 .0274274
854.867 .0274174
855.548 .0274082
856.228 .0273998
856.908 .0273916
857.588 .0273840
858.267 .0273771
858.946 .0273707
859.625 .0273645
860.303 .0273582
860.981 .0273514
861.659 .0273448
862.336 .0273367
863.013 .0273277
863.690 .0273174
864.366 .0273052
865.042 .0272910
865.718 .0272755
866.393 .0272593
867.068 .0272423
867.743 .0272244
868.417 .0272066
869.091 .0271887
869.765 .0271710
870.438 .0271535
871.111 .0271364
871.783 .0271197
872.456 .0271033
873.127 .0270863
873.799 .0270699
874.470 .0270539
875.141 .0270386
875.811 .0270241
876.481 .0270111
877.151 .0269996
877.820 .0269889
878.489 .0269797
879.158 .0269717
879.826 .0269640
880.494 .0269556
881.162 .0269460
881.829 .0269353
882.496 .0269234
883.163 .0269101
883.829 .0268964
884.495 .0268830
885.160 .0268703
885.825 .0268582
886.490 .0268478
887.154 .0268389
887.818 .0268319
888.482 .0268250
889.145 .0268187
889.808 .0268120
890.471 .0268053
891.133 .0267987
891.795 .0267927
892.456 .0267880
893.117 .0267850
893.778 .0267838
894.439 .0267847
895.099 .0267868
895.758 .0267897
896.417 .0267922
897.076 .0267931
897.735 .0267918
898.393 .0267882
899.051 .0267821
899.708 .0267740
900.365 .0267640
901.022 .0267528
901.678 .0267409
902.334 .0267280
902.990 .0267146
903.645 .0267005
904.300 .0266862
904.954 .0266707
905.608 .0266544
906.262 .0266381
906.915 .0266229
907.568 .0266090
908.221 .0265973
908.873 .0265877
909.525 .0265812
910.176 .0265765
910.828 .0265736
911.478 .0265725
912.129 .0265721
912.778 .0265713
913.428 .0265702
914.077 .0265690
914.726 .0265673
915.375 .0265650
916.023 .0265629
916.670 .0265611
917.318 .0265590
917.964 .0265560
918.611 .0265519
919.257 .0265469
919.903 .0265409
920.548 .0265325
921.193 .0265227
921.838 .0265130
922.482 .0265026
923.126 .0264925
923.770 .0264827
924.413 .0264737
925.056 .0264649
925.698 .0264561
926.340 .0264465
926.982 .0264359
927.623 .0264247
928.264 .0264125
928.904 .0263998
929.544 .0263872
930.184 .0263746
930.823 .0263623
931.462 .0263509
932.101 .0263397
932.739 .0263271
933.377 .0263137
934.014 .0262993
934.651 .0262835
935.288 .0262668
935.924 .0262499
936.560 .0262338
937.196 .0262193
937.831 .0262065
938.466 .0261955
939.100 .0261861
939.734 .0261777
940.368 .0261700
941.001 .0261618
941.634 .0261535
942.266 .0261450
942.899 .0261360
943.530 .0261270
944.162 .0261175
944.793 .0261073
945.423 .0260965
946.053 .0260841
946.683 .0260702
947.313 .0260537
947.942 .0260352
948.571 .0260145
949.199 .0259913
949.827 .0259666
950.455 .0259403
951.082 .0259131
951.709 .0258858
952.335 .0258583
952.961 .0258309
953.587 .0258047
954.212 .0257799
954.837 .0257569
955.462 .0257355
956.086 .0257164
956.710 .0256999
957.334 .0256859
957.957 .0256739
958.579 .0256630
959.202 .0256531
959.824 .0256444
960.445 .0256353
961.067 .0256261
961.688 .0256168
962.308 .0256072
962.928 .0255975
963.548 .0255870
964.168 .0255754
964.787 .0255627
965.406 .0255498
966.024 .0255355
966.642 .0255203
967.260 .0255045
967.877 .0254884
968.494 .0254719
969.110 .0254555
969.727 .0254391
970.342 .0254232
970.958 .0254082
971.573 .0253942
972.188 .0253805
972.802 .0253686
973.416 .0253577
974.030 .0253478
974.643 .0253393
975.256 .0253321
975.869 .0253249
976.481 .0253179
977.093 .0253111
977.705 .0253042
978.316 .0252977
978.927 .0252917
979.538 .0252863
980.148 .0252817
980.758 .0252783
981.367 .0252753
981.977 .0252731
982.586 .0252727
983.194 .0252722
983.802 .0252717
984.410 .0252719
985.018 .0252718
985.625 .0252717
986.232 .0252723
986.838 .0252749
987.445 .0252781
988.050 .0252821
988.656 .0252859
989.261 .0252888
989.866 .0252905
990.471 .0252901
991.075 .0252858
991.679 .0252787
992.282 .0252690
992.886 .0252564
993.489 .0252425
994.091 .0252288
994.694 .0252154
995.296 .0252022
995.897 .0251890
996.499 .0251759
997.100 .0251617
997.701 .0251474
998.301 .0251328
998.901 .0251183
999.501 .0251053
1000.101 .0250941
1000.700 .0250858
1001.299 .0250814
1001.898 .0250806
1002.496 .0250826
1003.094 .0250862
1003.692 .0250910
1004.289 .0250960
1004.887 .0251010
1005.484 .0251059
1006.080 .0251104
1006.677 .0251142
1007.273 .0251183
1007.868 .0251224
1008.464 .0251271
1009.059 .0251322
1009.654 .0251376
1010.249 .0251419
1010.843 .0251442
1011.437 .0251445
1012.031 .0251417
1012.625 .0251365
1013.218 .0251295
1013.811 .0251209
1014.404 .0251112
1014.997 .0251012
1015.589 .0250917
1016.181 .0250826
1016.773 .0250753
1017.365 .0250684
1017.956 .0250612
1018.547 .0250543
1019.138 .0250480
1019.728 .0250420
1020.319 .0250379
1020.909 .0250359
1021.499 .0250357
1022.088 .0250374
1022.678 .0250403
1023.267 .0250431
1023.856 .0250455
1024.445 .0250472
1025.033 .0250479
1025.621 .0250475
1026.209 .0250480
1026.797 .0250483
1027.385 .0250500
1027.972 .0250536
1028.560 .0250580
1029.147 .0250619
1029.734 .0250655
1030.320 .0250680
1030.907 .0250685
1031.493 .0250671
1032.079 .0250658
1032.665 .0250644
1033.250 .0250652
1033.836 .0250668
1034.421 .0250689
1035.006 .0250707
1035.591 .0250721
1036.176 .0250704
1036.761 .0250665
1037.345 .0250605
1037.929 .0250523
1038.514 .0250429
1039.097 .0250336
1039.681 .0250241
1040.265 .0250160
1040.848 .0250099
1041.432 .0250054
1042.015 .0250014
1042.598 .0249984
1043.181 .0249956
1043.764 .0249947
1044.346 .0249949
1044.929 .0249959
1045.511 .0249981
1046.094 .0250008
1046.676 .0250031
1047.258 .0250031
1047.840 .0250022
1048.422 .0249991
1049.003 .0249928
1049.585 .0249836
1050.166 .0249698
1050.748 .0249536
1051.329 .0249348
1051.910 .0249136
1052.491 .0248910
1053.072 .0248683
1053.653 .0248456
1054.234 .0248242
1054.815 .0248059
1055.396 .0247909
1055.976 .0247790
1056.557 .0247694
1057.138 .0247616
1057.718 .0247549
1058.298 .0247493
1058.879 .0247472
1059.459 .0247475
1060.039 .0247533
1060.620 .0247634
1061.200 .0247778
1061.780 .0247956
1062.360 .0248155
1062.940 .0248343
1063.520 .0248496
1064.101 .0248601
1064.681 .0248649
1065.261 .0248630
1065.841 .0248567
1066.421 .0248479
1067.001 .0248379
1067.581 .0248271
1068.161 .0248172
1068.741 .0248063
1069.321 .0247958
1069.901 .0247849
1070.482 .0247722
1071.062 .0247581
1071.642 .0247442
1072.222 .0247299
1072.803 .0247156
1073.383 .0247029
1073.963 .0246908
1074.544 .0246789
1075.124 .0246695
1075.705 .0246608
1076.286 .0246529
1076.866 .0246484
1077.447 .0246473
1078.028 .0246482
1078.609 .0246536
1079.190 .0246615
1079.771 .0246705
1080.352 .0246798
1080.934 .0246892
1081.515 .0246962
1082.097 .0247039
1082.679 .0247133
1083.260 .0247246
1083.842 .0247390
1084.424 .0247584
1085.007 .0247792
1085.589 .0248022
1086.172 .0248261
1086.754 .0248495
1087.337 .0248694
1087.920 .0248899
1088.503 .0249073
1089.087 .0249237
1089.670 .0249376
1090.254 .0249506
1090.838 .0249608
1091.422 .0249681
1092.006 .0249695
1092.590 .0249640
1093.175 .0249519
1093.760 .0249347
1094.345 .0249097
1094.930 .0248815
1095.516 .0248478
1096.102 .0248122
1096.688 .0247734
1097.274 .0247327
1097.860 .0246890
1098.447 .0246434
1099.034 .0245981
1099.622 .0245549
1100.209 .0245163
1100.797 .0244845
1101.385 .0244617
1101.973 .0244515
1102.562 .0244525
1103.151 .0244631
1103.740 .0244809
1104.330 .0245054
1104.920 .0245333
1105.510 .0245643
1106.101 .0245945
1106.691 .0246249
1107.283 .0246574
1107.874 .0246881
1108.466 .0247185
1109.058 .0247441
1109.651 .0247685
1110.244 .0247883
1110.837 .0248027
1111.431 .0248106
1112.025 .0248112
1112.620 .0248079
1113.215 .0247996
1113.810 .0247861
1114.406 .0247706
1115.002 .0247509
1115.599 .0247334
1116.196 .0247139
1116.793 .0246965
1117.391 .0246819
1117.989 .0246748
1118.588 .0246730
1119.187 .0246771
1119.787 .0246819
1120.387 .0246876
1120.988 .0246915
1121.589 .0246934
1122.190 .0246895
1122.793 .0246845
1123.395 .0246820
1123.998 .0246833
1124.602 .0246889
1125.206 .0247038
1125.811 .0247291
1126.416 .0247644
1127.022 .0248023
1127.628 .0248402
1128.235 .0248737
1128.843 .0249018
1129.451 .0249230
1130.059 .0249367
1130.669 .0249440
1131.278 .0249490
1131.889 .0249577
1132.500 .0249671
1133.112 .0249769
1133.724 .0249863
1134.337 .0249985
1134.950 .0250104
1135.564 .0250180
1136.179 .0250195
1136.795 .0250213
1137.411 .0250293
1138.028 .0250420
1138.645 .0250613
1139.263 .0250982
1139.882 .0251525
1140.502 .0252197
1141.122 .0253137
1141.743 .0254263
1142.365 .0255689
1142.987 .0256334
1143.611 .0256584
1144.235 .0262676
1144.859 .0262691
1145.485 .0266339
