Measurement Sequence started on: 10-20-44-796
Integration time: 35
Scans to Average: 2 
>>>>>Begin Spectral Data<<<<<
432.953 .0207147
433.882 .0326517
434.810 .0301867
435.737 .0306797
436.662 .0299631
437.586 .0321823
438.509 .0330268
439.431 .0334353
440.351 .0338484
441.269 .0341376
442.187 .0343391
443.103 .0344015
444.018 .0344255
444.932 .0344190
445.844 .0344035
446.756 .0343730
447.666 .0343223
448.575 .0342507
449.482 .0341590
450.388 .0340397
451.294 .0339139
452.198 .0337780
453.100 .0336280
454.002 .0334896
454.902 .0333710
455.801 .0332762
456.699 .0332024
457.596 .0331542
458.492 .0331291
459.387 .0331173
460.280 .0331095
461.172 .0330960
462.064 .0330743
462.954 .0330375
463.843 .0329845
464.730 .0329187
465.617 .0328483
466.503 .0327796
467.387 .0327189
468.271 .0326703
469.153 .0326294
470.035 .0325897
470.915 .0325521
471.794 .0325057
472.673 .0324462
473.550 .0323741
474.426 .0322939
475.301 .0322105
476.175 .0321334
477.048 .0320662
477.920 .0320157
478.791 .0319811
479.661 .0319603
480.530 .0319457
481.398 .0319295
482.266 .0319104
483.132 .0318837
483.997 .0318477
484.861 .0318089
485.724 .0317663
486.587 .0317305
487.448 .0317022
488.308 .0316816
489.168 .0316674
490.026 .0316602
490.884 .0316547
491.741 .0316452
492.597 .0316304
493.452 .0316108
494.306 .0315833
495.159 .0315528
496.011 .0315217
496.862 .0314936
497.713 .0314685
498.562 .0314459
499.411 .0314252
500.259 .0314070
501.106 .0313844
501.952 .0313578
502.798 .0313233
503.642 .0312816
504.486 .0312264
505.329 .0311614
506.171 .0310884
507.012 .0310125
507.852 .0309346
508.692 .0308559
509.531 .0307767
510.369 .0306977
511.206 .0306121
512.043 .0305203
512.878 .0304171
513.713 .0303029
514.547 .0301691
515.381 .0300198
516.213 .0298604
517.045 .0296963
517.876 .0295267
518.706 .0293594
519.536 .0291972
520.365 .0290378
521.193 .0288741
522.020 .0287117
522.847 .0285439
523.673 .0283764
524.498 .0282032
525.323 .0280247
526.146 .0278499
526.969 .0276885
527.792 .0275275
528.614 .0273755
529.435 .0272416
530.255 .0271173
531.075 .0269976
531.894 .0268889
532.712 .0267851
533.530 .0266799
534.347 .0265747
535.163 .0264687
535.979 .0263669
536.794 .0262843
537.608 .0262112
538.422 .0261606
539.235 .0261397
540.048 .0261327
540.860 .0261372
541.671 .0261462
542.481 .0261550
543.292 .0261506
544.101 .0261376
544.910 .0261115
545.718 .0260816
546.526 .0260565
547.333 .0260345
548.139 .0260289
548.945 .0260451
549.750 .0260650
550.555 .0260905
551.359 .0261204
552.162 .0261464
552.965 .0261681
553.768 .0261957
554.569 .0262302
555.371 .0262821
556.171 .0263567
556.972 .0264536
557.771 .0265649
558.570 .0266923
559.369 .0268167
560.167 .0269267
560.964 .0270262
561.761 .0271052
562.558 .0271695
563.354 .0272324
564.149 .0272955
564.944 .0273612
565.738 .0274332
566.532 .0275096
567.325 .0275849
568.118 .0276567
568.910 .0277233
569.702 .0277824
570.494 .0278408
571.285 .0279033
572.075 .0279646
572.865 .0280306
573.654 .0281024
574.443 .0281734
575.232 .0282441
576.020 .0283111
576.807 .0283719
577.594 .0284269
578.381 .0284733
579.167 .0285139
579.952 .0285494
580.738 .0285845
581.522 .0286207
582.307 .0286583
583.091 .0286988
583.874 .0287418
584.657 .0287843
585.440 .0288291
586.222 .0288739
587.004 .0289181
587.785 .0289596
588.566 .0289966
589.346 .0290310
590.126 .0290621
590.906 .0290885
591.685 .0291147
592.464 .0291391
593.242 .0291610
594.020 .0291795
594.797 .0291950
595.575 .0292065
596.351 .0292136
597.128 .0292146
597.904 .0292088
598.679 .0291980
599.454 .0291834
600.229 .0291647
601.004 .0291442
601.778 .0291246
602.551 .0291052
603.325 .0290854
604.097 .0290673
604.870 .0290499
605.642 .0290331
606.414 .0290189
607.185 .0290052
607.956 .0289933
608.727 .0289829
609.497 .0289747
610.267 .0289678
611.037 .0289632
611.806 .0289592
612.575 .0289541
613.344 .0289483
614.112 .0289419
614.880 .0289331
615.647 .0289229
616.414 .0289124
617.181 .0289015
617.948 .0288905
618.714 .0288794
619.480 .0288671
620.245 .0288556
621.011 .0288436
621.775 .0288311
622.540 .0288167
623.304 .0288013
624.068 .0287850
624.832 .0287674
625.595 .0287491
626.358 .0287305
627.120 .0287120
627.883 .0286939
628.645 .0286754
629.406 .0286567
630.168 .0286374
630.929 .0286178
631.689 .0285979
632.450 .0285776
633.210 .0285563
633.970 .0285344
634.729 .0285127
635.489 .0284915
636.248 .0284705
637.006 .0284496
637.765 .0284296
638.523 .0284098
639.280 .0283914
640.038 .0283734
640.795 .0283563
641.552 .0283407
642.309 .0283266
643.065 .0283135
643.821 .0283009
644.577 .0282883
645.332 .0282761
646.088 .0282644
646.843 .0282532
647.597 .0282410
648.352 .0282299
649.106 .0282208
649.860 .0282129
650.613 .0282061
651.367 .0282014
652.120 .0281981
652.872 .0281951
653.625 .0281920
654.377 .0281877
655.129 .0281818
655.881 .0281742
656.632 .0281641
657.384 .0281518
658.135 .0281378
658.885 .0281221
659.636 .0281046
660.386 .0280866
661.136 .0280678
661.885 .0280484
662.635 .0280295
663.384 .0280111
664.133 .0279929
664.881 .0279745
665.630 .0279563
666.378 .0279378
667.126 .0279183
667.874 .0278978
668.621 .0278766
669.368 .0278552
670.115 .0278341
670.862 .0278139
671.608 .0277953
672.354 .0277785
673.100 .0277632
673.846 .0277492
674.591 .0277359
675.337 .0277230
676.082 .0277101
676.826 .0276980
677.571 .0276865
678.315 .0276750
679.059 .0276648
679.803 .0276561
680.547 .0276481
681.290 .0276403
682.033 .0276323
682.776 .0276240
683.518 .0276143
684.261 .0276025
685.003 .0275887
685.745 .0275737
686.487 .0275576
687.228 .0275401
687.969 .0275220
688.710 .0275035
689.451 .0274842
690.192 .0274645
690.932 .0274446
691.672 .0274242
692.412 .0274043
693.152 .0273854
693.891 .0273674
694.630 .0273510
695.369 .0273362
696.108 .0273224
696.846 .0273094
697.585 .0272963
698.323 .0272814
699.061 .0272646
699.798 .0272463
700.536 .0272253
701.273 .0272029
702.010 .0271799
702.746 .0271564
703.483 .0271334
704.219 .0271113
704.955 .0270900
705.691 .0270687
706.427 .0270483
707.162 .0270278
707.897 .0270071
708.632 .0269872
709.367 .0269680
710.101 .0269503
710.835 .0269346
711.569 .0269202
712.303 .0269071
713.037 .0268953
713.770 .0268837
714.503 .0268717
715.236 .0268596
715.969 .0268469
716.702 .0268343
717.434 .0268217
718.166 .0268100
718.898 .0267981
719.629 .0267861
720.361 .0267736
721.092 .0267591
721.823 .0267432
722.554 .0267257
723.284 .0267065
724.014 .0266862
724.744 .0266645
725.474 .0266422
726.204 .0266189
726.933 .0265953
727.662 .0265705
728.391 .0265443
729.120 .0265170
729.849 .0264883
730.577 .0264583
731.305 .0264286
732.033 .0263997
732.760 .0263721
733.488 .0263465
734.215 .0263232
734.942 .0263021
735.669 .0262832
736.395 .0262670
737.122 .0262532
737.848 .0262415
738.573 .0262316
739.299 .0262231
740.024 .0262155
740.750 .0262088
741.474 .0262019
742.199 .0261947
742.924 .0261870
743.648 .0261785
744.372 .0261690
745.096 .0261592
745.819 .0261498
746.543 .0261406
747.266 .0261321
747.989 .0261246
748.711 .0261169
749.434 .0261096
750.156 .0261019
750.878 .0260946
751.599 .0260879
752.321 .0260820
753.042 .0260777
753.763 .0260751
754.484 .0260750
755.205 .0260765
755.925 .0260796
756.645 .0260838
757.365 .0260875
758.085 .0260904
758.804 .0260915
759.523 .0260907
760.242 .0260885
760.961 .0260851
761.679 .0260810
762.397 .0260766
763.115 .0260711
763.833 .0260637
764.551 .0260550
765.268 .0260441
765.985 .0260307
766.702 .0260145
767.418 .0259965
768.134 .0259771
768.850 .0259575
769.566 .0259386
770.282 .0259200
770.997 .0259036
771.712 .0258883
772.427 .0258727
773.142 .0258574
773.856 .0258420
774.570 .0258259
775.284 .0258095
775.998 .0257935
776.711 .0257777
777.424 .0257626
778.137 .0257489
778.849 .0257363
779.562 .0257246
780.274 .0257136
780.986 .0257020
781.697 .0256896
782.409 .0256769
783.120 .0256625
783.831 .0256474
784.541 .0256324
785.252 .0256176
785.962 .0256036
786.671 .0255908
787.381 .0255795
788.090 .0255698
788.799 .0255614
789.508 .0255532
790.217 .0255450
790.925 .0255363
791.633 .0255266
792.341 .0255157
793.048 .0255043
793.755 .0254923
794.462 .0254799
795.169 .0254685
795.875 .0254576
796.581 .0254473
797.287 .0254377
797.993 .0254279
798.698 .0254179
799.403 .0254070
800.108 .0253951
800.812 .0253822
801.517 .0253695
802.221 .0253572
802.924 .0253454
803.628 .0253351
804.331 .0253265
805.034 .0253190
805.736 .0253122
806.439 .0253051
807.141 .0252965
807.843 .0252868
808.544 .0252747
809.245 .0252601
809.946 .0252440
810.647 .0252272
811.347 .0252101
812.047 .0251934
812.747 .0251771
813.447 .0251608
814.146 .0251444
814.845 .0251286
815.543 .0251121
816.242 .0250955
816.940 .0250790
817.638 .0250632
818.335 .0250485
819.032 .0250352
819.729 .0250227
820.426 .0250118
821.122 .0250012
821.818 .0249900
822.514 .0249778
823.209 .0249648
823.905 .0249511
824.599 .0249366
825.294 .0249222
825.988 .0249078
826.682 .0248932
827.376 .0248790
828.069 .0248647
828.762 .0248500
829.455 .0248343
830.147 .0248175
830.840 .0247995
831.531 .0247811
832.223 .0247629
832.914 .0247451
833.605 .0247294
834.296 .0247154
834.986 .0247028
835.676 .0246914
836.366 .0246812
837.055 .0246708
837.744 .0246598
838.433 .0246476
839.121 .0246339
839.809 .0246184
840.497 .0246022
841.185 .0245857
841.872 .0245695
842.559 .0245540
843.245 .0245390
843.932 .0245247
844.617 .0245113
845.303 .0244979
845.988 .0244844
846.673 .0244714
847.358 .0244579
848.042 .0244442
848.726 .0244305
849.410 .0244172
850.093 .0244046
850.776 .0243926
851.459 .0243812
852.141 .0243701
852.823 .0243595
853.505 .0243494
854.186 .0243388
854.867 .0243291
855.548 .0243185
856.228 .0243073
856.908 .0242960
857.588 .0242839
858.267 .0242710
858.946 .0242584
859.625 .0242451
860.303 .0242315
860.981 .0242180
861.659 .0242047
862.336 .0241916
863.013 .0241797
863.690 .0241685
864.366 .0241581
865.042 .0241485
865.718 .0241404
866.393 .0241327
867.068 .0241262
867.743 .0241203
868.417 .0241141
869.091 .0241083
869.765 .0241022
870.438 .0240960
871.111 .0240900
871.783 .0240838
872.456 .0240775
873.127 .0240707
873.799 .0240639
874.470 .0240568
875.141 .0240495
875.811 .0240422
876.481 .0240346
877.151 .0240270
877.820 .0240191
878.489 .0240109
879.158 .0240028
879.826 .0239947
880.494 .0239862
881.162 .0239774
881.829 .0239684
882.496 .0239598
883.163 .0239522
883.829 .0239454
884.495 .0239401
885.160 .0239365
885.825 .0239341
886.490 .0239331
887.154 .0239331
887.818 .0239341
888.482 .0239356
889.145 .0239378
889.808 .0239407
890.471 .0239438
891.133 .0239479
891.795 .0239518
892.456 .0239556
893.117 .0239584
893.778 .0239602
894.439 .0239605
895.099 .0239598
895.758 .0239576
896.417 .0239543
897.076 .0239501
897.735 .0239447
898.393 .0239381
899.051 .0239305
899.708 .0239210
900.365 .0239101
901.022 .0238980
901.678 .0238857
902.334 .0238737
902.990 .0238641
903.645 .0238572
904.300 .0238530
904.954 .0238516
905.608 .0238521
906.262 .0238534
906.915 .0238549
907.568 .0238551
908.221 .0238544
908.873 .0238529
909.525 .0238511
910.176 .0238492
910.828 .0238487
911.478 .0238496
912.129 .0238514
912.778 .0238532
913.428 .0238543
914.077 .0238537
914.726 .0238512
915.375 .0238466
916.023 .0238405
916.670 .0238341
917.318 .0238284
917.964 .0238237
918.611 .0238206
919.257 .0238183
919.903 .0238163
920.548 .0238136
921.193 .0238096
921.838 .0238044
922.482 .0237975
923.126 .0237901
923.770 .0237833
924.413 .0237774
925.056 .0237736
925.698 .0237719
926.340 .0237718
926.982 .0237730
927.623 .0237738
928.264 .0237739
928.904 .0237724
929.544 .0237696
930.184 .0237654
930.823 .0237593
931.462 .0237533
932.101 .0237470
932.739 .0237407
933.377 .0237345
934.014 .0237282
934.651 .0237217
935.288 .0237143
935.924 .0237058
936.560 .0236958
937.196 .0236850
937.831 .0236729
938.466 .0236595
939.100 .0236454
939.734 .0236310
940.368 .0236165
941.001 .0236026
941.634 .0235897
942.266 .0235772
942.899 .0235654
943.530 .0235539
944.162 .0235420
944.793 .0235294
945.423 .0235151
946.053 .0234993
946.683 .0234819
947.313 .0234636
947.942 .0234442
948.571 .0234246
949.199 .0234057
949.827 .0233868
950.455 .0233682
951.082 .0233501
951.709 .0233325
952.335 .0233157
952.961 .0232997
953.587 .0232845
954.212 .0232697
954.837 .0232560
955.462 .0232426
956.086 .0232300
956.710 .0232184
957.334 .0232078
957.957 .0231978
958.579 .0231888
959.202 .0231802
959.824 .0231720
960.445 .0231640
961.067 .0231561
961.688 .0231472
962.308 .0231379
962.928 .0231280
963.548 .0231173
964.168 .0231059
964.787 .0230946
965.406 .0230833
966.024 .0230725
966.642 .0230617
967.260 .0230512
967.877 .0230403
968.494 .0230291
969.110 .0230170
969.727 .0230035
970.342 .0229899
970.958 .0229764
971.573 .0229632
972.188 .0229509
972.802 .0229395
973.416 .0229286
974.030 .0229178
974.643 .0229069
975.256 .0228952
975.869 .0228819
976.481 .0228679
977.093 .0228530
977.705 .0228377
978.316 .0228226
978.927 .0228082
979.538 .0227946
980.148 .0227825
980.758 .0227702
981.367 .0227576
981.977 .0227450
982.586 .0227326
983.194 .0227198
983.802 .0227078
984.410 .0226968
985.018 .0226871
985.625 .0226794
986.232 .0226737
986.838 .0226698
987.445 .0226683
988.050 .0226681
988.656 .0226677
989.261 .0226669
989.866 .0226652
990.471 .0226621
991.075 .0226585
991.679 .0226542
992.282 .0226491
992.886 .0226435
993.489 .0226379
994.091 .0226312
994.694 .0226241
995.296 .0226164
995.897 .0226075
996.499 .0225975
997.100 .0225858
997.701 .0225724
998.301 .0225586
998.901 .0225454
999.501 .0225341
1000.101 .0225246
1000.700 .0225176
1001.299 .0225121
1001.898 .0225079
1002.496 .0225033
1003.094 .0224983
1003.692 .0224919
1004.289 .0224843
1004.887 .0224751
1005.484 .0224649
1006.080 .0224542
1006.677 .0224438
1007.273 .0224348
1007.868 .0224267
1008.464 .0224187
1009.059 .0224112
1009.654 .0224023
1010.249 .0223927
1010.843 .0223826
1011.437 .0223720
1012.031 .0223614
1012.625 .0223518
1013.218 .0223432
1013.811 .0223353
1014.404 .0223294
1014.997 .0223249
1015.589 .0223214
1016.181 .0223199
1016.773 .0223198
1017.365 .0223199
1017.956 .0223201
1018.547 .0223199
1019.138 .0223190
1019.728 .0223171
1020.319 .0223130
1020.909 .0223065
1021.499 .0222987
1022.088 .0222899
1022.678 .0222800
1023.267 .0222706
1023.856 .0222630
1024.445 .0222560
1025.033 .0222505
1025.621 .0222452
1026.209 .0222400
1026.797 .0222346
1027.385 .0222292
1027.972 .0222237
1028.560 .0222189
1029.147 .0222142
1029.734 .0222108
1030.320 .0222088
1030.907 .0222083
1031.493 .0222082
1032.079 .0222088
1032.665 .0222103
1033.250 .0222111
1033.836 .0222104
1034.421 .0222089
1035.006 .0222063
1035.591 .0222032
1036.176 .0221985
1036.761 .0221923
1037.345 .0221850
1037.929 .0221763
1038.514 .0221660
1039.097 .0221542
1039.681 .0221423
1040.265 .0221303
1040.848 .0221194
1041.432 .0221104
1042.015 .0221035
1042.598 .0220993
1043.181 .0220980
1043.764 .0220988
1044.346 .0221012
1044.929 .0221036
1045.511 .0221058
1046.094 .0221072
1046.676 .0221087
1047.258 .0221089
1047.840 .0221083
1048.422 .0221088
1049.003 .0221098
1049.585 .0221108
1050.166 .0221128
1050.748 .0221140
1051.329 .0221154
1051.910 .0221157
1052.491 .0221151
1053.072 .0221128
1053.653 .0221098
1054.234 .0221055
1054.815 .0220994
1055.396 .0220918
1055.976 .0220835
1056.557 .0220733
1057.138 .0220627
1057.718 .0220521
1058.298 .0220411
1058.879 .0220314
1059.459 .0220234
1060.039 .0220169
1060.620 .0220116
1061.200 .0220060
1061.780 .0220009
1062.360 .0219944
1062.940 .0219865
1063.520 .0219780
1064.101 .0219683
1064.681 .0219608
1065.261 .0219545
1065.841 .0219506
1066.421 .0219503
1067.001 .0219535
1067.581 .0219579
1068.161 .0219622
1068.741 .0219658
1069.321 .0219671
1069.901 .0219648
1070.482 .0219614
1071.062 .0219569
1071.642 .0219519
1072.222 .0219482
1072.803 .0219476
1073.383 .0219497
1073.963 .0219564
1074.544 .0219647
1075.124 .0219751
1075.705 .0219853
1076.286 .0219939
1076.866 .0219988
1077.447 .0220014
1078.028 .0220021
1078.609 .0220005
1079.190 .0219971
1079.771 .0219933
1080.352 .0219895
1080.934 .0219862
1081.515 .0219825
1082.097 .0219817
1082.679 .0219816
1083.260 .0219816
1083.842 .0219813
1084.424 .0219836
1085.007 .0219862
1085.589 .0219881
1086.172 .0219907
1086.754 .0219925
1087.337 .0219945
1087.920 .0219970
1088.503 .0219993
1089.087 .0220039
1089.670 .0220119
1090.254 .0220209
1090.838 .0220295
1091.422 .0220392
1092.006 .0220450
1092.590 .0220474
1093.175 .0220469
1093.760 .0220418
1094.345 .0220320
1094.930 .0220203
1095.516 .0220103
1096.102 .0220027
1096.688 .0219995
1097.274 .0220008
1097.860 .0220060
1098.447 .0220164
1099.034 .0220286
1099.622 .0220427
1100.209 .0220619
1100.797 .0220862
1101.385 .0221128
1101.973 .0221415
1102.562 .0221723
1103.151 .0222036
1103.740 .0222340
1104.330 .0222620
1104.920 .0222864
1105.510 .0223060
1106.101 .0223207
1106.691 .0223302
1107.283 .0223369
1107.874 .0223399
1108.466 .0223368
1109.058 .0223270
1109.651 .0223124
1110.244 .0222883
1110.837 .0222571
1111.431 .0222227
1112.025 .0221876
1112.620 .0221549
1113.215 .0221267
1113.810 .0221063
1114.406 .0220965
1115.002 .0220945
1115.599 .0220988
1116.196 .0221023
1116.793 .0221068
1117.391 .0221065
1117.989 .0221035
1118.588 .0221031
1119.187 .0221040
1119.787 .0221081
1120.387 .0221173
1120.988 .0221286
1121.589 .0221429
1122.190 .0221531
1122.793 .0221571
1123.395 .0221510
1123.998 .0221347
1124.602 .0221081
1125.206 .0220747
1125.811 .0220411
1126.416 .0220129
1127.022 .0219926
1127.628 .0219848
1128.235 .0219846
1128.843 .0219966
1129.451 .0220229
1130.059 .0220560
1130.669 .0220954
1131.278 .0221390
1131.889 .0221810
1132.500 .0222232
1133.112 .0222618
1133.724 .0222991
1134.337 .0223390
1134.950 .0223787
1135.564 .0224180
1136.179 .0224566
1136.795 .0224974
1137.411 .0225363
1138.028 .0225710
1138.645 .0226016
1139.263 .0226240
1139.882 .0226389
1140.502 .0226579
1141.122 .0226776
1141.743 .0226977
1142.365 .0227119
1142.987 .0226636
1143.611 .0230027
1144.235 .0229505
1144.859 .0226991
1145.485 .0225047
