Measurement Sequence started on: 10-20-44-796
Integration time: 35
Scans to Average: 2 
>>>>>Begin Spectral Data<<<<<
432.953 .0352702
433.882 .0296157
434.810 .0303486
435.737 .0316338
436.662 .0306357
437.586 .0321120
438.509 .0322693
439.431 .0325639
440.351 .0327905
441.269 .0329424
442.187 .0330811
443.103 .0331568
444.018 .0332167
444.932 .0332849
445.844 .0333426
446.756 .0333727
447.666 .0333684
448.575 .0333506
449.482 .0333228
450.388 .0332805
451.294 .0332535
452.198 .0332462
453.100 .0332526
454.002 .0332763
454.902 .0333124
455.801 .0333462
456.699 .0333772
457.596 .0333903
458.492 .0333769
459.387 .0333400
460.280 .0332931
461.172 .0332379
462.064 .0331869
462.954 .0331416
463.843 .0330971
464.730 .0330615
465.617 .0330298
466.503 .0329940
467.387 .0329552
468.271 .0329093
469.153 .0328604
470.035 .0328053
470.915 .0327491
471.794 .0326912
472.673 .0326366
473.550 .0325900
474.426 .0325493
475.301 .0325142
476.175 .0324840
477.048 .0324595
477.920 .0324406
478.791 .0324268
479.661 .0324153
480.530 .0324069
481.398 .0323984
482.266 .0323874
483.132 .0323755
483.997 .0323606
484.861 .0323443
485.724 .0323280
486.587 .0323136
487.448 .0323022
488.308 .0322929
489.168 .0322857
490.026 .0322773
490.884 .0322683
491.741 .0322529
492.597 .0322302
493.452 .0322019
494.306 .0321683
495.159 .0321328
496.011 .0320965
496.862 .0320604
497.713 .0320235
498.562 .0319851
499.411 .0319451
500.259 .0319003
501.106 .0318497
501.952 .0317942
502.798 .0317364
503.642 .0316784
504.486 .0316184
505.329 .0315573
506.171 .0314958
507.012 .0314303
507.852 .0313553
508.692 .0312713
509.531 .0311759
510.369 .0310738
511.206 .0309683
512.043 .0308573
512.878 .0307471
513.713 .0306391
514.547 .0305351
515.381 .0304354
516.213 .0303335
517.045 .0302251
517.876 .0301050
518.706 .0299768
519.536 .0298384
520.365 .0296901
521.193 .0295383
522.020 .0293860
522.847 .0292263
523.673 .0290632
524.498 .0288901
525.323 .0287091
526.146 .0285247
526.969 .0283295
527.792 .0281244
528.614 .0279087
529.435 .0276915
530.255 .0274779
531.075 .0272668
531.894 .0270736
532.712 .0268895
533.530 .0267220
534.347 .0265718
535.163 .0264291
535.979 .0263033
536.794 .0261967
537.608 .0261017
538.422 .0260197
539.235 .0259560
540.048 .0259128
540.860 .0258951
541.671 .0259044
542.481 .0259402
543.292 .0259943
544.101 .0260666
544.910 .0261489
545.718 .0262272
546.526 .0263163
547.333 .0264053
548.139 .0264944
548.945 .0265899
549.750 .0266846
550.555 .0267832
551.359 .0268841
552.162 .0269808
552.965 .0270710
553.768 .0271473
554.569 .0272126
555.371 .0272592
556.171 .0272967
556.972 .0273276
557.771 .0273523
558.570 .0273773
559.369 .0274066
560.167 .0274346
560.964 .0274652
561.761 .0274959
562.558 .0275289
563.354 .0275658
564.149 .0276036
564.944 .0276399
565.738 .0276810
566.532 .0277232
567.325 .0277672
568.118 .0278093
568.910 .0278559
569.702 .0279049
570.494 .0279574
571.285 .0280163
572.075 .0280831
572.865 .0281584
573.654 .0282425
574.443 .0283275
575.232 .0284174
576.020 .0285070
576.807 .0285952
577.594 .0286812
578.381 .0287694
579.167 .0288573
579.952 .0289464
580.738 .0290373
581.522 .0291286
582.307 .0292187
583.091 .0293075
583.874 .0293894
584.657 .0294620
585.440 .0295243
586.222 .0295751
587.004 .0296145
587.785 .0296475
588.566 .0296745
589.346 .0296979
590.126 .0297200
590.906 .0297410
591.685 .0297616
592.464 .0297806
593.242 .0297982
594.020 .0298125
594.797 .0298239
595.575 .0298315
596.351 .0298341
597.128 .0298335
597.904 .0298311
598.679 .0298272
599.454 .0298219
600.229 .0298157
601.004 .0298098
601.778 .0298027
602.551 .0297944
603.325 .0297845
604.097 .0297727
604.870 .0297585
605.642 .0297428
606.414 .0297249
607.185 .0297055
607.956 .0296861
608.727 .0296671
609.497 .0296496
610.267 .0296339
611.037 .0296192
611.806 .0296056
612.575 .0295918
613.344 .0295775
614.112 .0295624
614.880 .0295468
615.647 .0295313
616.414 .0295153
617.181 .0294998
617.948 .0294851
618.714 .0294716
619.480 .0294589
620.245 .0294466
621.011 .0294343
621.775 .0294212
622.540 .0294070
623.304 .0293921
624.068 .0293771
624.832 .0293626
625.595 .0293496
626.358 .0293379
627.120 .0293265
627.883 .0293151
628.645 .0293033
629.406 .0292907
630.168 .0292765
630.929 .0292600
631.689 .0292425
632.450 .0292238
633.210 .0292054
633.970 .0291871
634.729 .0291700
635.489 .0291534
636.248 .0291372
637.006 .0291201
637.765 .0291020
638.523 .0290830
639.280 .0290633
640.038 .0290431
640.795 .0290239
641.552 .0290050
642.309 .0289879
643.065 .0289727
643.821 .0289595
644.577 .0289465
645.332 .0289338
646.088 .0289205
646.843 .0289057
647.597 .0288889
648.352 .0288705
649.106 .0288510
649.860 .0288305
650.613 .0288090
651.367 .0287872
652.120 .0287659
652.872 .0287451
653.625 .0287248
654.377 .0287060
655.129 .0286881
655.881 .0286716
656.632 .0286560
657.384 .0286416
658.135 .0286286
658.885 .0286166
659.636 .0286058
660.386 .0285955
661.136 .0285862
661.885 .0285770
662.635 .0285688
663.384 .0285615
664.133 .0285545
664.881 .0285476
665.630 .0285408
666.378 .0285329
667.126 .0285240
667.874 .0285130
668.621 .0285002
669.368 .0284855
670.115 .0284690
670.862 .0284508
671.608 .0284323
672.354 .0284142
673.100 .0283972
673.846 .0283815
674.591 .0283678
675.337 .0283555
676.082 .0283445
676.826 .0283347
677.571 .0283252
678.315 .0283162
679.059 .0283073
679.803 .0282979
680.547 .0282883
681.290 .0282779
682.033 .0282668
682.776 .0282548
683.518 .0282419
684.261 .0282281
685.003 .0282133
685.745 .0281974
686.487 .0281810
687.228 .0281639
687.969 .0281467
688.710 .0281287
689.451 .0281105
690.192 .0280921
690.932 .0280729
691.672 .0280534
692.412 .0280337
693.152 .0280142
693.891 .0279952
694.630 .0279767
695.369 .0279593
696.108 .0279423
696.846 .0279259
697.585 .0279094
698.323 .0278933
699.061 .0278773
699.798 .0278610
700.536 .0278445
701.273 .0278285
702.010 .0278128
702.746 .0277975
703.483 .0277820
704.219 .0277670
704.955 .0277524
705.691 .0277373
706.427 .0277222
707.162 .0277075
707.897 .0276933
708.632 .0276800
709.367 .0276670
710.101 .0276544
710.835 .0276423
711.569 .0276300
712.303 .0276172
713.037 .0276038
713.770 .0275899
714.503 .0275751
715.236 .0275600
715.969 .0275447
716.702 .0275291
717.434 .0275134
718.166 .0274977
718.898 .0274815
719.629 .0274650
720.361 .0274479
721.092 .0274303
721.823 .0274126
722.554 .0273951
723.284 .0273775
724.014 .0273598
724.744 .0273419
725.474 .0273233
726.204 .0273037
726.933 .0272830
727.662 .0272612
728.391 .0272386
729.120 .0272159
729.849 .0271935
730.577 .0271722
731.305 .0271524
732.033 .0271337
732.760 .0271158
733.488 .0270986
734.215 .0270808
734.942 .0270623
735.669 .0270426
736.395 .0270222
737.122 .0270011
737.848 .0269800
738.573 .0269599
739.299 .0269409
740.024 .0269233
740.750 .0269071
741.474 .0268913
742.199 .0268757
742.924 .0268597
743.648 .0268434
744.372 .0268265
745.096 .0268097
745.819 .0267930
746.543 .0267775
747.266 .0267638
747.989 .0267521
748.711 .0267424
749.434 .0267345
750.156 .0267279
750.878 .0267219
751.599 .0267166
752.321 .0267120
753.042 .0267080
753.763 .0267051
754.484 .0267032
755.205 .0267023
755.925 .0267020
756.645 .0267017
757.365 .0267014
758.085 .0267001
758.804 .0266970
759.523 .0266917
760.242 .0266844
760.961 .0266745
761.679 .0266630
762.397 .0266497
763.115 .0266350
763.833 .0266183
764.551 .0265999
765.268 .0265796
765.985 .0265578
766.702 .0265345
767.418 .0265101
768.134 .0264854
768.850 .0264615
769.566 .0264384
770.282 .0264165
770.997 .0263961
771.712 .0263773
772.427 .0263595
773.142 .0263425
773.856 .0263255
774.570 .0263090
775.284 .0262926
775.998 .0262765
776.711 .0262612
777.424 .0262467
778.137 .0262329
778.849 .0262198
779.562 .0262068
780.274 .0261932
780.986 .0261790
781.697 .0261642
782.409 .0261486
783.120 .0261335
783.831 .0261186
784.541 .0261045
785.252 .0260921
785.962 .0260813
786.671 .0260714
787.381 .0260628
788.090 .0260547
788.799 .0260463
789.508 .0260374
790.217 .0260282
790.925 .0260185
791.633 .0260088
792.341 .0259991
793.048 .0259889
793.755 .0259787
794.462 .0259680
795.169 .0259562
795.875 .0259437
796.581 .0259305
797.287 .0259163
797.993 .0259015
798.698 .0258865
799.403 .0258719
800.108 .0258579
800.812 .0258450
801.517 .0258331
802.221 .0258224
802.924 .0258127
803.628 .0258038
804.331 .0257959
805.034 .0257888
805.736 .0257821
806.439 .0257760
807.141 .0257702
807.843 .0257648
808.544 .0257596
809.245 .0257542
809.946 .0257487
810.647 .0257429
811.347 .0257363
812.047 .0257291
812.747 .0257215
813.447 .0257134
814.146 .0257047
814.845 .0256961
815.543 .0256874
816.242 .0256783
816.940 .0256695
817.638 .0256605
818.335 .0256519
819.032 .0256435
819.729 .0256349
820.426 .0256262
821.122 .0256174
821.818 .0256083
822.514 .0255988
823.209 .0255889
823.905 .0255789
824.599 .0255679
825.294 .0255563
825.988 .0255436
826.682 .0255300
827.376 .0255156
828.069 .0255003
828.762 .0254842
829.455 .0254674
830.147 .0254500
830.840 .0254327
831.531 .0254157
832.223 .0253996
832.914 .0253845
833.605 .0253708
834.296 .0253586
834.986 .0253479
835.676 .0253385
836.366 .0253304
837.055 .0253235
837.744 .0253171
838.433 .0253106
839.121 .0253039
839.809 .0252973
840.497 .0252904
841.185 .0252836
841.872 .0252767
842.559 .0252702
843.245 .0252637
843.932 .0252567
844.617 .0252492
845.303 .0252411
845.988 .0252321
846.673 .0252219
847.358 .0252107
848.042 .0251989
848.726 .0251868
849.410 .0251745
850.093 .0251625
850.776 .0251509
851.459 .0251398
852.141 .0251289
852.823 .0251183
853.505 .0251083
854.186 .0250981
854.867 .0250883
855.548 .0250786
856.228 .0250692
856.908 .0250595
857.588 .0250497
858.267 .0250399
858.946 .0250300
859.625 .0250200
860.303 .0250098
860.981 .0249999
861.659 .0249900
862.336 .0249797
863.013 .0249690
863.690 .0249579
864.366 .0249464
865.042 .0249339
865.718 .0249207
866.393 .0249069
867.068 .0248933
867.743 .0248797
868.417 .0248662
869.091 .0248534
869.765 .0248410
870.438 .0248285
871.111 .0248157
871.783 .0248028
872.456 .0247898
873.127 .0247769
873.799 .0247647
874.470 .0247530
875.141 .0247427
875.811 .0247334
876.481 .0247252
877.151 .0247176
877.820 .0247104
878.489 .0247026
879.158 .0246942
879.826 .0246852
880.494 .0246754
881.162 .0246651
881.829 .0246551
882.496 .0246450
883.163 .0246347
883.829 .0246239
884.495 .0246127
885.160 .0246013
885.825 .0245899
886.490 .0245785
887.154 .0245672
887.818 .0245560
888.482 .0245450
889.145 .0245339
889.808 .0245232
890.471 .0245127
891.133 .0245023
891.795 .0244918
892.456 .0244817
893.117 .0244722
893.778 .0244634
894.439 .0244555
895.099 .0244484
895.758 .0244418
896.417 .0244348
897.076 .0244273
897.735 .0244192
898.393 .0244106
899.051 .0244019
899.708 .0243926
900.365 .0243832
901.022 .0243736
901.678 .0243641
902.334 .0243544
902.990 .0243445
903.645 .0243339
904.300 .0243224
904.954 .0243103
905.608 .0242975
906.262 .0242844
906.915 .0242717
907.568 .0242597
908.221 .0242484
908.873 .0242378
909.525 .0242275
910.176 .0242175
910.828 .0242081
911.478 .0241990
912.129 .0241896
912.778 .0241801
913.428 .0241706
914.077 .0241613
914.726 .0241518
915.375 .0241422
916.023 .0241327
916.670 .0241239
917.318 .0241152
917.964 .0241067
918.611 .0240984
919.257 .0240905
919.903 .0240825
920.548 .0240747
921.193 .0240669
921.838 .0240597
922.482 .0240529
923.126 .0240468
923.770 .0240418
924.413 .0240378
925.056 .0240344
925.698 .0240321
926.340 .0240303
926.982 .0240286
927.623 .0240258
928.264 .0240224
928.904 .0240175
929.544 .0240118
930.184 .0240046
930.823 .0239956
931.462 .0239854
932.101 .0239740
932.739 .0239613
933.377 .0239479
934.014 .0239336
934.651 .0239187
935.288 .0239033
935.924 .0238881
936.560 .0238728
937.196 .0238582
937.831 .0238447
938.466 .0238323
939.100 .0238207
939.734 .0238101
940.368 .0237996
941.001 .0237897
941.634 .0237802
942.266 .0237707
942.899 .0237610
943.530 .0237514
944.162 .0237417
944.793 .0237320
945.423 .0237219
946.053 .0237110
946.683 .0236989
947.313 .0236855
947.942 .0236703
948.571 .0236531
949.199 .0236339
949.827 .0236132
950.455 .0235910
951.082 .0235682
951.709 .0235451
952.335 .0235226
952.961 .0235008
953.587 .0234800
954.212 .0234602
954.837 .0234411
955.462 .0234229
956.086 .0234058
956.710 .0233899
957.334 .0233754
957.957 .0233620
958.579 .0233500
959.202 .0233391
959.824 .0233295
960.445 .0233205
961.067 .0233123
961.688 .0233046
962.308 .0232972
962.928 .0232903
963.548 .0232840
964.168 .0232779
964.787 .0232718
965.406 .0232656
966.024 .0232585
966.642 .0232507
967.260 .0232422
967.877 .0232328
968.494 .0232237
969.110 .0232151
969.727 .0232070
970.342 .0232003
970.958 .0231952
971.573 .0231916
972.188 .0231891
972.802 .0231876
973.416 .0231864
974.030 .0231851
974.643 .0231838
975.256 .0231822
975.869 .0231810
976.481 .0231804
977.093 .0231805
977.705 .0231816
978.316 .0231838
978.927 .0231866
979.538 .0231893
980.148 .0231917
980.758 .0231932
981.367 .0231938
981.977 .0231937
982.586 .0231934
983.194 .0231937
983.802 .0231947
984.410 .0231967
985.018 .0231994
985.625 .0232025
986.232 .0232056
986.838 .0232080
987.445 .0232096
988.050 .0232097
988.656 .0232090
989.261 .0232072
989.866 .0232045
990.471 .0232014
991.075 .0231984
991.679 .0231952
992.282 .0231922
992.886 .0231894
993.489 .0231865
994.091 .0231837
994.694 .0231808
995.296 .0231777
995.897 .0231746
996.499 .0231711
997.100 .0231674
997.701 .0231637
998.301 .0231607
998.901 .0231580
999.501 .0231560
1000.101 .0231551
1000.700 .0231548
1001.299 .0231547
1001.898 .0231551
1002.496 .0231554
1003.094 .0231553
1003.692 .0231551
1004.289 .0231546
1004.887 .0231544
1005.484 .0231551
1006.080 .0231568
1006.677 .0231594
1007.273 .0231628
1007.868 .0231670
1008.464 .0231713
1009.059 .0231763
1009.654 .0231817
1010.249 .0231868
1010.843 .0231927
1011.437 .0231989
1012.031 .0232045
1012.625 .0232105
1013.218 .0232160
1013.811 .0232210
1014.404 .0232249
1014.997 .0232276
1015.589 .0232282
1016.181 .0232281
1016.773 .0232270
1017.365 .0232255
1017.956 .0232231
1018.547 .0232214
1019.138 .0232190
1019.728 .0232170
1020.319 .0232157
1020.909 .0232147
1021.499 .0232137
1022.088 .0232132
1022.678 .0232114
1023.267 .0232092
1023.856 .0232058
1024.445 .0232024
1025.033 .0231980
1025.621 .0231939
1026.209 .0231896
1026.797 .0231852
1027.385 .0231817
1027.972 .0231791
1028.560 .0231766
1029.147 .0231744
1029.734 .0231724
1030.320 .0231702
1030.907 .0231683
1031.493 .0231684
1032.079 .0231701
1032.665 .0231748
1033.250 .0231822
1033.836 .0231914
1034.421 .0232016
1035.006 .0232127
1035.591 .0232227
1036.176 .0232307
1036.761 .0232372
1037.345 .0232413
1037.929 .0232435
1038.514 .0232451
1039.097 .0232462
1039.681 .0232478
1040.265 .0232494
1040.848 .0232510
1041.432 .0232506
1042.015 .0232489
1042.598 .0232444
1043.181 .0232370
1043.764 .0232284
1044.346 .0232185
1044.929 .0232086
1045.511 .0231997
1046.094 .0231921
1046.676 .0231866
1047.258 .0231829
1047.840 .0231809
1048.422 .0231792
1049.003 .0231775
1049.585 .0231747
1050.166 .0231712
1050.748 .0231671
1051.329 .0231626
1051.910 .0231581
1052.491 .0231549
1053.072 .0231526
1053.653 .0231505
1054.234 .0231489
1054.815 .0231470
1055.396 .0231449
1055.976 .0231426
1056.557 .0231390
1057.138 .0231348
1057.718 .0231303
1058.298 .0231259
1058.879 .0231209
1059.459 .0231157
1060.039 .0231104
1060.620 .0231033
1061.200 .0230953
1061.780 .0230853
1062.360 .0230723
1062.940 .0230580
1063.520 .0230423
1064.101 .0230252
1064.681 .0230082
1065.261 .0229906
1065.841 .0229732
1066.421 .0229561
1067.001 .0229403
1067.581 .0229242
1068.161 .0229083
1068.741 .0228939
1069.321 .0228799
1069.901 .0228666
1070.482 .0228545
1071.062 .0228430
1071.642 .0228331
1072.222 .0228256
1072.803 .0228195
1073.383 .0228155
1073.963 .0228141
1074.544 .0228146
1075.124 .0228166
1075.705 .0228195
1076.286 .0228224
1076.866 .0228242
1077.447 .0228253
1078.028 .0228247
1078.609 .0228207
1079.190 .0228153
1079.771 .0228091
1080.352 .0228030
1080.934 .0227978
1081.515 .0227939
1082.097 .0227908
1082.679 .0227888
1083.260 .0227857
1083.842 .0227815
1084.424 .0227753
1085.007 .0227674
1085.589 .0227575
1086.172 .0227458
1086.754 .0227339
1087.337 .0227220
1087.920 .0227102
1088.503 .0227005
1089.087 .0226913
1089.670 .0226802
1090.254 .0226658
1090.838 .0226498
1091.422 .0226310
1092.006 .0226109
1092.590 .0225906
1093.175 .0225719
1093.760 .0225551
1094.345 .0225412
1094.930 .0225273
1095.516 .0225154
1096.102 .0225056
1096.688 .0224953
1097.274 .0224840
1097.860 .0224740
1098.447 .0224639
1099.034 .0224557
1099.622 .0224498
1100.209 .0224484
1100.797 .0224478
1101.385 .0224485
1101.973 .0224468
1102.562 .0224413
1103.151 .0224317
1103.740 .0224165
1104.330 .0223972
1104.920 .0223792
1105.510 .0223609
1106.101 .0223454
1106.691 .0223332
1107.283 .0223250
1107.874 .0223178
1108.466 .0223102
1109.058 .0222990
1109.651 .0222846
1110.244 .0222665
1110.837 .0222462
1111.431 .0222245
1112.025 .0222065
1112.620 .0221932
1113.215 .0221856
1113.810 .0221861
1114.406 .0221923
1115.002 .0222011
1115.599 .0222134
1116.196 .0222250
1116.793 .0222355
1117.391 .0222456
1117.989 .0222555
1118.588 .0222674
1119.187 .0222808
1119.787 .0222966
1120.387 .0223144
1120.988 .0223370
1121.589 .0223621
1122.190 .0223866
1122.793 .0224099
1123.395 .0224319
1123.998 .0224487
1124.602 .0224613
1125.206 .0224676
1125.811 .0224700
1126.416 .0224686
1127.022 .0224649
1127.628 .0224545
1128.235 .0224437
1128.843 .0224325
1129.451 .0224225
1130.059 .0224148
1130.669 .0224107
1131.278 .0224076
1131.889 .0224081
1132.500 .0224104
1133.112 .0224156
1133.724 .0224225
1134.337 .0224388
1134.950 .0224615
1135.564 .0224968
1136.179 .0225432
1136.795 .0226018
1137.411 .0226724
1138.028 .0227566
1138.645 .0228475
1139.263 .0229433
1139.882 .0230425
1140.502 .0231521
1141.122 .0232686
1141.743 .0233814
1142.365 .0234920
1142.987 .0235731
1143.611 .0238901
1144.235 .0240418
1144.859 .0237948
1145.485 .0238400
