Measurement Sequence started on: 10-20-44-796
Integration time: 35
Scans to Average: 2 
>>>>>Begin Spectral Data<<<<<
432.953 .0205857
433.882 .0228796
434.810 .0272463
435.737 .0274855
436.662 .0275028
437.586 .0288850
438.509 .0298674
439.431 .0306467
440.351 .0312251
441.269 .0317374
442.187 .0321772
443.103 .0325058
444.018 .0327770
444.932 .0330142
445.844 .0332090
446.756 .0333743
447.666 .0334992
448.575 .0335851
449.482 .0336593
450.388 .0337109
451.294 .0337398
452.198 .0337603
453.100 .0337796
454.002 .0337923
454.902 .0338027
455.801 .0338081
456.699 .0338039
457.596 .0337930
458.492 .0337799
459.387 .0337550
460.280 .0337206
461.172 .0336832
462.064 .0336411
462.954 .0335881
463.843 .0335290
464.730 .0334612
465.617 .0333851
466.503 .0333028
467.387 .0332136
468.271 .0331142
469.153 .0330122
470.035 .0329097
470.915 .0328141
471.794 .0327231
472.673 .0326408
473.550 .0325704
474.426 .0325165
475.301 .0324779
476.175 .0324477
477.048 .0324242
477.920 .0324089
478.791 .0323951
479.661 .0323826
480.530 .0323702
481.398 .0323632
482.266 .0323650
483.132 .0323703
483.997 .0323809
484.861 .0323921
485.724 .0324020
486.587 .0324081
487.448 .0324049
488.308 .0323911
489.168 .0323651
490.026 .0323281
490.884 .0322853
491.741 .0322365
492.597 .0321875
493.452 .0321409
494.306 .0320972
495.159 .0320571
496.011 .0320179
496.862 .0319794
497.713 .0319405
498.562 .0318969
499.411 .0318541
500.259 .0318067
501.106 .0317581
501.952 .0317109
502.798 .0316644
503.642 .0316183
504.486 .0315727
505.329 .0315248
506.171 .0314702
507.012 .0314120
507.852 .0313502
508.692 .0312762
509.531 .0311908
510.369 .0310946
511.206 .0309854
512.043 .0308628
512.878 .0307296
513.713 .0305820
514.547 .0304261
515.381 .0302647
516.213 .0300942
517.045 .0299168
517.876 .0297417
518.706 .0295707
519.536 .0293981
520.365 .0292295
521.193 .0290572
522.020 .0288768
522.847 .0286969
523.673 .0285171
524.498 .0283272
525.323 .0281344
526.146 .0279536
526.969 .0277823
527.792 .0276236
528.614 .0274805
529.435 .0273531
530.255 .0272457
531.075 .0271430
531.894 .0270377
532.712 .0269203
533.530 .0268099
534.347 .0267007
535.163 .0265839
535.979 .0264781
536.794 .0263889
537.608 .0263112
538.422 .0262508
539.235 .0262017
540.048 .0261577
540.860 .0261150
541.671 .0260741
542.481 .0260239
543.292 .0259686
544.101 .0259164
544.910 .0258762
545.718 .0258520
546.526 .0258555
547.333 .0258789
548.139 .0259260
548.945 .0260006
549.750 .0260836
550.555 .0261723
551.359 .0262622
552.162 .0263473
552.965 .0264269
553.768 .0265016
554.569 .0265764
555.371 .0266536
556.171 .0267367
556.972 .0268246
557.771 .0269108
558.570 .0269948
559.369 .0270737
560.167 .0271424
560.964 .0272050
561.761 .0272590
562.558 .0273036
563.354 .0273504
564.149 .0273990
564.944 .0274542
565.738 .0275173
566.532 .0275848
567.325 .0276590
568.118 .0277373
568.910 .0278208
569.702 .0279069
570.494 .0279993
571.285 .0280983
572.075 .0282010
572.865 .0283066
573.654 .0284135
574.443 .0285190
575.232 .0286215
576.020 .0287162
576.807 .0288031
577.594 .0288806
578.381 .0289509
579.167 .0290165
579.952 .0290794
580.738 .0291402
581.522 .0291980
582.307 .0292510
583.091 .0293003
583.874 .0293427
584.657 .0293774
585.440 .0294048
586.222 .0294276
587.004 .0294461
587.785 .0294629
588.566 .0294804
589.346 .0295019
590.126 .0295265
590.906 .0295533
591.685 .0295805
592.464 .0296081
593.242 .0296346
594.020 .0296577
594.797 .0296784
595.575 .0296974
596.351 .0297142
597.128 .0297294
597.904 .0297426
598.679 .0297550
599.454 .0297657
600.229 .0297755
601.004 .0297827
601.778 .0297871
602.551 .0297891
603.325 .0297872
604.097 .0297815
604.870 .0297731
605.642 .0297623
606.414 .0297499
607.185 .0297367
607.956 .0297231
608.727 .0297088
609.497 .0296940
610.267 .0296783
611.037 .0296617
611.806 .0296433
612.575 .0296240
613.344 .0296035
614.112 .0295833
614.880 .0295649
615.647 .0295476
616.414 .0295328
617.181 .0295213
617.948 .0295117
618.714 .0295026
619.480 .0294939
620.245 .0294856
621.011 .0294765
621.775 .0294668
622.540 .0294564
623.304 .0294464
624.068 .0294377
624.832 .0294294
625.595 .0294215
626.358 .0294145
627.120 .0294070
627.883 .0293972
628.645 .0293851
629.406 .0293706
630.168 .0293529
630.929 .0293334
631.689 .0293118
632.450 .0292888
633.210 .0292657
633.970 .0292413
634.729 .0292166
635.489 .0291920
636.248 .0291661
637.006 .0291394
637.765 .0291126
638.523 .0290850
639.280 .0290569
640.038 .0290288
640.795 .0290013
641.552 .0289747
642.309 .0289494
643.065 .0289266
643.821 .0289057
644.577 .0288878
645.332 .0288718
646.088 .0288564
646.843 .0288430
647.597 .0288293
648.352 .0288160
649.106 .0288039
649.860 .0287927
650.613 .0287834
651.367 .0287757
652.120 .0287702
652.872 .0287665
653.625 .0287641
654.377 .0287623
655.129 .0287600
655.881 .0287561
656.632 .0287504
657.384 .0287424
658.135 .0287325
658.885 .0287204
659.636 .0287076
660.386 .0286954
661.136 .0286836
661.885 .0286725
662.635 .0286626
663.384 .0286533
664.133 .0286447
664.881 .0286347
665.630 .0286231
666.378 .0286106
667.126 .0285969
667.874 .0285820
668.621 .0285675
669.368 .0285537
670.115 .0285414
670.862 .0285303
671.608 .0285213
672.354 .0285136
673.100 .0285067
673.846 .0284996
674.591 .0284916
675.337 .0284826
676.082 .0284720
676.826 .0284596
677.571 .0284464
678.315 .0284323
679.059 .0284179
679.803 .0284033
680.547 .0283889
681.290 .0283748
682.033 .0283610
682.776 .0283471
683.518 .0283328
684.261 .0283177
685.003 .0283019
685.745 .0282857
686.487 .0282696
687.228 .0282540
687.969 .0282385
688.710 .0282233
689.451 .0282083
690.192 .0281933
690.932 .0281780
691.672 .0281618
692.412 .0281442
693.152 .0281254
693.891 .0281045
694.630 .0280821
695.369 .0280582
696.108 .0280341
696.846 .0280097
697.585 .0279848
698.323 .0279590
699.061 .0279324
699.798 .0279046
700.536 .0278759
701.273 .0278466
702.010 .0278172
702.746 .0277881
703.483 .0277604
704.219 .0277348
704.955 .0277119
705.691 .0276917
706.427 .0276742
707.162 .0276588
707.897 .0276451
708.632 .0276323
709.367 .0276199
710.101 .0276086
710.835 .0275986
711.569 .0275899
712.303 .0275828
713.037 .0275772
713.770 .0275725
714.503 .0275685
715.236 .0275648
715.969 .0275599
716.702 .0275536
717.434 .0275463
718.166 .0275371
718.898 .0275260
719.629 .0275130
720.361 .0274984
721.092 .0274822
721.823 .0274646
722.554 .0274450
723.284 .0274242
724.014 .0274023
724.744 .0273798
725.474 .0273567
726.204 .0273339
726.933 .0273113
727.662 .0272885
728.391 .0272661
729.120 .0272442
729.849 .0272221
730.577 .0272009
731.305 .0271808
732.033 .0271618
732.760 .0271443
733.488 .0271291
734.215 .0271158
734.942 .0271049
735.669 .0270950
736.395 .0270854
737.122 .0270756
737.848 .0270653
738.573 .0270537
739.299 .0270409
740.024 .0270277
740.750 .0270141
741.474 .0270004
742.199 .0269874
742.924 .0269739
743.648 .0269602
744.372 .0269466
745.096 .0269320
745.819 .0269157
746.543 .0268984
747.266 .0268806
747.989 .0268635
748.711 .0268470
749.434 .0268317
750.156 .0268180
750.878 .0268059
751.599 .0267959
752.321 .0267868
753.042 .0267797
753.763 .0267744
754.484 .0267701
755.205 .0267674
755.925 .0267662
756.645 .0267664
757.365 .0267674
758.085 .0267690
758.804 .0267705
759.523 .0267696
760.242 .0267662
760.961 .0267600
761.679 .0267506
762.397 .0267384
763.115 .0267233
763.833 .0267054
764.551 .0266864
765.268 .0266656
765.985 .0266434
766.702 .0266203
767.418 .0265970
768.134 .0265730
768.850 .0265487
769.566 .0265251
770.282 .0265025
770.997 .0264809
771.712 .0264613
772.427 .0264431
773.142 .0264268
773.856 .0264123
774.570 .0263987
775.284 .0263865
775.998 .0263760
776.711 .0263662
777.424 .0263574
778.137 .0263487
778.849 .0263402
779.562 .0263305
780.274 .0263193
780.986 .0263063
781.697 .0262915
782.409 .0262756
783.120 .0262589
783.831 .0262418
784.541 .0262252
785.252 .0262092
785.962 .0261938
786.671 .0261794
787.381 .0261660
788.090 .0261531
788.799 .0261404
789.508 .0261273
790.217 .0261140
790.925 .0261002
791.633 .0260863
792.341 .0260721
793.048 .0260576
793.755 .0260429
794.462 .0260274
795.169 .0260119
795.875 .0259962
796.581 .0259803
797.287 .0259640
797.993 .0259472
798.698 .0259305
799.403 .0259128
800.108 .0258949
800.812 .0258767
801.517 .0258591
802.221 .0258423
802.924 .0258258
803.628 .0258108
804.331 .0257972
805.034 .0257851
805.736 .0257741
806.439 .0257634
807.141 .0257539
807.843 .0257451
808.544 .0257362
809.245 .0257275
809.946 .0257194
810.647 .0257119
811.347 .0257051
812.047 .0256989
812.747 .0256933
813.447 .0256874
814.146 .0256810
814.845 .0256744
815.543 .0256668
816.242 .0256590
816.940 .0256502
817.638 .0256407
818.335 .0256314
819.032 .0256208
819.729 .0256094
820.426 .0255978
821.122 .0255857
821.818 .0255726
822.514 .0255582
823.209 .0255433
823.905 .0255274
824.599 .0255110
825.294 .0254946
825.988 .0254779
826.682 .0254616
827.376 .0254454
828.069 .0254292
828.762 .0254133
829.455 .0253978
830.147 .0253824
830.840 .0253672
831.531 .0253523
832.223 .0253376
832.914 .0253231
833.605 .0253088
834.296 .0252949
834.986 .0252813
835.676 .0252671
836.366 .0252525
837.055 .0252369
837.744 .0252203
838.433 .0252025
839.121 .0251845
839.809 .0251664
840.497 .0251487
841.185 .0251325
841.872 .0251171
842.559 .0251032
843.245 .0250907
843.932 .0250787
844.617 .0250674
845.303 .0250558
845.988 .0250443
846.673 .0250324
847.358 .0250210
848.042 .0250100
848.726 .0249996
849.410 .0249905
850.093 .0249816
850.776 .0249728
851.459 .0249638
852.141 .0249544
852.823 .0249440
853.505 .0249334
854.186 .0249225
854.867 .0249114
855.548 .0249014
856.228 .0248921
856.908 .0248843
857.588 .0248771
858.267 .0248706
858.946 .0248644
859.625 .0248575
860.303 .0248501
860.981 .0248417
861.659 .0248337
862.336 .0248254
863.013 .0248173
863.690 .0248097
864.366 .0248020
865.042 .0247942
865.718 .0247859
866.393 .0247771
867.068 .0247672
867.743 .0247567
868.417 .0247449
869.091 .0247321
869.765 .0247193
870.438 .0247056
871.111 .0246919
871.783 .0246790
872.456 .0246661
873.127 .0246528
873.799 .0246403
874.470 .0246285
875.141 .0246174
875.811 .0246071
876.481 .0245975
877.151 .0245884
877.820 .0245802
878.489 .0245722
879.158 .0245641
879.826 .0245568
880.494 .0245497
881.162 .0245421
881.829 .0245355
882.496 .0245295
883.163 .0245240
883.829 .0245197
884.495 .0245161
885.160 .0245128
885.825 .0245098
886.490 .0245066
887.154 .0245039
887.818 .0245012
888.482 .0244984
889.145 .0244947
889.808 .0244908
890.471 .0244867
891.133 .0244818
891.795 .0244765
892.456 .0244711
893.117 .0244655
893.778 .0244598
894.439 .0244538
895.099 .0244479
895.758 .0244424
896.417 .0244374
897.076 .0244321
897.735 .0244268
898.393 .0244213
899.051 .0244157
899.708 .0244101
900.365 .0244046
901.022 .0243999
901.678 .0243958
902.334 .0243927
902.990 .0243901
903.645 .0243883
904.300 .0243867
904.954 .0243852
905.608 .0243833
906.262 .0243813
906.915 .0243795
907.568 .0243774
908.221 .0243750
908.873 .0243730
909.525 .0243706
910.176 .0243678
910.828 .0243644
911.478 .0243604
912.129 .0243549
912.778 .0243481
913.428 .0243402
914.077 .0243314
914.726 .0243214
915.375 .0243108
916.023 .0242993
916.670 .0242880
917.318 .0242762
917.964 .0242636
918.611 .0242512
919.257 .0242392
919.903 .0242270
920.548 .0242146
921.193 .0242028
921.838 .0241926
922.482 .0241836
923.126 .0241764
923.770 .0241706
924.413 .0241670
925.056 .0241652
925.698 .0241648
926.340 .0241656
926.982 .0241675
927.623 .0241701
928.264 .0241724
928.904 .0241745
929.544 .0241745
930.184 .0241725
930.823 .0241684
931.462 .0241618
932.101 .0241528
932.739 .0241410
933.377 .0241275
934.014 .0241122
934.651 .0240956
935.288 .0240776
935.924 .0240584
936.560 .0240387
937.196 .0240186
937.831 .0239979
938.466 .0239772
939.100 .0239569
939.734 .0239373
940.368 .0239187
941.001 .0239016
941.634 .0238853
942.266 .0238707
942.899 .0238576
943.530 .0238455
944.162 .0238337
944.793 .0238228
945.423 .0238120
946.053 .0238008
946.683 .0237892
947.313 .0237766
947.942 .0237629
948.571 .0237479
949.199 .0237307
949.827 .0237112
950.455 .0236900
951.082 .0236676
951.709 .0236438
952.335 .0236197
952.961 .0235956
953.587 .0235716
954.212 .0235478
954.837 .0235244
955.462 .0235011
956.086 .0234785
956.710 .0234566
957.334 .0234355
957.957 .0234151
958.579 .0233965
959.202 .0233793
959.824 .0233635
960.445 .0233492
961.067 .0233355
961.688 .0233219
962.308 .0233085
962.928 .0232955
963.548 .0232819
964.168 .0232679
964.787 .0232537
965.406 .0232391
966.024 .0232244
966.642 .0232097
967.260 .0231949
967.877 .0231805
968.494 .0231667
969.110 .0231522
969.727 .0231376
970.342 .0231240
970.958 .0231109
971.573 .0230988
972.188 .0230883
972.802 .0230796
973.416 .0230726
974.030 .0230674
974.643 .0230638
975.256 .0230612
975.869 .0230600
976.481 .0230593
977.093 .0230588
977.705 .0230592
978.316 .0230604
978.927 .0230623
979.538 .0230652
980.148 .0230681
980.758 .0230709
981.367 .0230734
981.977 .0230747
982.586 .0230749
983.194 .0230740
983.802 .0230721
984.410 .0230689
985.018 .0230653
985.625 .0230606
986.232 .0230553
986.838 .0230500
987.445 .0230440
988.050 .0230370
988.656 .0230289
989.261 .0230195
989.866 .0230091
990.471 .0229990
991.075 .0229888
991.679 .0229785
992.282 .0229701
992.886 .0229624
993.489 .0229553
994.091 .0229482
994.694 .0229413
995.296 .0229338
995.897 .0229258
996.499 .0229166
997.100 .0229058
997.701 .0228945
998.301 .0228838
998.901 .0228733
999.501 .0228641
1000.101 .0228558
1000.700 .0228489
1001.299 .0228425
1001.898 .0228373
1002.496 .0228317
1003.094 .0228269
1003.692 .0228223
1004.289 .0228173
1004.887 .0228121
1005.484 .0228070
1006.080 .0228020
1006.677 .0227981
1007.273 .0227951
1007.868 .0227936
1008.464 .0227930
1009.059 .0227939
1009.654 .0227955
1010.249 .0227989
1010.843 .0228033
1011.437 .0228085
1012.031 .0228147
1012.625 .0228215
1013.218 .0228282
1013.811 .0228355
1014.404 .0228430
1014.997 .0228502
1015.589 .0228566
1016.181 .0228627
1016.773 .0228669
1017.365 .0228696
1017.956 .0228698
1018.547 .0228679
1019.138 .0228641
1019.728 .0228592
1020.319 .0228526
1020.909 .0228455
1021.499 .0228380
1022.088 .0228303
1022.678 .0228220
1023.267 .0228137
1023.856 .0228050
1024.445 .0227971
1025.033 .0227904
1025.621 .0227854
1026.209 .0227820
1026.797 .0227806
1027.385 .0227806
1027.972 .0227817
1028.560 .0227829
1029.147 .0227836
1029.734 .0227841
1030.320 .0227840
1030.907 .0227830
1031.493 .0227827
1032.079 .0227834
1032.665 .0227853
1033.250 .0227881
1033.836 .0227922
1034.421 .0227971
1035.006 .0228025
1035.591 .0228088
1036.176 .0228163
1036.761 .0228251
1037.345 .0228355
1037.929 .0228460
1038.514 .0228572
1039.097 .0228687
1039.681 .0228798
1040.265 .0228891
1040.848 .0228969
1041.432 .0229027
1042.015 .0229061
1042.598 .0229075
1043.181 .0229075
1043.764 .0229054
1044.346 .0229029
1044.929 .0228998
1045.511 .0228957
1046.094 .0228915
1046.676 .0228874
1047.258 .0228835
1047.840 .0228811
1048.422 .0228792
1049.003 .0228786
1049.585 .0228793
1050.166 .0228814
1050.748 .0228830
1051.329 .0228834
1051.910 .0228819
1052.491 .0228791
1053.072 .0228745
1053.653 .0228683
1054.234 .0228602
1054.815 .0228528
1055.396 .0228453
1055.976 .0228369
1056.557 .0228281
1057.138 .0228196
1057.718 .0228113
1058.298 .0228047
1058.879 .0227983
1059.459 .0227928
1060.039 .0227896
1060.620 .0227878
1061.200 .0227862
1061.780 .0227852
1062.360 .0227839
1062.940 .0227825
1063.520 .0227803
1064.101 .0227782
1064.681 .0227756
1065.261 .0227740
1065.841 .0227733
1066.421 .0227717
1067.001 .0227695
1067.581 .0227644
1068.161 .0227562
1068.741 .0227444
1069.321 .0227303
1069.901 .0227141
1070.482 .0226972
1071.062 .0226809
1071.642 .0226672
1072.222 .0226557
1072.803 .0226481
1073.383 .0226441
1073.963 .0226434
1074.544 .0226455
1075.124 .0226501
1075.705 .0226566
1076.286 .0226662
1076.866 .0226768
1077.447 .0226899
1078.028 .0227018
1078.609 .0227132
1079.190 .0227224
1079.771 .0227303
1080.352 .0227385
1080.934 .0227462
1081.515 .0227554
1082.097 .0227672
1082.679 .0227810
1083.260 .0227966
1083.842 .0228113
1084.424 .0228248
1085.007 .0228351
1085.589 .0228397
1086.172 .0228384
1086.754 .0228321
1087.337 .0228217
1087.920 .0228086
1088.503 .0227950
1089.087 .0227802
1089.670 .0227649
1090.254 .0227491
1090.838 .0227339
1091.422 .0227189
1092.006 .0227034
1092.590 .0226866
1093.175 .0226697
1093.760 .0226534
1094.345 .0226348
1094.930 .0226129
1095.516 .0225923
1096.102 .0225731
1096.688 .0225555
1097.274 .0225428
1097.860 .0225361
1098.447 .0225389
1099.034 .0225505
1099.622 .0225664
1100.209 .0225865
1100.797 .0226087
1101.385 .0226287
1101.973 .0226445
1102.562 .0226558
1103.151 .0226634
1103.740 .0226685
1104.330 .0226764
1104.920 .0226872
1105.510 .0227015
1106.101 .0227213
1106.691 .0227423
1107.283 .0227621
1107.874 .0227794
1108.466 .0227891
1109.058 .0227912
1109.651 .0227892
1110.244 .0227817
1110.837 .0227711
1111.431 .0227625
1112.025 .0227590
1112.620 .0227609
1113.215 .0227675
1113.810 .0227753
1114.406 .0227796
1115.002 .0227763
1115.599 .0227643
1116.196 .0227406
1116.793 .0227093
1117.391 .0226731
1117.989 .0226371
1118.588 .0226054
1119.187 .0225800
1119.787 .0225626
1120.387 .0225514
1120.988 .0225450
1121.589 .0225365
1122.190 .0225207
1122.793 .0224984
1123.395 .0224699
1123.998 .0224422
1124.602 .0224189
1125.206 .0224068
1125.811 .0224106
1126.416 .0224283
1127.022 .0224592
1127.628 .0224979
1128.235 .0225423
1128.843 .0225823
1129.451 .0226151
1130.059 .0226392
1130.669 .0226549
1131.278 .0226703
1131.889 .0226901
1132.500 .0227207
1133.112 .0227668
1133.724 .0228274
1134.337 .0228967
1134.950 .0229718
1135.564 .0230554
1136.179 .0231337
1136.795 .0232100
1137.411 .0232830
1138.028 .0233500
1138.645 .0234199
1139.263 .0234962
1139.882 .0235787
1140.502 .0236668
1141.122 .0237579
1141.743 .0238464
1142.365 .0239128
1142.987 .0240950
1143.611 .0241447
1144.235 .0241117
1144.859 .0241321
1145.485 .0238142
