Measurement Sequence started on: 10-20-44-796
Integration time: 35
Scans to Average: 2 
>>>>>Begin Spectral Data<<<<<
432.953 .0305699
433.882 .0409519
434.810 .0356782
435.737 .0349214
436.662 .0367898
437.586 .0368508
438.509 .0371099
439.431 .0370655
440.351 .0371589
441.269 .0372320
442.187 .0372278
443.103 .0372114
444.018 .0371802
444.932 .0371836
445.844 .0371807
446.756 .0371373
447.666 .0370903
448.575 .0370312
449.482 .0369700
450.388 .0369003
451.294 .0368351
452.198 .0367839
453.100 .0367464
454.002 .0367229
454.902 .0367058
455.801 .0366949
456.699 .0366988
457.596 .0367060
458.492 .0367164
459.387 .0367272
460.280 .0367473
461.172 .0367685
462.064 .0367982
462.954 .0368260
463.843 .0368521
464.730 .0368765
465.617 .0369010
466.503 .0369226
467.387 .0369331
468.271 .0369399
469.153 .0369401
470.035 .0369337
470.915 .0369260
471.794 .0369157
472.673 .0369019
473.550 .0368887
474.426 .0368677
475.301 .0368428
476.175 .0368091
477.048 .0367692
477.920 .0367180
478.791 .0366588
479.661 .0365963
480.530 .0365298
481.398 .0364648
482.266 .0364071
483.132 .0363530
483.997 .0363035
484.861 .0362574
485.724 .0362149
486.587 .0361747
487.448 .0361411
488.308 .0361095
489.168 .0360858
490.026 .0360635
490.884 .0360454
491.741 .0360240
492.597 .0359991
493.452 .0359695
494.306 .0359282
495.159 .0358790
496.011 .0358209
496.862 .0357581
497.713 .0356872
498.562 .0356122
499.411 .0355312
500.259 .0354380
501.106 .0353324
501.952 .0352102
502.798 .0350728
503.642 .0349207
504.486 .0347626
505.329 .0346016
506.171 .0344436
507.012 .0342959
507.852 .0341500
508.692 .0340113
509.531 .0338790
510.369 .0337463
511.206 .0336103
512.043 .0334765
512.878 .0333367
513.713 .0331978
514.547 .0330680
515.381 .0329407
516.213 .0328207
517.045 .0327061
517.876 .0325908
518.706 .0324632
519.536 .0323243
520.365 .0321729
521.193 .0320088
522.020 .0318435
522.847 .0316736
523.673 .0314936
524.498 .0313181
525.323 .0311421
526.146 .0309735
526.969 .0308128
527.792 .0306564
528.614 .0304976
529.435 .0303428
530.255 .0301824
531.075 .0300237
531.894 .0298641
532.712 .0297184
533.530 .0295716
534.347 .0294381
535.163 .0293187
535.979 .0292376
536.794 .0291930
537.608 .0291838
538.422 .0291991
539.235 .0292347
540.048 .0292621
540.860 .0292853
541.671 .0292947
542.481 .0292901
543.292 .0292668
544.101 .0292428
544.910 .0292141
545.718 .0292049
546.526 .0292125
547.333 .0292399
548.139 .0292829
548.945 .0293403
549.750 .0293902
550.555 .0294366
551.359 .0294849
552.162 .0295298
552.965 .0295670
553.768 .0296092
554.569 .0296550
555.371 .0297022
556.171 .0297519
556.972 .0298093
557.771 .0298684
558.570 .0299260
559.369 .0299813
560.167 .0300339
560.964 .0300825
561.761 .0301266
562.558 .0301653
563.354 .0302019
564.149 .0302411
564.944 .0302736
565.738 .0303029
566.532 .0303392
567.325 .0303802
568.118 .0304213
568.910 .0304658
569.702 .0305178
570.494 .0305756
571.285 .0306348
572.075 .0306986
572.865 .0307664
573.654 .0308397
574.443 .0309193
575.232 .0309995
576.020 .0310838
576.807 .0311724
577.594 .0312607
578.381 .0313469
579.167 .0314273
579.952 .0315021
580.738 .0315691
581.522 .0316282
582.307 .0316807
583.091 .0317244
583.874 .0317632
584.657 .0317981
585.440 .0318281
586.222 .0318530
587.004 .0318734
587.785 .0318917
588.566 .0319073
589.346 .0319201
590.126 .0319304
590.906 .0319374
591.685 .0319426
592.464 .0319455
593.242 .0319461
594.020 .0319455
594.797 .0319458
595.575 .0319461
596.351 .0319470
597.128 .0319486
597.904 .0319493
598.679 .0319493
599.454 .0319481
600.229 .0319444
601.004 .0319382
601.778 .0319296
602.551 .0319182
603.325 .0319040
604.097 .0318876
604.870 .0318683
605.642 .0318475
606.414 .0318250
607.185 .0318006
607.956 .0317744
608.727 .0317468
609.497 .0317182
610.267 .0316890
611.037 .0316603
611.806 .0316322
612.575 .0316047
613.344 .0315781
614.112 .0315511
614.880 .0315240
615.647 .0314966
616.414 .0314690
617.181 .0314412
617.948 .0314143
618.714 .0313879
619.480 .0313636
620.245 .0313407
621.011 .0313186
621.775 .0312979
622.540 .0312776
623.304 .0312565
624.068 .0312344
624.832 .0312116
625.595 .0311881
626.358 .0311646
627.120 .0311415
627.883 .0311177
628.645 .0310938
629.406 .0310693
630.168 .0310437
630.929 .0310164
631.689 .0309891
632.450 .0309605
633.210 .0309317
633.970 .0309036
634.729 .0308757
635.489 .0308480
636.248 .0308207
637.006 .0307931
637.765 .0307642
638.523 .0307335
639.280 .0307015
640.038 .0306678
640.795 .0306353
641.552 .0306046
642.309 .0305762
643.065 .0305512
643.821 .0305307
644.577 .0305125
645.332 .0304965
646.088 .0304808
646.843 .0304646
647.597 .0304470
648.352 .0304288
649.106 .0304097
649.860 .0303911
650.613 .0303738
651.367 .0303582
652.120 .0303441
652.872 .0303323
653.625 .0303204
654.377 .0303084
655.129 .0302966
655.881 .0302846
656.632 .0302710
657.384 .0302567
658.135 .0302413
658.885 .0302266
659.636 .0302119
660.386 .0301984
661.136 .0301855
661.885 .0301748
662.635 .0301656
663.384 .0301574
664.133 .0301500
664.881 .0301421
665.630 .0301332
666.378 .0301230
667.126 .0301110
667.874 .0300965
668.621 .0300796
669.368 .0300621
670.115 .0300439
670.862 .0300249
671.608 .0300061
672.354 .0299882
673.100 .0299706
673.846 .0299539
674.591 .0299366
675.337 .0299191
676.082 .0299024
676.826 .0298869
677.571 .0298721
678.315 .0298584
679.059 .0298465
679.803 .0298364
680.547 .0298281
681.290 .0298219
682.033 .0298163
682.776 .0298112
683.518 .0298069
684.261 .0298029
685.003 .0297985
685.745 .0297941
686.487 .0297894
687.228 .0297840
687.969 .0297767
688.710 .0297672
689.451 .0297546
690.192 .0297399
690.932 .0297227
691.672 .0297033
692.412 .0296820
693.152 .0296605
693.891 .0296382
694.630 .0296161
695.369 .0295940
696.108 .0295723
696.846 .0295502
697.585 .0295272
698.323 .0295033
699.061 .0294789
699.798 .0294539
700.536 .0294293
701.273 .0294048
702.010 .0293816
702.746 .0293589
703.483 .0293375
704.219 .0293164
704.955 .0292958
705.691 .0292743
706.427 .0292513
707.162 .0292264
707.897 .0292006
708.632 .0291735
709.367 .0291458
710.101 .0291189
710.835 .0290927
711.569 .0290667
712.303 .0290414
713.037 .0290165
713.770 .0289925
714.503 .0289685
715.236 .0289450
715.969 .0289221
716.702 .0289005
717.434 .0288801
718.166 .0288599
718.898 .0288406
719.629 .0288217
720.361 .0288018
721.092 .0287808
721.823 .0287588
722.554 .0287354
723.284 .0287115
724.014 .0286865
724.744 .0286614
725.474 .0286362
726.204 .0286110
726.933 .0285857
727.662 .0285598
728.391 .0285335
729.120 .0285065
729.849 .0284792
730.577 .0284525
731.305 .0284261
732.033 .0284012
732.760 .0283773
733.488 .0283549
734.215 .0283340
734.942 .0283144
735.669 .0282960
736.395 .0282787
737.122 .0282620
737.848 .0282457
738.573 .0282296
739.299 .0282132
740.024 .0281964
740.750 .0281788
741.474 .0281604
742.199 .0281408
742.924 .0281197
743.648 .0280987
744.372 .0280780
745.096 .0280589
745.819 .0280412
746.543 .0280251
747.266 .0280104
747.989 .0279963
748.711 .0279837
749.434 .0279717
750.156 .0279606
750.878 .0279506
751.599 .0279421
752.321 .0279353
753.042 .0279305
753.763 .0279276
754.484 .0279260
755.205 .0279258
755.925 .0279259
756.645 .0279250
757.365 .0279230
758.085 .0279204
758.804 .0279162
759.523 .0279103
760.242 .0279033
760.961 .0278942
761.679 .0278836
762.397 .0278711
763.115 .0278569
763.833 .0278413
764.551 .0278247
765.268 .0278076
765.985 .0277904
766.702 .0277738
767.418 .0277573
768.134 .0277412
768.850 .0277256
769.566 .0277100
770.282 .0276939
770.997 .0276775
771.712 .0276607
772.427 .0276436
773.142 .0276268
773.856 .0276108
774.570 .0275955
775.284 .0275815
775.998 .0275683
776.711 .0275567
777.424 .0275458
778.137 .0275352
778.849 .0275246
779.562 .0275143
780.274 .0275036
780.986 .0274929
781.697 .0274821
782.409 .0274724
783.120 .0274642
783.831 .0274584
784.541 .0274549
785.252 .0274540
785.962 .0274550
786.671 .0274572
787.381 .0274593
788.090 .0274605
788.799 .0274592
789.508 .0274562
790.217 .0274510
790.925 .0274437
791.633 .0274353
792.341 .0274264
793.048 .0274172
793.755 .0274080
794.462 .0273980
795.169 .0273875
795.875 .0273753
796.581 .0273616
797.287 .0273461
797.993 .0273287
798.698 .0273103
799.403 .0272912
800.108 .0272724
800.812 .0272552
801.517 .0272389
802.221 .0272245
802.924 .0272122
803.628 .0272021
804.331 .0271937
805.034 .0271863
805.736 .0271799
806.439 .0271732
807.141 .0271652
807.843 .0271563
808.544 .0271459
809.245 .0271347
809.946 .0271231
810.647 .0271112
811.347 .0271000
812.047 .0270901
812.747 .0270814
813.447 .0270736
814.146 .0270672
814.845 .0270613
815.543 .0270545
816.242 .0270477
816.940 .0270399
817.638 .0270313
818.335 .0270219
819.032 .0270117
819.729 .0270009
820.426 .0269895
821.122 .0269774
821.818 .0269642
822.514 .0269505
823.209 .0269359
823.905 .0269198
824.599 .0269023
825.294 .0268830
825.988 .0268618
826.682 .0268390
827.376 .0268153
828.069 .0267912
828.762 .0267678
829.455 .0267449
830.147 .0267238
830.840 .0267048
831.531 .0266870
832.223 .0266702
832.914 .0266539
833.605 .0266374
834.296 .0266203
834.986 .0266021
835.676 .0265827
836.366 .0265623
837.055 .0265419
837.744 .0265209
838.433 .0264997
839.121 .0264783
839.809 .0264566
840.497 .0264342
841.185 .0264112
841.872 .0263873
842.559 .0263630
843.245 .0263392
843.932 .0263156
844.617 .0262923
845.303 .0262701
845.988 .0262490
846.673 .0262290
847.358 .0262102
848.042 .0261921
848.726 .0261744
849.410 .0261576
850.093 .0261411
850.776 .0261249
851.459 .0261093
852.141 .0260938
852.823 .0260789
853.505 .0260645
854.186 .0260510
854.867 .0260377
855.548 .0260254
856.228 .0260140
856.908 .0260031
857.588 .0259921
858.267 .0259815
858.946 .0259709
859.625 .0259608
860.303 .0259508
860.981 .0259408
861.659 .0259309
862.336 .0259214
863.013 .0259115
863.690 .0259008
864.366 .0258890
865.042 .0258759
865.718 .0258609
866.393 .0258445
867.068 .0258269
867.743 .0258085
868.417 .0257906
869.091 .0257737
869.765 .0257582
870.438 .0257443
871.111 .0257317
871.783 .0257202
872.456 .0257092
873.127 .0256975
873.799 .0256843
874.470 .0256695
875.141 .0256534
875.811 .0256360
876.481 .0256180
877.151 .0255996
877.820 .0255821
878.489 .0255660
879.158 .0255509
879.826 .0255355
880.494 .0255202
881.162 .0255046
881.829 .0254877
882.496 .0254696
883.163 .0254504
883.829 .0254310
884.495 .0254130
885.160 .0253970
885.825 .0253833
886.490 .0253735
887.154 .0253674
887.818 .0253635
888.482 .0253612
889.145 .0253594
889.808 .0253575
890.471 .0253553
891.133 .0253530
891.795 .0253499
892.456 .0253459
893.117 .0253423
893.778 .0253386
894.439 .0253354
895.099 .0253317
895.758 .0253273
896.417 .0253224
897.076 .0253168
897.735 .0253103
898.393 .0253029
899.051 .0252961
899.708 .0252895
900.365 .0252833
901.022 .0252773
901.678 .0252722
902.334 .0252681
902.990 .0252651
903.645 .0252633
904.300 .0252615
904.954 .0252600
905.608 .0252584
906.262 .0252565
906.915 .0252549
907.568 .0252527
908.221 .0252505
908.873 .0252479
909.525 .0252451
910.176 .0252422
910.828 .0252396
911.478 .0252373
912.129 .0252348
912.778 .0252316
913.428 .0252273
914.077 .0252223
914.726 .0252171
915.375 .0252123
916.023 .0252086
916.670 .0252070
917.318 .0252073
917.964 .0252096
918.611 .0252136
919.257 .0252185
919.903 .0252232
920.548 .0252277
921.193 .0252311
921.838 .0252335
922.482 .0252353
923.126 .0252378
923.770 .0252407
924.413 .0252445
925.056 .0252488
925.698 .0252531
926.340 .0252572
926.982 .0252603
927.623 .0252613
928.264 .0252616
928.904 .0252600
929.544 .0252578
930.184 .0252547
930.823 .0252516
931.462 .0252483
932.101 .0252450
932.739 .0252418
933.377 .0252375
934.014 .0252320
934.651 .0252260
935.288 .0252185
935.924 .0252108
936.560 .0252027
937.196 .0251943
937.831 .0251862
938.466 .0251788
939.100 .0251708
939.734 .0251626
940.368 .0251539
941.001 .0251448
941.634 .0251352
942.266 .0251252
942.899 .0251146
943.530 .0251029
944.162 .0250908
944.793 .0250774
945.423 .0250622
946.053 .0250460
946.683 .0250286
947.313 .0250104
947.942 .0249918
948.571 .0249725
949.199 .0249525
949.827 .0249317
950.455 .0249110
951.082 .0248896
951.709 .0248690
952.335 .0248492
952.961 .0248308
953.587 .0248145
954.212 .0248002
954.837 .0247874
955.462 .0247762
956.086 .0247662
956.710 .0247572
957.334 .0247483
957.957 .0247400
958.579 .0247317
959.202 .0247245
959.824 .0247178
960.445 .0247117
961.067 .0247062
961.688 .0247012
962.308 .0246953
962.928 .0246890
963.548 .0246819
964.168 .0246736
964.787 .0246646
965.406 .0246556
966.024 .0246462
966.642 .0246371
967.260 .0246285
967.877 .0246204
968.494 .0246121
969.110 .0246042
969.727 .0245955
970.342 .0245860
970.958 .0245770
971.573 .0245676
972.188 .0245586
972.802 .0245506
973.416 .0245429
974.030 .0245353
974.643 .0245283
975.256 .0245218
975.869 .0245149
976.481 .0245088
977.093 .0245039
977.705 .0244993
978.316 .0244957
978.927 .0244931
979.538 .0244905
980.148 .0244882
980.758 .0244858
981.367 .0244827
981.977 .0244792
982.586 .0244753
983.194 .0244710
983.802 .0244669
984.410 .0244629
985.018 .0244583
985.625 .0244533
986.232 .0244489
986.838 .0244440
987.445 .0244388
988.050 .0244334
988.656 .0244281
989.261 .0244219
989.866 .0244150
990.471 .0244070
991.075 .0243988
991.679 .0243897
992.282 .0243799
992.886 .0243697
993.489 .0243598
994.091 .0243506
994.694 .0243420
995.296 .0243347
995.897 .0243282
996.499 .0243221
997.100 .0243166
997.701 .0243114
998.301 .0243067
998.901 .0243021
999.501 .0242984
1000.101 .0242950
1000.700 .0242916
1001.299 .0242879
1001.898 .0242829
1002.496 .0242771
1003.094 .0242694
1003.692 .0242605
1004.289 .0242492
1004.887 .0242371
1005.484 .0242240
1006.080 .0242098
1006.677 .0241950
1007.273 .0241801
1007.868 .0241643
1008.464 .0241477
1009.059 .0241308
1009.654 .0241128
1010.249 .0240955
1010.843 .0240797
1011.437 .0240654
1012.031 .0240534
1012.625 .0240438
1013.218 .0240375
1013.811 .0240326
1014.404 .0240302
1014.997 .0240292
1015.589 .0240284
1016.181 .0240285
1016.773 .0240280
1017.365 .0240265
1017.956 .0240244
1018.547 .0240223
1019.138 .0240191
1019.728 .0240155
1020.319 .0240117
1020.909 .0240075
1021.499 .0240026
1022.088 .0239981
1022.678 .0239931
1023.267 .0239866
1023.856 .0239792
1024.445 .0239702
1025.033 .0239592
1025.621 .0239475
1026.209 .0239345
1026.797 .0239207
1027.385 .0239065
1027.972 .0238923
1028.560 .0238778
1029.147 .0238645
1029.734 .0238529
1030.320 .0238426
1030.907 .0238338
1031.493 .0238264
1032.079 .0238201
1032.665 .0238148
1033.250 .0238105
1033.836 .0238066
1034.421 .0238026
1035.006 .0237988
1035.591 .0237950
1036.176 .0237911
1036.761 .0237875
1037.345 .0237838
1037.929 .0237799
1038.514 .0237748
1039.097 .0237692
1039.681 .0237625
1040.265 .0237547
1040.848 .0237469
1041.432 .0237379
1042.015 .0237281
1042.598 .0237170
1043.181 .0237055
1043.764 .0236937
1044.346 .0236818
1044.929 .0236703
1045.511 .0236593
1046.094 .0236493
1046.676 .0236416
1047.258 .0236362
1047.840 .0236343
1048.422 .0236350
1049.003 .0236388
1049.585 .0236437
1050.166 .0236504
1050.748 .0236567
1051.329 .0236634
1051.910 .0236689
1052.491 .0236744
1053.072 .0236781
1053.653 .0236809
1054.234 .0236834
1054.815 .0236853
1055.396 .0236866
1055.976 .0236864
1056.557 .0236820
1057.138 .0236741
1057.718 .0236607
1058.298 .0236448
1058.879 .0236241
1059.459 .0236013
1060.039 .0235767
1060.620 .0235504
1061.200 .0235241
1061.780 .0234985
1062.360 .0234744
1062.940 .0234524
1063.520 .0234308
1064.101 .0234093
1064.681 .0233861
1065.261 .0233633
1065.841 .0233403
1066.421 .0233190
1067.001 .0232996
1067.581 .0232832
1068.161 .0232687
1068.741 .0232572
1069.321 .0232483
1069.901 .0232411
1070.482 .0232346
1071.062 .0232277
1071.642 .0232189
1072.222 .0232088
1072.803 .0231988
1073.383 .0231914
1073.963 .0231859
1074.544 .0231853
1075.124 .0231882
1075.705 .0231944
1076.286 .0232025
1076.866 .0232114
1077.447 .0232192
1078.028 .0232244
1078.609 .0232250
1079.190 .0232212
1079.771 .0232135
1080.352 .0232044
1080.934 .0231951
1081.515 .0231885
1082.097 .0231842
1082.679 .0231822
1083.260 .0231807
1083.842 .0231820
1084.424 .0231827
1085.007 .0231818
1085.589 .0231807
1086.172 .0231803
1086.754 .0231788
1087.337 .0231786
1087.920 .0231794
1088.503 .0231824
1089.087 .0231869
1089.670 .0231941
1090.254 .0232024
1090.838 .0232134
1091.422 .0232263
1092.006 .0232392
1092.590 .0232514
1093.175 .0232650
1093.760 .0232726
1094.345 .0232776
1094.930 .0232798
1095.516 .0232766
1096.102 .0232685
1096.688 .0232591
1097.274 .0232494
1097.860 .0232389
1098.447 .0232296
1099.034 .0232217
1099.622 .0232116
1100.209 .0232018
1100.797 .0231887
1101.385 .0231700
1101.973 .0231509
1102.562 .0231312
1103.151 .0231116
1103.740 .0230981
1104.330 .0230920
1104.920 .0230931
1105.510 .0231029
1106.101 .0231218
1106.691 .0231437
1107.283 .0231619
1107.874 .0231806
1108.466 .0231934
1109.058 .0232006
1109.651 .0232039
1110.244 .0232025
1110.837 .0231997
1111.431 .0231979
1112.025 .0231967
1112.620 .0231938
1113.215 .0231921
1113.810 .0231920
1114.406 .0231882
1115.002 .0231818
1115.599 .0231710
1116.196 .0231550
1116.793 .0231361
1117.391 .0231171
1117.989 .0230976
1118.588 .0230819
1119.187 .0230732
1119.787 .0230745
1120.387 .0230856
1120.988 .0231062
1121.589 .0231372
1122.190 .0231732
1122.793 .0232119
1123.395 .0232485
1123.998 .0232815
1124.602 .0233119
1125.206 .0233396
1125.811 .0233684
1126.416 .0234003
1127.022 .0234406
1127.628 .0234928
1128.235 .0235525
1128.843 .0236250
1129.451 .0237049
1130.059 .0237849
1130.669 .0238610
1131.278 .0239313
1131.889 .0239919
1132.500 .0240417
1133.112 .0240840
1133.724 .0241214
1134.337 .0241546
1134.950 .0241875
1135.564 .0242186
1136.179 .0242517
1136.795 .0242928
1137.411 .0243357
1138.028 .0243798
1138.645 .0244244
1139.263 .0244709
1139.882 .0245182
1140.502 .0245714
1141.122 .0246302
1141.743 .0247133
1142.365 .0248321
1142.987 .0247961
1143.611 .0249990
1144.235 .0250647
1144.859 .0255926
1145.485 .0261842
