Measurement Sequence started on: 10-20-44-796
Integration time: 35
Scans to Average: 2 
>>>>>Begin Spectral Data<<<<<
432.953 .0529138
433.882 .0390486
434.810 .0373596
435.737 .0397718
436.662 .0401111
437.586 .0401426
438.509 .0397456
439.431 .0397913
440.351 .0398065
441.269 .0396973
442.187 .0395444
443.103 .0393727
444.018 .0391752
444.932 .0389646
445.844 .0387629
446.756 .0385876
447.666 .0384308
448.575 .0382892
449.482 .0381784
450.388 .0380948
451.294 .0380276
452.198 .0379721
453.100 .0379201
454.002 .0378732
454.902 .0378362
455.801 .0378070
456.699 .0377902
457.596 .0377906
458.492 .0378011
459.387 .0378065
460.280 .0378094
461.172 .0378008
462.064 .0377724
462.954 .0377282
463.843 .0376649
464.730 .0375810
465.617 .0374838
466.503 .0373750
467.387 .0372586
468.271 .0371385
469.153 .0370178
470.035 .0368969
470.915 .0367836
471.794 .0366798
472.673 .0365829
473.550 .0364992
474.426 .0364336
475.301 .0363812
476.175 .0363435
477.048 .0363217
477.920 .0363119
478.791 .0363148
479.661 .0363313
480.530 .0363585
481.398 .0363951
482.266 .0364425
483.132 .0364982
483.997 .0365550
484.861 .0366133
485.724 .0366707
486.587 .0367219
487.448 .0367668
488.308 .0368030
489.168 .0368268
490.026 .0368379
490.884 .0368385
491.741 .0368247
492.597 .0367981
493.452 .0367642
494.306 .0367214
495.159 .0366749
496.011 .0366261
496.862 .0365765
497.713 .0365245
498.562 .0364700
499.411 .0364117
500.259 .0363439
501.106 .0362686
501.952 .0361865
502.798 .0360959
503.642 .0360010
504.486 .0359030
505.329 .0358028
506.171 .0357006
507.012 .0355960
507.852 .0354851
508.692 .0353666
509.531 .0352350
510.369 .0350936
511.206 .0349421
512.043 .0347831
512.878 .0346254
513.713 .0344685
514.547 .0343154
515.381 .0341679
516.213 .0340233
517.045 .0338833
517.876 .0337400
518.706 .0336012
519.536 .0334648
520.365 .0333329
521.193 .0332050
522.020 .0330775
522.847 .0329531
523.673 .0328289
524.498 .0326948
525.323 .0325420
526.146 .0323774
526.969 .0322015
527.792 .0320099
528.614 .0318124
529.435 .0316220
530.255 .0314419
531.075 .0312708
531.894 .0311149
532.712 .0309673
533.530 .0308308
534.347 .0307095
535.163 .0305930
535.979 .0304959
536.794 .0304253
537.608 .0303758
538.422 .0303479
539.235 .0303476
540.048 .0303640
540.860 .0303865
541.671 .0304114
542.481 .0304316
543.292 .0304363
544.101 .0304302
544.910 .0304119
545.718 .0303877
546.526 .0303628
547.333 .0303405
548.139 .0303192
548.945 .0303086
549.750 .0303044
550.555 .0303041
551.359 .0303115
552.162 .0303290
552.965 .0303546
553.768 .0303826
554.569 .0304119
555.371 .0304463
556.171 .0304836
556.972 .0305253
557.771 .0305667
558.570 .0306154
559.369 .0306721
560.167 .0307319
560.964 .0307973
561.761 .0308665
562.558 .0309401
563.354 .0310118
564.149 .0310772
564.944 .0311367
565.738 .0311874
566.532 .0312311
567.325 .0312721
568.118 .0313151
568.910 .0313615
569.702 .0314115
570.494 .0314655
571.285 .0315252
572.075 .0315841
572.865 .0316396
573.654 .0316898
574.443 .0317315
575.232 .0317670
576.020 .0317952
576.807 .0318227
577.594 .0318530
578.381 .0318863
579.167 .0319243
579.952 .0319650
580.738 .0320081
581.522 .0320499
582.307 .0320902
583.091 .0321318
583.874 .0321721
584.657 .0322090
585.440 .0322447
586.222 .0322779
587.004 .0323099
587.785 .0323378
588.566 .0323611
589.346 .0323805
590.126 .0323945
590.906 .0324024
591.685 .0324068
592.464 .0324073
593.242 .0324071
594.020 .0324049
594.797 .0324035
595.575 .0324030
596.351 .0324032
597.128 .0324062
597.904 .0324117
598.679 .0324190
599.454 .0324273
600.229 .0324344
601.004 .0324411
601.778 .0324447
602.551 .0324455
603.325 .0324428
604.097 .0324373
604.870 .0324293
605.642 .0324193
606.414 .0324065
607.185 .0323922
607.956 .0323758
608.727 .0323578
609.497 .0323376
610.267 .0323146
611.037 .0322893
611.806 .0322613
612.575 .0322314
613.344 .0322004
614.112 .0321692
614.880 .0321392
615.647 .0321102
616.414 .0320831
617.181 .0320576
617.948 .0320345
618.714 .0320144
619.480 .0319966
620.245 .0319813
621.011 .0319675
621.775 .0319547
622.540 .0319429
623.304 .0319317
624.068 .0319210
624.832 .0319103
625.595 .0318994
626.358 .0318879
627.120 .0318754
627.883 .0318619
628.645 .0318469
629.406 .0318298
630.168 .0318111
630.929 .0317893
631.689 .0317651
632.450 .0317388
633.210 .0317117
633.970 .0316840
634.729 .0316552
635.489 .0316252
636.248 .0315938
637.006 .0315610
637.765 .0315273
638.523 .0314925
639.280 .0314581
640.038 .0314240
640.795 .0313913
641.552 .0313600
642.309 .0313313
643.065 .0313043
643.821 .0312791
644.577 .0312552
645.332 .0312321
646.088 .0312082
646.843 .0311837
647.597 .0311586
648.352 .0311334
649.106 .0311073
649.860 .0310808
650.613 .0310543
651.367 .0310295
652.120 .0310058
652.872 .0309833
653.625 .0309620
654.377 .0309426
655.129 .0309236
655.881 .0309047
656.632 .0308857
657.384 .0308663
658.135 .0308463
658.885 .0308262
659.636 .0308061
660.386 .0307861
661.136 .0307669
661.885 .0307490
662.635 .0307316
663.384 .0307149
664.133 .0306978
664.881 .0306793
665.630 .0306597
666.378 .0306387
667.126 .0306161
667.874 .0305925
668.621 .0305693
669.368 .0305464
670.115 .0305239
670.862 .0305020
671.608 .0304808
672.354 .0304595
673.100 .0304383
673.846 .0304161
674.591 .0303932
675.337 .0303698
676.082 .0303464
676.826 .0303233
677.571 .0303013
678.315 .0302803
679.059 .0302603
679.803 .0302413
680.547 .0302237
681.290 .0302068
682.033 .0301906
682.776 .0301743
683.518 .0301582
684.261 .0301413
685.003 .0301244
685.745 .0301067
686.487 .0300893
687.228 .0300723
687.969 .0300555
688.710 .0300387
689.451 .0300216
690.192 .0300044
690.932 .0299865
691.672 .0299679
692.412 .0299486
693.152 .0299283
693.891 .0299069
694.630 .0298853
695.369 .0298640
696.108 .0298429
696.846 .0298230
697.585 .0298040
698.323 .0297863
699.061 .0297696
699.798 .0297533
700.536 .0297379
701.273 .0297229
702.010 .0297086
702.746 .0296941
703.483 .0296798
704.219 .0296660
704.955 .0296517
705.691 .0296372
706.427 .0296222
707.162 .0296066
707.897 .0295901
708.632 .0295731
709.367 .0295553
710.101 .0295377
710.835 .0295202
711.569 .0295033
712.303 .0294870
713.037 .0294717
713.770 .0294564
714.503 .0294410
715.236 .0294252
715.969 .0294091
716.702 .0293921
717.434 .0293757
718.166 .0293590
718.898 .0293427
719.629 .0293266
720.361 .0293108
721.092 .0292946
721.823 .0292781
722.554 .0292598
723.284 .0292402
724.014 .0292187
724.744 .0291958
725.474 .0291707
726.204 .0291458
726.933 .0291215
727.662 .0290978
728.391 .0290754
729.120 .0290547
729.849 .0290353
730.577 .0290177
731.305 .0290012
732.033 .0289857
732.760 .0289710
733.488 .0289572
734.215 .0289434
734.942 .0289302
735.669 .0289171
736.395 .0289045
737.122 .0288921
737.848 .0288799
738.573 .0288673
739.299 .0288538
740.024 .0288396
740.750 .0288239
741.474 .0288068
742.199 .0287882
742.924 .0287683
743.648 .0287478
744.372 .0287270
745.096 .0287065
745.819 .0286869
746.543 .0286686
747.266 .0286514
747.989 .0286354
748.711 .0286200
749.434 .0286049
750.156 .0285905
750.878 .0285766
751.599 .0285638
752.321 .0285526
753.042 .0285436
753.763 .0285362
754.484 .0285309
755.205 .0285266
755.925 .0285227
756.645 .0285185
757.365 .0285134
758.085 .0285064
758.804 .0284977
759.523 .0284866
760.242 .0284734
760.961 .0284578
761.679 .0284407
762.397 .0284216
763.115 .0284010
763.833 .0283783
764.551 .0283537
765.268 .0283273
765.985 .0282995
766.702 .0282706
767.418 .0282409
768.134 .0282110
768.850 .0281811
769.566 .0281514
770.282 .0281225
770.997 .0280951
771.712 .0280695
772.427 .0280458
773.142 .0280241
773.856 .0280039
774.570 .0279850
775.284 .0279672
775.998 .0279502
776.711 .0279342
777.424 .0279186
778.137 .0279034
778.849 .0278886
779.562 .0278742
780.274 .0278603
780.986 .0278471
781.697 .0278346
782.409 .0278225
783.120 .0278108
783.831 .0277994
784.541 .0277883
785.252 .0277777
785.962 .0277676
786.671 .0277580
787.381 .0277489
788.090 .0277399
788.799 .0277310
789.508 .0277218
790.217 .0277126
790.925 .0277028
791.633 .0276925
792.341 .0276815
793.048 .0276697
793.755 .0276573
794.462 .0276442
795.169 .0276301
795.875 .0276154
796.581 .0276001
797.287 .0275844
797.993 .0275683
798.698 .0275523
799.403 .0275368
800.108 .0275223
800.812 .0275088
801.517 .0274961
802.221 .0274845
802.924 .0274737
803.628 .0274632
804.331 .0274531
805.034 .0274432
805.736 .0274334
806.439 .0274239
807.141 .0274150
807.843 .0274066
808.544 .0273986
809.245 .0273908
809.946 .0273833
810.647 .0273758
811.347 .0273677
812.047 .0273594
812.747 .0273507
813.447 .0273419
814.146 .0273327
814.845 .0273236
815.543 .0273147
816.242 .0273060
816.940 .0272972
817.638 .0272882
818.335 .0272789
819.032 .0272693
819.729 .0272592
820.426 .0272489
821.122 .0272383
821.818 .0272276
822.514 .0272161
823.209 .0272044
823.905 .0271920
824.599 .0271788
825.294 .0271648
825.988 .0271502
826.682 .0271346
827.376 .0271184
828.069 .0271020
828.762 .0270852
829.455 .0270681
830.147 .0270514
830.840 .0270349
831.531 .0270191
832.223 .0270042
832.914 .0269905
833.605 .0269777
834.296 .0269665
834.986 .0269567
835.676 .0269480
836.366 .0269410
837.055 .0269356
837.744 .0269315
838.433 .0269289
839.121 .0269280
839.809 .0269280
840.497 .0269290
841.185 .0269309
841.872 .0269325
842.559 .0269337
843.245 .0269341
843.932 .0269333
844.617 .0269312
845.303 .0269284
845.988 .0269249
846.673 .0269207
847.358 .0269165
848.042 .0269118
848.726 .0269063
849.410 .0269001
850.093 .0268931
850.776 .0268846
851.459 .0268751
852.141 .0268645
852.823 .0268532
853.505 .0268419
854.186 .0268309
854.867 .0268202
855.548 .0268104
856.228 .0268012
856.908 .0267924
857.588 .0267834
858.267 .0267747
858.946 .0267656
859.625 .0267564
860.303 .0267468
860.981 .0267374
861.659 .0267281
862.336 .0267194
863.013 .0267111
863.690 .0267033
864.366 .0266957
865.042 .0266881
865.718 .0266802
866.393 .0266723
867.068 .0266638
867.743 .0266550
868.417 .0266456
869.091 .0266362
869.765 .0266262
870.438 .0266157
871.111 .0266046
871.783 .0265932
872.456 .0265808
873.127 .0265679
873.799 .0265542
874.470 .0265402
875.141 .0265258
875.811 .0265118
876.481 .0264984
877.151 .0264861
877.820 .0264748
878.489 .0264654
879.158 .0264572
879.826 .0264505
880.494 .0264444
881.162 .0264387
881.829 .0264326
882.496 .0264260
883.163 .0264184
883.829 .0264105
884.495 .0264019
885.160 .0263939
885.825 .0263864
886.490 .0263803
887.154 .0263755
887.818 .0263717
888.482 .0263681
889.145 .0263645
889.808 .0263602
890.471 .0263549
891.133 .0263483
891.795 .0263417
892.456 .0263347
893.117 .0263285
893.778 .0263235
894.439 .0263195
895.099 .0263164
895.758 .0263138
896.417 .0263110
897.076 .0263074
897.735 .0263024
898.393 .0262962
899.051 .0262887
899.708 .0262807
900.365 .0262719
901.022 .0262629
901.678 .0262540
902.334 .0262451
902.990 .0262364
903.645 .0262273
904.300 .0262178
904.954 .0262081
905.608 .0261983
906.262 .0261883
906.915 .0261784
907.568 .0261683
908.221 .0261583
908.873 .0261481
909.525 .0261374
910.176 .0261252
910.828 .0261121
911.478 .0260982
912.129 .0260827
912.778 .0260661
913.428 .0260491
914.077 .0260314
914.726 .0260140
915.375 .0259967
916.023 .0259804
916.670 .0259647
917.318 .0259498
917.964 .0259356
918.611 .0259222
919.257 .0259091
919.903 .0258962
920.548 .0258831
921.193 .0258709
921.838 .0258585
922.482 .0258465
923.126 .0258350
923.770 .0258242
924.413 .0258136
925.056 .0258031
925.698 .0257920
926.340 .0257804
926.982 .0257678
927.623 .0257540
928.264 .0257390
928.904 .0257233
929.544 .0257065
930.184 .0256894
930.823 .0256720
931.462 .0256550
932.101 .0256378
932.739 .0256210
933.377 .0256040
934.014 .0255869
934.651 .0255695
935.288 .0255513
935.924 .0255328
936.560 .0255144
937.196 .0254959
937.831 .0254774
938.466 .0254589
939.100 .0254410
939.734 .0254229
940.368 .0254050
941.001 .0253872
941.634 .0253699
942.266 .0253526
942.899 .0253353
943.530 .0253179
944.162 .0253002
944.793 .0252825
945.423 .0252640
946.053 .0252447
946.683 .0252248
947.313 .0252039
947.942 .0251822
948.571 .0251596
949.199 .0251363
949.827 .0251119
950.455 .0250872
951.082 .0250623
951.709 .0250366
952.335 .0250108
952.961 .0249848
953.587 .0249589
954.212 .0249330
954.837 .0249073
955.462 .0248821
956.086 .0248582
956.710 .0248363
957.334 .0248159
957.957 .0247974
958.579 .0247810
959.202 .0247662
959.824 .0247527
960.445 .0247400
961.067 .0247270
961.688 .0247137
962.308 .0246999
962.928 .0246850
963.548 .0246695
964.168 .0246536
964.787 .0246370
965.406 .0246200
966.024 .0246027
966.642 .0245851
967.260 .0245671
967.877 .0245490
968.494 .0245302
969.110 .0245105
969.727 .0244901
970.342 .0244693
970.958 .0244487
971.573 .0244295
972.188 .0244119
972.802 .0243963
973.416 .0243830
974.030 .0243721
974.643 .0243634
975.256 .0243567
975.869 .0243513
976.481 .0243465
977.093 .0243419
977.705 .0243374
978.316 .0243329
978.927 .0243287
979.538 .0243247
980.148 .0243210
980.758 .0243176
981.367 .0243144
981.977 .0243107
982.586 .0243068
983.194 .0243025
983.802 .0242977
984.410 .0242919
985.018 .0242854
985.625 .0242784
986.232 .0242716
986.838 .0242651
987.445 .0242588
988.050 .0242526
988.656 .0242469
989.261 .0242413
989.866 .0242351
990.471 .0242287
991.075 .0242220
991.679 .0242150
992.282 .0242080
992.886 .0242008
993.489 .0241936
994.091 .0241865
994.694 .0241797
995.296 .0241724
995.897 .0241649
996.499 .0241569
997.100 .0241484
997.701 .0241404
998.301 .0241329
998.901 .0241264
999.501 .0241219
1000.101 .0241195
1000.700 .0241187
1001.299 .0241189
1001.898 .0241197
1002.496 .0241206
1003.094 .0241217
1003.692 .0241228
1004.289 .0241240
1004.887 .0241257
1005.484 .0241278
1006.080 .0241303
1006.677 .0241331
1007.273 .0241354
1007.868 .0241367
1008.464 .0241368
1009.059 .0241354
1009.654 .0241323
1010.249 .0241280
1010.843 .0241234
1011.437 .0241187
1012.031 .0241139
1012.625 .0241093
1013.218 .0241046
1013.811 .0241001
1014.404 .0240954
1014.997 .0240912
1015.589 .0240881
1016.181 .0240866
1016.773 .0240867
1017.365 .0240888
1017.956 .0240930
1018.547 .0240983
1019.138 .0241039
1019.728 .0241098
1020.319 .0241152
1020.909 .0241198
1021.499 .0241227
1022.088 .0241246
1022.678 .0241254
1023.267 .0241255
1023.856 .0241250
1024.445 .0241243
1025.033 .0241234
1025.621 .0241216
1026.209 .0241194
1026.797 .0241169
1027.385 .0241143
1027.972 .0241114
1028.560 .0241084
1029.147 .0241054
1029.734 .0241026
1030.320 .0241000
1030.907 .0240976
1031.493 .0240971
1032.079 .0240985
1032.665 .0241012
1033.250 .0241058
1033.836 .0241118
1034.421 .0241193
1035.006 .0241267
1035.591 .0241343
1036.176 .0241408
1036.761 .0241462
1037.345 .0241502
1037.929 .0241526
1038.514 .0241545
1039.097 .0241570
1039.681 .0241602
1040.265 .0241648
1040.848 .0241710
1041.432 .0241786
1042.015 .0241867
1042.598 .0241958
1043.181 .0242051
1043.764 .0242140
1044.346 .0242218
1044.929 .0242291
1045.511 .0242358
1046.094 .0242419
1046.676 .0242477
1047.258 .0242535
1047.840 .0242594
1048.422 .0242651
1049.003 .0242691
1049.585 .0242723
1050.166 .0242743
1050.748 .0242750
1051.329 .0242739
1051.910 .0242719
1052.491 .0242688
1053.072 .0242644
1053.653 .0242590
1054.234 .0242546
1054.815 .0242495
1055.396 .0242459
1055.976 .0242425
1056.557 .0242405
1057.138 .0242395
1057.718 .0242400
1058.298 .0242413
1058.879 .0242439
1059.459 .0242469
1060.039 .0242504
1060.620 .0242518
1061.200 .0242530
1061.780 .0242522
1062.360 .0242501
1062.940 .0242476
1063.520 .0242452
1064.101 .0242421
1064.681 .0242411
1065.261 .0242409
1065.841 .0242416
1066.421 .0242418
1067.001 .0242421
1067.581 .0242405
1068.161 .0242365
1068.741 .0242307
1069.321 .0242222
1069.901 .0242137
1070.482 .0242072
1071.062 .0242019
1071.642 .0242007
1072.222 .0242031
1072.803 .0242080
1073.383 .0242160
1073.963 .0242254
1074.544 .0242352
1075.124 .0242438
1075.705 .0242514
1076.286 .0242569
1076.866 .0242617
1077.447 .0242652
1078.028 .0242689
1078.609 .0242745
1079.190 .0242828
1079.771 .0242920
1080.352 .0243026
1080.934 .0243146
1081.515 .0243258
1082.097 .0243364
1082.679 .0243453
1083.260 .0243500
1083.842 .0243533
1084.424 .0243528
1085.007 .0243497
1085.589 .0243468
1086.172 .0243446
1086.754 .0243423
1087.337 .0243421
1087.920 .0243449
1088.503 .0243474
1089.087 .0243507
1089.670 .0243539
1090.254 .0243560
1090.838 .0243570
1091.422 .0243566
1092.006 .0243529
1092.590 .0243472
1093.175 .0243423
1093.760 .0243364
1094.345 .0243301
1094.930 .0243257
1095.516 .0243207
1096.102 .0243175
1096.688 .0243154
1097.274 .0243136
1097.860 .0243105
1098.447 .0243078
1099.034 .0243037
1099.622 .0242969
1100.209 .0242890
1100.797 .0242815
1101.385 .0242724
1101.973 .0242642
1102.562 .0242567
1103.151 .0242497
1103.740 .0242426
1104.330 .0242380
1104.920 .0242328
1105.510 .0242274
1106.101 .0242228
1106.691 .0242186
1107.283 .0242148
1107.874 .0242154
1108.466 .0242186
1109.058 .0242257
1109.651 .0242367
1110.244 .0242504
1110.837 .0242624
1111.431 .0242757
1112.025 .0242881
1112.620 .0243001
1113.215 .0243110
1113.810 .0243243
1114.406 .0243383
1115.002 .0243566
1115.599 .0243774
1116.196 .0243975
1116.793 .0244160
1117.391 .0244325
1117.989 .0244397
1118.588 .0244422
1119.187 .0244359
1119.787 .0244284
1120.387 .0244188
1120.988 .0244112
1121.589 .0244054
1122.190 .0244043
1122.793 .0244064
1123.395 .0244106
1123.998 .0244145
1124.602 .0244189
1125.206 .0244184
1125.811 .0244214
1126.416 .0244245
1127.022 .0244334
1127.628 .0244496
1128.235 .0244780
1128.843 .0245142
1129.451 .0245623
1130.059 .0246143
1130.669 .0246684
1131.278 .0247240
1131.889 .0247792
1132.500 .0248303
1133.112 .0248816
1133.724 .0249334
1134.337 .0249875
1134.950 .0250429
1135.564 .0251043
1136.179 .0251672
1136.795 .0252330
1137.411 .0253010
1138.028 .0253679
1138.645 .0254364
1139.263 .0255009
1139.882 .0255623
1140.502 .0256253
1141.122 .0256918
1141.743 .0257681
1142.365 .0258417
1142.987 .0258094
1143.611 .0259885
1144.235 .0261568
1144.859 .0263946
1145.485 .0261520
