Measurement Sequence started on: 10-20-44-796
Integration time: 35
Scans to Average: 2 
>>>>>Begin Spectral Data<<<<<
432.953 .0400101
433.882 .0394151
434.810 .0370981
435.737 .0377740
436.662 .0335404
437.586 .0345283
438.509 .0338355
439.431 .0333310
440.351 .0330325
441.269 .0328324
442.187 .0328009
443.103 .0327886
444.018 .0328124
444.932 .0328347
445.844 .0328615
446.756 .0329005
447.666 .0329670
448.575 .0330447
449.482 .0331391
450.388 .0332480
451.294 .0333604
452.198 .0334693
453.100 .0335683
454.002 .0336492
454.902 .0337197
455.801 .0337726
456.699 .0338164
457.596 .0338548
458.492 .0338868
459.387 .0339147
460.280 .0339451
461.172 .0339709
462.064 .0339953
462.954 .0340080
463.843 .0340100
464.730 .0340037
465.617 .0339919
466.503 .0339752
467.387 .0339542
468.271 .0339325
469.153 .0339134
470.035 .0338924
470.915 .0338736
471.794 .0338493
472.673 .0338189
473.550 .0337863
474.426 .0337481
475.301 .0337054
476.175 .0336630
477.048 .0336232
477.920 .0335869
478.791 .0335549
479.661 .0335284
480.530 .0335050
481.398 .0334815
482.266 .0334624
483.132 .0334482
483.997 .0334375
484.861 .0334335
485.724 .0334359
486.587 .0334445
487.448 .0334576
488.308 .0334712
489.168 .0334821
490.026 .0334919
490.884 .0334977
491.741 .0334960
492.597 .0334882
493.452 .0334770
494.306 .0334611
495.159 .0334414
496.011 .0334225
496.862 .0334013
497.713 .0333711
498.562 .0333330
499.411 .0332853
500.259 .0332302
501.106 .0331661
501.952 .0330965
502.798 .0330237
503.642 .0329540
504.486 .0328819
505.329 .0328084
506.171 .0327348
507.012 .0326617
507.852 .0325826
508.692 .0324953
509.531 .0323970
510.369 .0322896
511.206 .0321729
512.043 .0320498
512.878 .0319169
513.713 .0317770
514.547 .0316230
515.381 .0314571
516.213 .0312791
517.045 .0310888
517.876 .0308861
518.706 .0306828
519.536 .0304861
520.365 .0302996
521.193 .0301283
522.020 .0299756
522.847 .0298359
523.673 .0297055
524.498 .0295724
525.323 .0294245
526.146 .0292660
526.969 .0290976
527.792 .0289186
528.614 .0287432
529.435 .0285828
530.255 .0284404
531.075 .0283142
531.894 .0282048
532.712 .0280986
533.530 .0279843
534.347 .0278632
535.163 .0277187
535.979 .0275644
536.794 .0274126
537.608 .0272714
538.422 .0271499
539.235 .0270599
540.048 .0270018
540.860 .0269678
541.671 .0269613
542.481 .0269700
543.292 .0269850
544.101 .0270057
544.910 .0270245
545.718 .0270370
546.526 .0270441
547.333 .0270509
548.139 .0270515
548.945 .0270556
549.750 .0270604
550.555 .0270661
551.359 .0270805
552.162 .0271015
552.965 .0271349
553.768 .0271741
554.569 .0272249
555.371 .0272774
556.171 .0273344
556.972 .0273925
557.771 .0274523
558.570 .0275190
559.369 .0275917
560.167 .0276746
560.964 .0277686
561.761 .0278707
562.558 .0279855
563.354 .0281079
564.149 .0282372
564.944 .0283635
565.738 .0284877
566.532 .0286008
567.325 .0287035
568.118 .0287963
568.910 .0288825
569.702 .0289624
570.494 .0290415
571.285 .0291168
572.075 .0291911
572.865 .0292677
573.654 .0293430
574.443 .0294140
575.232 .0294818
576.020 .0295457
576.807 .0296049
577.594 .0296588
578.381 .0297126
579.167 .0297653
579.952 .0298210
580.738 .0298790
581.522 .0299377
582.307 .0299965
583.091 .0300544
583.874 .0301106
584.657 .0301633
585.440 .0302122
586.222 .0302579
587.004 .0303009
587.785 .0303437
588.566 .0303845
589.346 .0304232
590.126 .0304593
590.906 .0304919
591.685 .0305189
592.464 .0305390
593.242 .0305522
594.020 .0305599
594.797 .0305635
595.575 .0305643
596.351 .0305638
597.128 .0305617
597.904 .0305589
598.679 .0305556
599.454 .0305513
600.229 .0305458
601.004 .0305380
601.778 .0305287
602.551 .0305172
603.325 .0305044
604.097 .0304905
604.870 .0304762
605.642 .0304621
606.414 .0304477
607.185 .0304335
607.956 .0304198
608.727 .0304072
609.497 .0303950
610.267 .0303841
611.037 .0303742
611.806 .0303644
612.575 .0303545
613.344 .0303437
614.112 .0303323
614.880 .0303199
615.647 .0303062
616.414 .0302912
617.181 .0302754
617.948 .0302598
618.714 .0302439
619.480 .0302290
620.245 .0302134
621.011 .0301966
621.775 .0301781
622.540 .0301574
623.304 .0301337
624.068 .0301068
624.832 .0300775
625.595 .0300465
626.358 .0300151
627.120 .0299836
627.883 .0299522
628.645 .0299223
629.406 .0298927
630.168 .0298632
630.929 .0298332
631.689 .0298032
632.450 .0297721
633.210 .0297424
633.970 .0297137
634.729 .0296858
635.489 .0296602
636.248 .0296364
637.006 .0296143
637.765 .0295932
638.523 .0295719
639.280 .0295503
640.038 .0295287
640.795 .0295086
641.552 .0294890
642.309 .0294719
643.065 .0294578
643.821 .0294458
644.577 .0294352
645.332 .0294252
646.088 .0294135
646.843 .0293997
647.597 .0293832
648.352 .0293633
649.106 .0293413
649.860 .0293181
650.613 .0292948
651.367 .0292730
652.120 .0292533
652.872 .0292356
653.625 .0292188
654.377 .0292032
655.129 .0291874
655.881 .0291711
656.632 .0291538
657.384 .0291362
658.135 .0291189
658.885 .0291027
659.636 .0290881
660.386 .0290758
661.136 .0290662
661.885 .0290587
662.635 .0290531
663.384 .0290489
664.133 .0290452
664.881 .0290412
665.630 .0290363
666.378 .0290304
667.126 .0290231
667.874 .0290137
668.621 .0290027
669.368 .0289901
670.115 .0289767
670.862 .0289620
671.608 .0289472
672.354 .0289321
673.100 .0289172
673.846 .0289016
674.591 .0288854
675.337 .0288682
676.082 .0288508
676.826 .0288326
677.571 .0288135
678.315 .0287942
679.059 .0287750
679.803 .0287563
680.547 .0287392
681.290 .0287232
682.033 .0287087
682.776 .0286950
683.518 .0286822
684.261 .0286693
685.003 .0286559
685.745 .0286420
686.487 .0286277
687.228 .0286128
687.969 .0285978
688.710 .0285823
689.451 .0285665
690.192 .0285509
690.932 .0285351
691.672 .0285184
692.412 .0285011
693.152 .0284836
693.891 .0284657
694.630 .0284474
695.369 .0284296
696.108 .0284118
696.846 .0283944
697.585 .0283776
698.323 .0283601
699.061 .0283419
699.798 .0283234
700.536 .0283040
701.273 .0282840
702.010 .0282640
702.746 .0282434
703.483 .0282227
704.219 .0282024
704.955 .0281822
705.691 .0281615
706.427 .0281412
707.162 .0281211
707.897 .0281009
708.632 .0280815
709.367 .0280625
710.101 .0280443
710.835 .0280279
711.569 .0280128
712.303 .0279982
713.037 .0279842
713.770 .0279705
714.503 .0279563
715.236 .0279419
715.969 .0279272
716.702 .0279119
717.434 .0278964
718.166 .0278804
718.898 .0278639
719.629 .0278468
720.361 .0278292
721.092 .0278109
721.823 .0277923
722.554 .0277727
723.284 .0277525
724.014 .0277315
724.744 .0277105
725.474 .0276892
726.204 .0276677
726.933 .0276467
727.662 .0276260
728.391 .0276058
729.120 .0275867
729.849 .0275681
730.577 .0275505
731.305 .0275328
732.033 .0275156
732.760 .0274977
733.488 .0274796
734.215 .0274606
734.942 .0274408
735.669 .0274204
736.395 .0273999
737.122 .0273790
737.848 .0273586
738.573 .0273389
739.299 .0273197
740.024 .0273011
740.750 .0272833
741.474 .0272658
742.199 .0272493
742.924 .0272332
743.648 .0272181
744.372 .0272038
745.096 .0271909
745.819 .0271793
746.543 .0271693
747.266 .0271611
747.989 .0271538
748.711 .0271477
749.434 .0271428
750.156 .0271390
750.878 .0271364
751.599 .0271348
752.321 .0271341
753.042 .0271338
753.763 .0271337
754.484 .0271334
755.205 .0271323
755.925 .0271302
756.645 .0271266
757.365 .0271214
758.085 .0271146
758.804 .0271064
759.523 .0270969
760.242 .0270867
760.961 .0270755
761.679 .0270632
762.397 .0270493
763.115 .0270336
763.833 .0270162
764.551 .0269968
765.268 .0269755
765.985 .0269529
766.702 .0269292
767.418 .0269053
768.134 .0268815
768.850 .0268586
769.566 .0268367
770.282 .0268156
770.997 .0267952
771.712 .0267753
772.427 .0267562
773.142 .0267383
773.856 .0267215
774.570 .0267061
775.284 .0266923
775.998 .0266795
776.711 .0266678
777.424 .0266570
778.137 .0266471
778.849 .0266373
779.562 .0266277
780.274 .0266181
780.986 .0266082
781.697 .0265982
782.409 .0265887
783.120 .0265797
783.831 .0265713
784.541 .0265635
785.252 .0265563
785.962 .0265494
786.671 .0265426
787.381 .0265351
788.090 .0265267
788.799 .0265170
789.508 .0265062
790.217 .0264935
790.925 .0264797
791.633 .0264650
792.341 .0264498
793.048 .0264339
793.755 .0264178
794.462 .0264012
795.169 .0263841
795.875 .0263664
796.581 .0263480
797.287 .0263291
797.993 .0263101
798.698 .0262909
799.403 .0262723
800.108 .0262547
800.812 .0262386
801.517 .0262234
802.221 .0262098
802.924 .0261973
803.628 .0261863
804.331 .0261767
805.034 .0261684
805.736 .0261611
806.439 .0261547
807.141 .0261489
807.843 .0261434
808.544 .0261373
809.245 .0261305
809.946 .0261224
810.647 .0261130
811.347 .0261022
812.047 .0260906
812.747 .0260785
813.447 .0260662
814.146 .0260537
814.845 .0260414
815.543 .0260286
816.242 .0260155
816.940 .0260023
817.638 .0259888
818.335 .0259749
819.032 .0259610
819.729 .0259474
820.426 .0259343
821.122 .0259218
821.818 .0259098
822.514 .0258986
823.209 .0258881
823.905 .0258778
824.599 .0258674
825.294 .0258572
825.988 .0258469
826.682 .0258360
827.376 .0258246
828.069 .0258122
828.762 .0257991
829.455 .0257842
830.147 .0257682
830.840 .0257510
831.531 .0257330
832.223 .0257148
832.914 .0256966
833.605 .0256789
834.296 .0256620
834.986 .0256458
835.676 .0256302
836.366 .0256150
837.055 .0256003
837.744 .0255855
838.433 .0255713
839.121 .0255578
839.809 .0255451
840.497 .0255336
841.185 .0255241
841.872 .0255161
842.559 .0255093
843.245 .0255033
843.932 .0254973
844.617 .0254909
845.303 .0254840
845.988 .0254760
846.673 .0254670
847.358 .0254577
848.042 .0254484
848.726 .0254387
849.410 .0254288
850.093 .0254190
850.776 .0254091
851.459 .0253991
852.141 .0253884
852.823 .0253770
853.505 .0253653
854.186 .0253538
854.867 .0253427
855.548 .0253320
856.228 .0253223
856.908 .0253133
857.588 .0253050
858.267 .0252975
858.946 .0252900
859.625 .0252828
860.303 .0252762
860.981 .0252703
861.659 .0252649
862.336 .0252601
863.013 .0252556
863.690 .0252514
864.366 .0252469
865.042 .0252416
865.718 .0252351
866.393 .0252275
867.068 .0252194
867.743 .0252106
868.417 .0252012
869.091 .0251918
869.765 .0251817
870.438 .0251714
871.111 .0251600
871.783 .0251476
872.456 .0251344
873.127 .0251200
873.799 .0251054
874.470 .0250904
875.141 .0250755
875.811 .0250616
876.481 .0250486
877.151 .0250370
877.820 .0250265
878.489 .0250173
879.158 .0250088
879.826 .0250014
880.494 .0249949
881.162 .0249896
881.829 .0249851
882.496 .0249817
883.163 .0249786
883.829 .0249760
884.495 .0249737
885.160 .0249712
885.825 .0249684
886.490 .0249657
887.154 .0249625
887.818 .0249589
888.482 .0249548
889.145 .0249504
889.808 .0249458
890.471 .0249410
891.133 .0249355
891.795 .0249295
892.456 .0249230
893.117 .0249169
893.778 .0249112
894.439 .0249064
895.099 .0249026
895.758 .0248995
896.417 .0248974
897.076 .0248961
897.735 .0248950
898.393 .0248943
899.051 .0248944
899.708 .0248948
900.365 .0248950
901.022 .0248954
901.678 .0248958
902.334 .0248963
902.990 .0248967
903.645 .0248963
904.300 .0248950
904.954 .0248926
905.608 .0248892
906.262 .0248845
906.915 .0248797
907.568 .0248741
908.221 .0248680
908.873 .0248620
909.525 .0248559
910.176 .0248492
910.828 .0248422
911.478 .0248351
912.129 .0248273
912.778 .0248190
913.428 .0248107
914.077 .0248024
914.726 .0247951
915.375 .0247884
916.023 .0247827
916.670 .0247775
917.318 .0247731
917.964 .0247684
918.611 .0247634
919.257 .0247578
919.903 .0247506
920.548 .0247421
921.193 .0247329
921.838 .0247233
922.482 .0247137
923.126 .0247044
923.770 .0246960
924.413 .0246881
925.056 .0246808
925.698 .0246737
926.340 .0246666
926.982 .0246594
927.623 .0246516
928.264 .0246433
928.904 .0246344
929.544 .0246252
930.184 .0246159
930.823 .0246070
931.462 .0245982
932.101 .0245894
932.739 .0245807
933.377 .0245718
934.014 .0245626
934.651 .0245525
935.288 .0245416
935.924 .0245300
936.560 .0245172
937.196 .0245039
937.831 .0244896
938.466 .0244745
939.100 .0244593
939.734 .0244438
940.368 .0244283
941.001 .0244133
941.634 .0243987
942.266 .0243845
942.899 .0243704
943.530 .0243563
944.162 .0243417
944.793 .0243269
945.423 .0243114
946.053 .0242951
946.683 .0242784
947.313 .0242617
947.942 .0242455
948.571 .0242302
949.199 .0242160
949.827 .0242023
950.455 .0241897
951.082 .0241776
951.709 .0241658
952.335 .0241542
952.961 .0241428
953.587 .0241315
954.212 .0241201
954.837 .0241089
955.462 .0240979
956.086 .0240877
956.710 .0240790
957.334 .0240709
957.957 .0240635
958.579 .0240565
959.202 .0240494
959.824 .0240416
960.445 .0240331
961.067 .0240232
961.688 .0240120
962.308 .0239994
962.928 .0239856
963.548 .0239712
964.168 .0239565
964.787 .0239422
965.406 .0239283
966.024 .0239153
966.642 .0239026
967.260 .0238899
967.877 .0238777
968.494 .0238648
969.110 .0238514
969.727 .0238375
970.342 .0238233
970.958 .0238096
971.573 .0237964
972.188 .0237840
972.802 .0237726
973.416 .0237628
974.030 .0237537
974.643 .0237453
975.256 .0237369
975.869 .0237283
976.481 .0237189
977.093 .0237093
977.705 .0236992
978.316 .0236888
978.927 .0236788
979.538 .0236687
980.148 .0236580
980.758 .0236475
981.367 .0236362
981.977 .0236252
982.586 .0236144
983.194 .0236043
983.802 .0235945
984.410 .0235858
985.018 .0235772
985.625 .0235690
986.232 .0235600
986.838 .0235501
987.445 .0235379
988.050 .0235241
988.656 .0235090
989.261 .0234925
989.866 .0234752
990.471 .0234590
991.075 .0234440
991.679 .0234305
992.282 .0234178
992.886 .0234067
993.489 .0233967
994.091 .0233875
994.694 .0233791
995.296 .0233714
995.897 .0233646
996.499 .0233595
997.100 .0233555
997.701 .0233533
998.301 .0233534
998.901 .0233554
999.501 .0233593
1000.101 .0233649
1000.700 .0233709
1001.299 .0233763
1001.898 .0233814
1002.496 .0233859
1003.094 .0233886
1003.692 .0233902
1004.289 .0233905
1004.887 .0233897
1005.484 .0233886
1006.080 .0233873
1006.677 .0233854
1007.273 .0233841
1007.868 .0233830
1008.464 .0233814
1009.059 .0233792
1009.654 .0233764
1010.249 .0233722
1010.843 .0233667
1011.437 .0233603
1012.031 .0233521
1012.625 .0233428
1013.218 .0233330
1013.811 .0233230
1014.404 .0233135
1014.997 .0233052
1015.589 .0232981
1016.181 .0232920
1016.773 .0232874
1017.365 .0232826
1017.956 .0232767
1018.547 .0232707
1019.138 .0232638
1019.728 .0232567
1020.319 .0232501
1020.909 .0232456
1021.499 .0232431
1022.088 .0232433
1022.678 .0232457
1023.267 .0232500
1023.856 .0232552
1024.445 .0232599
1025.033 .0232632
1025.621 .0232647
1026.209 .0232649
1026.797 .0232633
1027.385 .0232611
1027.972 .0232595
1028.560 .0232580
1029.147 .0232569
1029.734 .0232558
1030.320 .0232555
1030.907 .0232551
1031.493 .0232547
1032.079 .0232551
1032.665 .0232560
1033.250 .0232578
1033.836 .0232594
1034.421 .0232612
1035.006 .0232632
1035.591 .0232646
1036.176 .0232649
1036.761 .0232642
1037.345 .0232631
1037.929 .0232613
1038.514 .0232588
1039.097 .0232560
1039.681 .0232533
1040.265 .0232501
1040.848 .0232458
1041.432 .0232402
1042.015 .0232326
1042.598 .0232238
1043.181 .0232130
1043.764 .0232011
1044.346 .0231889
1044.929 .0231764
1045.511 .0231644
1046.094 .0231532
1046.676 .0231433
1047.258 .0231347
1047.840 .0231273
1048.422 .0231206
1049.003 .0231142
1049.585 .0231084
1050.166 .0231029
1050.748 .0230976
1051.329 .0230927
1051.910 .0230881
1052.491 .0230844
1053.072 .0230806
1053.653 .0230764
1054.234 .0230719
1054.815 .0230673
1055.396 .0230615
1055.976 .0230550
1056.557 .0230482
1057.138 .0230410
1057.718 .0230343
1058.298 .0230282
1058.879 .0230229
1059.459 .0230182
1060.039 .0230139
1060.620 .0230090
1061.200 .0230037
1061.780 .0229975
1062.360 .0229881
1062.940 .0229780
1063.520 .0229674
1064.101 .0229559
1064.681 .0229435
1065.261 .0229308
1065.841 .0229178
1066.421 .0229045
1067.001 .0228921
1067.581 .0228794
1068.161 .0228681
1068.741 .0228582
1069.321 .0228490
1069.901 .0228408
1070.482 .0228341
1071.062 .0228283
1071.642 .0228230
1072.222 .0228192
1072.803 .0228151
1073.383 .0228110
1073.963 .0228091
1074.544 .0228103
1075.124 .0228135
1075.705 .0228179
1076.286 .0228252
1076.866 .0228323
1077.447 .0228390
1078.028 .0228436
1078.609 .0228464
1079.190 .0228470
1079.771 .0228451
1080.352 .0228410
1080.934 .0228351
1081.515 .0228304
1082.097 .0228269
1082.679 .0228243
1083.260 .0228247
1083.842 .0228260
1084.424 .0228266
1085.007 .0228267
1085.589 .0228267
1086.172 .0228231
1086.754 .0228166
1087.337 .0228080
1087.920 .0227980
1088.503 .0227873
1089.087 .0227771
1089.670 .0227679
1090.254 .0227605
1090.838 .0227553
1091.422 .0227492
1092.006 .0227422
1092.590 .0227350
1093.175 .0227250
1093.760 .0227115
1094.345 .0226961
1094.930 .0226788
1095.516 .0226621
1096.102 .0226492
1096.688 .0226389
1097.274 .0226327
1097.860 .0226312
1098.447 .0226312
1099.034 .0226311
1099.622 .0226315
1100.209 .0226302
1100.797 .0226254
1101.385 .0226193
1101.973 .0226107
1102.562 .0225995
1103.151 .0225895
1103.740 .0225806
1104.330 .0225717
1104.920 .0225666
1105.510 .0225621
1106.101 .0225546
1106.691 .0225461
1107.283 .0225366
1107.874 .0225227
1108.466 .0225056
1109.058 .0224862
1109.651 .0224649
1110.244 .0224450
1110.837 .0224297
1111.431 .0224193
1112.025 .0224189
1112.620 .0224290
1113.215 .0224463
1113.810 .0224704
1114.406 .0225013
1115.002 .0225334
1115.599 .0225655
1116.196 .0225958
1116.793 .0226224
1117.391 .0226430
1117.989 .0226573
1118.588 .0226689
1119.187 .0226806
1119.787 .0226920
1120.387 .0227047
1120.988 .0227210
1121.589 .0227407
1122.190 .0227596
1122.793 .0227775
1123.395 .0227946
1123.998 .0228094
1124.602 .0228205
1125.206 .0228264
1125.811 .0228305
1126.416 .0228368
1127.022 .0228456
1127.628 .0228590
1128.235 .0228805
1128.843 .0229102
1129.451 .0229451
1130.059 .0229855
1130.669 .0230317
1131.278 .0230773
1131.889 .0231203
1132.500 .0231577
1133.112 .0231884
1133.724 .0232127
1134.337 .0232303
1134.950 .0232406
1135.564 .0232474
1136.179 .0232527
1136.795 .0232618
1137.411 .0232772
1138.028 .0233022
1138.645 .0233391
1139.263 .0233870
1139.882 .0234396
1140.502 .0235014
1141.122 .0235642
1141.743 .0236421
1142.365 .0237471
1142.987 .0236300
1143.611 .0238745
1144.235 .0238629
1144.859 .0242991
1145.485 .0249235
