Measurement Sequence started on: 10-20-44-796
Integration time: 35
Scans to Average: 2 
>>>>>Begin Spectral Data<<<<<
432.953 .0230450
433.882 .0321518
434.810 .0324500
435.737 .0309815
436.662 .0317343
437.586 .0321446
438.509 .0325501
439.431 .0325946
440.351 .0325969
441.269 .0326061
442.187 .0325827
443.103 .0325380
444.018 .0325474
444.932 .0325832
445.844 .0326399
446.756 .0326872
447.666 .0327385
448.575 .0327646
449.482 .0327746
450.388 .0327625
451.294 .0327336
452.198 .0326859
453.100 .0326308
454.002 .0325770
454.902 .0325324
455.801 .0324901
456.699 .0324492
457.596 .0324163
458.492 .0323892
459.387 .0323610
460.280 .0323386
461.172 .0323097
462.064 .0322800
462.954 .0322440
463.843 .0322007
464.730 .0321574
465.617 .0321148
466.503 .0320718
467.387 .0320364
468.271 .0320103
469.153 .0319904
470.035 .0319735
470.915 .0319666
471.794 .0319565
472.673 .0319423
473.550 .0319261
474.426 .0319009
475.301 .0318672
476.175 .0318302
477.048 .0317892
477.920 .0317496
478.791 .0317187
479.661 .0316933
480.530 .0316739
481.398 .0316600
482.266 .0316476
483.132 .0316342
483.997 .0316183
484.861 .0315996
485.724 .0315763
486.587 .0315555
487.448 .0315353
488.308 .0315170
489.168 .0315020
490.026 .0314876
490.884 .0314750
491.741 .0314581
492.597 .0314325
493.452 .0313977
494.306 .0313546
495.159 .0313040
496.011 .0312478
496.862 .0311891
497.713 .0311280
498.562 .0310660
499.411 .0310037
500.259 .0309399
501.106 .0308713
501.952 .0308004
502.798 .0307242
503.642 .0306411
504.486 .0305557
505.329 .0304652
506.171 .0303729
507.012 .0302816
507.852 .0301911
508.692 .0300996
509.531 .0300089
510.369 .0299209
511.206 .0298310
512.043 .0297347
512.878 .0296313
513.713 .0295154
514.547 .0293821
515.381 .0292367
516.213 .0290785
517.045 .0289096
517.876 .0287409
518.706 .0285759
519.536 .0284184
520.365 .0282683
521.193 .0281269
522.020 .0279970
522.847 .0278689
523.673 .0277492
524.498 .0276307
525.323 .0275143
526.146 .0274064
526.969 .0273046
527.792 .0272037
528.614 .0271133
529.435 .0270212
530.255 .0269294
531.075 .0268267
531.894 .0267292
532.712 .0266216
533.530 .0265109
534.347 .0264020
535.163 .0262956
535.979 .0261990
536.794 .0261157
537.608 .0260400
538.422 .0259765
539.235 .0259117
540.048 .0258498
540.860 .0257825
541.671 .0257254
542.481 .0256695
543.292 .0256258
544.101 .0255957
544.910 .0255868
545.718 .0255986
546.526 .0256312
547.333 .0256864
548.139 .0257583
548.945 .0258338
549.750 .0259055
550.555 .0259740
551.359 .0260353
552.162 .0260868
552.965 .0261380
553.768 .0261821
554.569 .0262318
555.371 .0262841
556.171 .0263408
556.972 .0264072
557.771 .0264801
558.570 .0265555
559.369 .0266260
560.167 .0266955
560.964 .0267583
561.761 .0268140
562.558 .0268734
563.354 .0269312
564.149 .0269894
564.944 .0270540
565.738 .0271186
566.532 .0271888
567.325 .0272646
568.118 .0273422
568.910 .0274231
569.702 .0275084
570.494 .0275950
571.285 .0276812
572.075 .0277725
572.865 .0278650
573.654 .0279533
574.443 .0280393
575.232 .0281204
576.020 .0281936
576.807 .0282613
577.594 .0283231
578.381 .0283796
579.167 .0284382
579.952 .0284984
580.738 .0285590
581.522 .0286231
582.307 .0286890
583.091 .0287543
583.874 .0288183
584.657 .0288801
585.440 .0289346
586.222 .0289843
587.004 .0290301
587.785 .0290727
588.566 .0291127
589.346 .0291529
590.126 .0291916
590.906 .0292306
591.685 .0292695
592.464 .0293042
593.242 .0293335
594.020 .0293595
594.797 .0293788
595.575 .0293909
596.351 .0293971
597.128 .0293982
597.904 .0293945
598.679 .0293891
599.454 .0293801
600.229 .0293693
601.004 .0293564
601.778 .0293428
602.551 .0293280
603.325 .0293133
604.097 .0292980
604.870 .0292822
605.642 .0292676
606.414 .0292545
607.185 .0292421
607.956 .0292331
608.727 .0292272
609.497 .0292239
610.267 .0292221
611.037 .0292214
611.806 .0292208
612.575 .0292196
613.344 .0292155
614.112 .0292089
614.880 .0291987
615.647 .0291856
616.414 .0291694
617.181 .0291522
617.948 .0291348
618.714 .0291170
619.480 .0290989
620.245 .0290805
621.011 .0290607
621.775 .0290404
622.540 .0290195
623.304 .0289989
624.068 .0289791
624.832 .0289605
625.595 .0289432
626.358 .0289293
627.120 .0289178
627.883 .0289079
628.645 .0288986
629.406 .0288904
630.168 .0288813
630.929 .0288719
631.689 .0288630
632.450 .0288547
633.210 .0288484
633.970 .0288429
634.729 .0288372
635.489 .0288307
636.248 .0288226
637.006 .0288117
637.765 .0287972
638.523 .0287796
639.280 .0287587
640.038 .0287357
640.795 .0287120
641.552 .0286888
642.309 .0286666
643.065 .0286462
643.821 .0286262
644.577 .0286066
645.332 .0285870
646.088 .0285663
646.843 .0285462
647.597 .0285269
648.352 .0285094
649.106 .0284933
649.860 .0284790
650.613 .0284671
651.367 .0284562
652.120 .0284461
652.872 .0284367
653.625 .0284272
654.377 .0284182
655.129 .0284090
655.881 .0283999
656.632 .0283907
657.384 .0283810
658.135 .0283710
658.885 .0283596
659.636 .0283467
660.386 .0283324
661.136 .0283161
661.885 .0282996
662.635 .0282838
663.384 .0282680
664.133 .0282548
664.881 .0282434
665.630 .0282336
666.378 .0282255
667.126 .0282184
667.874 .0282111
668.621 .0282034
669.368 .0281954
670.115 .0281870
670.862 .0281767
671.608 .0281673
672.354 .0281575
673.100 .0281494
673.846 .0281429
674.591 .0281367
675.337 .0281317
676.082 .0281280
676.826 .0281240
677.571 .0281189
678.315 .0281125
679.059 .0281056
679.803 .0280955
680.547 .0280838
681.290 .0280698
682.033 .0280540
682.776 .0280368
683.518 .0280197
684.261 .0280021
685.003 .0279855
685.745 .0279690
686.487 .0279535
687.228 .0279387
687.969 .0279248
688.710 .0279106
689.451 .0278962
690.192 .0278824
690.932 .0278687
691.672 .0278544
692.412 .0278415
693.152 .0278293
693.891 .0278187
694.630 .0278093
695.369 .0278011
696.108 .0277937
696.846 .0277860
697.585 .0277777
698.323 .0277686
699.061 .0277580
699.798 .0277464
700.536 .0277329
701.273 .0277192
702.010 .0277052
702.746 .0276907
703.483 .0276759
704.219 .0276615
704.955 .0276472
705.691 .0276327
706.427 .0276171
707.162 .0276010
707.897 .0275843
708.632 .0275676
709.367 .0275507
710.101 .0275338
710.835 .0275171
711.569 .0275006
712.303 .0274836
713.037 .0274671
713.770 .0274501
714.503 .0274332
715.236 .0274161
715.969 .0273993
716.702 .0273822
717.434 .0273658
718.166 .0273501
718.898 .0273354
719.629 .0273219
720.361 .0273096
721.092 .0272975
721.823 .0272850
722.554 .0272716
723.284 .0272571
724.014 .0272405
724.744 .0272223
725.474 .0272026
726.204 .0271822
726.933 .0271613
727.662 .0271404
728.391 .0271199
729.120 .0270994
729.849 .0270798
730.577 .0270598
731.305 .0270397
732.033 .0270193
732.760 .0269983
733.488 .0269766
734.215 .0269550
734.942 .0269335
735.669 .0269120
736.395 .0268912
737.122 .0268712
737.848 .0268508
738.573 .0268310
739.299 .0268111
740.024 .0267916
740.750 .0267717
741.474 .0267524
742.199 .0267318
742.924 .0267115
743.648 .0266916
744.372 .0266720
745.096 .0266533
745.819 .0266357
746.543 .0266191
747.266 .0266037
747.989 .0265890
748.711 .0265756
749.434 .0265631
750.156 .0265528
750.878 .0265430
751.599 .0265347
752.321 .0265281
753.042 .0265238
753.763 .0265210
754.484 .0265202
755.205 .0265208
755.925 .0265221
756.645 .0265231
757.365 .0265226
758.085 .0265204
758.804 .0265170
759.523 .0265116
760.242 .0265045
760.961 .0264952
761.679 .0264844
762.397 .0264708
763.115 .0264549
763.833 .0264367
764.551 .0264153
765.268 .0263910
765.985 .0263638
766.702 .0263341
767.418 .0263033
768.134 .0262713
768.850 .0262401
769.566 .0262100
770.282 .0261821
770.997 .0261559
771.712 .0261316
772.427 .0261094
773.142 .0260888
773.856 .0260695
774.570 .0260512
775.284 .0260332
775.998 .0260159
776.711 .0259993
777.424 .0259833
778.137 .0259674
778.849 .0259523
779.562 .0259374
780.274 .0259226
780.986 .0259070
781.697 .0258912
782.409 .0258755
783.120 .0258597
783.831 .0258448
784.541 .0258306
785.252 .0258181
785.962 .0258069
786.671 .0257967
787.381 .0257878
788.090 .0257795
788.799 .0257714
789.508 .0257627
790.217 .0257543
790.925 .0257461
791.633 .0257379
792.341 .0257303
793.048 .0257233
793.755 .0257166
794.462 .0257093
795.169 .0257013
795.875 .0256919
796.581 .0256812
797.287 .0256692
797.993 .0256557
798.698 .0256419
799.403 .0256284
800.108 .0256157
800.812 .0256041
801.517 .0255943
802.221 .0255856
802.924 .0255773
803.628 .0255687
804.331 .0255598
805.034 .0255497
805.736 .0255384
806.439 .0255255
807.141 .0255117
807.843 .0254976
808.544 .0254830
809.245 .0254684
809.946 .0254545
810.647 .0254415
811.347 .0254292
812.047 .0254174
812.747 .0254069
813.447 .0253968
814.146 .0253872
814.845 .0253783
815.543 .0253700
816.242 .0253626
816.940 .0253559
817.638 .0253496
818.335 .0253438
819.032 .0253384
819.729 .0253323
820.426 .0253254
821.122 .0253179
821.818 .0253095
822.514 .0252997
823.209 .0252896
823.905 .0252792
824.599 .0252679
825.294 .0252567
825.988 .0252446
826.682 .0252315
827.376 .0252178
828.069 .0252031
828.762 .0251880
829.455 .0251733
830.147 .0251596
830.840 .0251472
831.531 .0251368
832.223 .0251286
832.914 .0251209
833.605 .0251130
834.296 .0251048
834.986 .0250949
835.676 .0250831
836.366 .0250695
837.055 .0250539
837.744 .0250380
838.433 .0250213
839.121 .0250048
839.809 .0249883
840.497 .0249721
841.185 .0249562
841.872 .0249398
842.559 .0249233
843.245 .0249071
843.932 .0248911
844.617 .0248756
845.303 .0248612
845.988 .0248479
846.673 .0248356
847.358 .0248243
848.042 .0248140
848.726 .0248048
849.410 .0247959
850.093 .0247878
850.776 .0247800
851.459 .0247727
852.141 .0247654
852.823 .0247572
853.505 .0247489
854.186 .0247405
854.867 .0247315
855.548 .0247227
856.228 .0247149
856.908 .0247079
857.588 .0247019
858.267 .0246969
858.946 .0246920
859.625 .0246869
860.303 .0246812
860.981 .0246746
861.659 .0246667
862.336 .0246587
863.013 .0246496
863.690 .0246406
864.366 .0246324
865.042 .0246246
865.718 .0246161
866.393 .0246072
867.068 .0245969
867.743 .0245847
868.417 .0245703
869.091 .0245538
869.765 .0245355
870.438 .0245166
871.111 .0244970
871.783 .0244772
872.456 .0244577
873.127 .0244395
873.799 .0244219
874.470 .0244049
875.141 .0243883
875.811 .0243722
876.481 .0243560
877.151 .0243405
877.820 .0243253
878.489 .0243106
879.158 .0242966
879.826 .0242838
880.494 .0242713
881.162 .0242594
881.829 .0242481
882.496 .0242368
883.163 .0242251
883.829 .0242132
884.495 .0241998
885.160 .0241857
885.825 .0241712
886.490 .0241561
887.154 .0241406
887.818 .0241260
888.482 .0241118
889.145 .0240986
889.808 .0240870
890.471 .0240764
891.133 .0240671
891.795 .0240591
892.456 .0240517
893.117 .0240444
893.778 .0240377
894.439 .0240305
895.099 .0240229
895.758 .0240154
896.417 .0240072
897.076 .0239987
897.735 .0239900
898.393 .0239807
899.051 .0239709
899.708 .0239604
900.365 .0239491
901.022 .0239362
901.678 .0239225
902.334 .0239077
902.990 .0238922
903.645 .0238770
904.300 .0238624
904.954 .0238484
905.608 .0238364
906.262 .0238261
906.915 .0238173
907.568 .0238091
908.221 .0238015
908.873 .0237937
909.525 .0237858
910.176 .0237769
910.828 .0237678
911.478 .0237590
912.129 .0237510
912.778 .0237436
913.428 .0237372
914.077 .0237316
914.726 .0237268
915.375 .0237218
916.023 .0237167
916.670 .0237111
917.318 .0237052
917.964 .0236994
918.611 .0236941
919.257 .0236896
919.903 .0236857
920.548 .0236828
921.193 .0236810
921.838 .0236791
922.482 .0236770
923.126 .0236740
923.770 .0236700
924.413 .0236649
925.056 .0236589
925.698 .0236518
926.340 .0236442
926.982 .0236362
927.623 .0236276
928.264 .0236182
928.904 .0236077
929.544 .0235965
930.184 .0235845
930.823 .0235724
931.462 .0235596
932.101 .0235468
932.739 .0235340
933.377 .0235210
934.014 .0235080
934.651 .0234943
935.288 .0234803
935.924 .0234658
936.560 .0234509
937.196 .0234364
937.831 .0234224
938.466 .0234097
939.100 .0233980
939.734 .0233879
940.368 .0233785
941.001 .0233696
941.634 .0233607
942.266 .0233517
942.899 .0233421
943.530 .0233318
944.162 .0233208
944.793 .0233091
945.423 .0232972
946.053 .0232849
946.683 .0232727
947.313 .0232603
947.942 .0232473
948.571 .0232337
949.199 .0232186
949.827 .0232024
950.455 .0231847
951.082 .0231658
951.709 .0231464
952.335 .0231266
952.961 .0231073
953.587 .0230886
954.212 .0230713
954.837 .0230548
955.462 .0230400
956.086 .0230264
956.710 .0230142
957.334 .0230028
957.957 .0229925
958.579 .0229835
959.202 .0229755
959.824 .0229679
960.445 .0229606
961.067 .0229538
961.688 .0229473
962.308 .0229404
962.928 .0229338
963.548 .0229268
964.168 .0229206
964.787 .0229151
965.406 .0229103
966.024 .0229058
966.642 .0229019
967.260 .0228982
967.877 .0228940
968.494 .0228898
969.110 .0228851
969.727 .0228798
970.342 .0228747
970.958 .0228699
971.573 .0228648
972.188 .0228604
972.802 .0228577
973.416 .0228556
974.030 .0228540
974.643 .0228525
975.256 .0228508
975.869 .0228495
976.481 .0228490
977.093 .0228487
977.705 .0228489
978.316 .0228506
978.927 .0228531
979.538 .0228558
980.148 .0228597
980.758 .0228633
981.367 .0228672
981.977 .0228711
982.586 .0228746
983.194 .0228769
983.802 .0228788
984.410 .0228798
985.018 .0228791
985.625 .0228761
986.232 .0228712
986.838 .0228636
987.445 .0228546
988.050 .0228438
988.656 .0228322
989.261 .0228199
989.866 .0228076
990.471 .0227956
991.075 .0227853
991.679 .0227762
992.282 .0227689
992.886 .0227634
993.489 .0227599
994.091 .0227577
994.694 .0227569
995.296 .0227571
995.897 .0227584
996.499 .0227602
997.100 .0227614
997.701 .0227630
998.301 .0227655
998.901 .0227683
999.501 .0227716
1000.101 .0227757
1000.700 .0227794
1001.299 .0227817
1001.898 .0227832
1002.496 .0227827
1003.094 .0227797
1003.692 .0227756
1004.289 .0227703
1004.887 .0227642
1005.484 .0227592
1006.080 .0227564
1006.677 .0227558
1007.273 .0227580
1007.868 .0227613
1008.464 .0227651
1009.059 .0227681
1009.654 .0227709
1010.249 .0227718
1010.843 .0227718
1011.437 .0227724
1012.031 .0227721
1012.625 .0227723
1013.218 .0227737
1013.811 .0227753
1014.404 .0227777
1014.997 .0227800
1015.589 .0227822
1016.181 .0227828
1016.773 .0227815
1017.365 .0227793
1017.956 .0227757
1018.547 .0227705
1019.138 .0227640
1019.728 .0227564
1020.319 .0227493
1020.909 .0227422
1021.499 .0227351
1022.088 .0227293
1022.678 .0227250
1023.267 .0227226
1023.856 .0227208
1024.445 .0227201
1025.033 .0227208
1025.621 .0227211
1026.209 .0227214
1026.797 .0227213
1027.385 .0227200
1027.972 .0227184
1028.560 .0227164
1029.147 .0227143
1029.734 .0227128
1030.320 .0227116
1030.907 .0227113
1031.493 .0227120
1032.079 .0227141
1032.665 .0227157
1033.250 .0227167
1033.836 .0227174
1034.421 .0227170
1035.006 .0227154
1035.591 .0227132
1036.176 .0227097
1036.761 .0227075
1037.345 .0227051
1037.929 .0227026
1038.514 .0227015
1039.097 .0227024
1039.681 .0227021
1040.265 .0227011
1040.848 .0226987
1041.432 .0226946
1042.015 .0226881
1042.598 .0226802
1043.181 .0226716
1043.764 .0226634
1044.346 .0226561
1044.929 .0226492
1045.511 .0226434
1046.094 .0226400
1046.676 .0226356
1047.258 .0226315
1047.840 .0226270
1048.422 .0226208
1049.003 .0226130
1049.585 .0226039
1050.166 .0225941
1050.748 .0225845
1051.329 .0225744
1051.910 .0225655
1052.491 .0225587
1053.072 .0225536
1053.653 .0225492
1054.234 .0225453
1054.815 .0225428
1055.396 .0225395
1055.976 .0225341
1056.557 .0225277
1057.138 .0225189
1057.718 .0225102
1058.298 .0225016
1058.879 .0224926
1059.459 .0224870
1060.039 .0224829
1060.620 .0224798
1061.200 .0224788
1061.780 .0224786
1062.360 .0224786
1062.940 .0224780
1063.520 .0224780
1064.101 .0224769
1064.681 .0224741
1065.261 .0224698
1065.841 .0224623
1066.421 .0224545
1067.001 .0224461
1067.581 .0224344
1068.161 .0224208
1068.741 .0224065
1069.321 .0223905
1069.901 .0223731
1070.482 .0223549
1071.062 .0223347
1071.642 .0223120
1072.222 .0222864
1072.803 .0222578
1073.383 .0222266
1073.963 .0221964
1074.544 .0221681
1075.124 .0221447
1075.705 .0221294
1076.286 .0221205
1076.866 .0221199
1077.447 .0221279
1078.028 .0221423
1078.609 .0221610
1079.190 .0221815
1079.771 .0222036
1080.352 .0222261
1080.934 .0222485
1081.515 .0222707
1082.097 .0222934
1082.679 .0223171
1083.260 .0223395
1083.842 .0223593
1084.424 .0223756
1085.007 .0223854
1085.589 .0223888
1086.172 .0223866
1086.754 .0223784
1087.337 .0223662
1087.920 .0223502
1088.503 .0223326
1089.087 .0223169
1089.670 .0223025
1090.254 .0222888
1090.838 .0222762
1091.422 .0222651
1092.006 .0222546
1092.590 .0222432
1093.175 .0222320
1093.760 .0222188
1094.345 .0222040
1094.930 .0221875
1095.516 .0221678
1096.102 .0221452
1096.688 .0221209
1097.274 .0220950
1097.860 .0220690
1098.447 .0220427
1099.034 .0220150
1099.622 .0219888
1100.209 .0219631
1100.797 .0219389
1101.385 .0219140
1101.973 .0218893
1102.562 .0218677
1103.151 .0218496
1103.740 .0218370
1104.330 .0218313
1104.920 .0218335
1105.510 .0218444
1106.101 .0218617
1106.691 .0218823
1107.283 .0219029
1107.874 .0219238
1108.466 .0219401
1109.058 .0219529
1109.651 .0219606
1110.244 .0219681
1110.837 .0219735
1111.431 .0219824
1112.025 .0219939
1112.620 .0220075
1113.215 .0220228
1113.810 .0220374
1114.406 .0220487
1115.002 .0220572
1115.599 .0220595
1116.196 .0220567
1116.793 .0220499
1117.391 .0220474
1117.989 .0220429
1118.588 .0220455
1119.187 .0220534
1119.787 .0220668
1120.387 .0220788
1120.988 .0220912
1121.589 .0220972
1122.190 .0220963
1122.793 .0220876
1123.395 .0220723
1123.998 .0220548
1124.602 .0220412
1125.206 .0220294
1125.811 .0220255
1126.416 .0220315
1127.022 .0220455
1127.628 .0220549
1128.235 .0220633
1128.843 .0220670
1129.451 .0220650
1130.059 .0220599
1130.669 .0220576
1131.278 .0220594
1131.889 .0220727
1132.500 .0220918
1133.112 .0221194
1133.724 .0221518
1134.337 .0221881
1134.950 .0222262
1135.564 .0222668
1136.179 .0223118
1136.795 .0223633
1137.411 .0224236
1138.028 .0224998
1138.645 .0225859
1139.263 .0226839
1139.882 .0227890
1140.502 .0229085
1141.122 .0230425
1141.743 .0231697
1142.365 .0232795
1142.987 .0234106
1143.611 .0237369
1144.235 .0239712
1144.859 .0236168
1145.485 .0232360
