Measurement Sequence started on: 10-20-44-796
Integration time: 35
Scans to Average: 2 
>>>>>Begin Spectral Data<<<<<
432.953 .0456566
433.882 .0427496
434.810 .0430749
435.737 .0422529
436.662 .0403052
437.586 .0409273
438.509 .0404970
439.431 .0402277
440.351 .0400168
441.269 .0398878
442.187 .0398310
443.103 .0397916
444.018 .0397611
444.932 .0397546
445.844 .0397723
446.756 .0397968
447.666 .0398311
448.575 .0398452
449.482 .0398568
450.388 .0398477
451.294 .0398064
452.198 .0397428
453.100 .0396629
454.002 .0395693
454.902 .0394825
455.801 .0394104
456.699 .0393524
457.596 .0393052
458.492 .0392699
459.387 .0392299
460.280 .0391830
461.172 .0391307
462.064 .0390741
462.954 .0390115
463.843 .0389511
464.730 .0388961
465.617 .0388525
466.503 .0388228
467.387 .0388000
468.271 .0387767
469.153 .0387621
470.035 .0387410
470.915 .0387156
471.794 .0386870
472.673 .0386557
473.550 .0386216
474.426 .0385894
475.301 .0385581
476.175 .0385262
477.048 .0384913
477.920 .0384538
478.791 .0384097
479.661 .0383635
480.530 .0383122
481.398 .0382581
482.266 .0382095
483.132 .0381683
483.997 .0381293
484.861 .0381004
485.724 .0380812
486.587 .0380676
487.448 .0380545
488.308 .0380387
489.168 .0380159
490.026 .0379847
490.884 .0379430
491.741 .0378905
492.597 .0378343
493.452 .0377783
494.306 .0377242
495.159 .0376750
496.011 .0376347
496.862 .0375961
497.713 .0375553
498.562 .0375037
499.411 .0374375
500.259 .0373520
501.106 .0372495
501.952 .0371327
502.798 .0370088
503.642 .0368841
504.486 .0367626
505.329 .0366489
506.171 .0365456
507.012 .0364466
507.852 .0363499
508.692 .0362447
509.531 .0361330
510.369 .0360096
511.206 .0358772
512.043 .0357341
512.878 .0355874
513.713 .0354371
514.547 .0352851
515.381 .0351320
516.213 .0349779
517.045 .0348201
517.876 .0346581
518.706 .0344897
519.536 .0343140
520.365 .0341322
521.193 .0339458
522.020 .0337558
522.847 .0335664
523.673 .0333748
524.498 .0331843
525.323 .0329981
526.146 .0328257
526.969 .0326644
527.792 .0325165
528.614 .0323799
529.435 .0322595
530.255 .0321577
531.075 .0320663
531.894 .0319931
532.712 .0319371
533.530 .0318955
534.347 .0318677
535.163 .0318434
535.979 .0318287
536.794 .0318202
537.608 .0318138
538.422 .0317977
539.235 .0317737
540.048 .0317392
540.860 .0316914
541.671 .0316358
542.481 .0315768
543.292 .0315138
544.101 .0314577
544.910 .0314101
545.718 .0313697
546.526 .0313453
547.333 .0313405
548.139 .0313455
548.945 .0313698
549.750 .0314021
550.555 .0314427
551.359 .0314885
552.162 .0315391
552.965 .0315919
553.768 .0316456
554.569 .0317009
555.371 .0317507
556.171 .0317956
556.972 .0318415
557.771 .0318807
558.570 .0319212
559.369 .0319615
560.167 .0320005
560.964 .0320424
561.761 .0320876
562.558 .0321355
563.354 .0321920
564.149 .0322554
564.944 .0323259
565.738 .0324022
566.532 .0324825
567.325 .0325645
568.118 .0326462
568.910 .0327285
569.702 .0328055
570.494 .0328793
571.285 .0329508
572.075 .0330182
572.865 .0330831
573.654 .0331423
574.443 .0331954
575.232 .0332424
576.020 .0332781
576.807 .0333037
577.594 .0333181
578.381 .0333229
579.167 .0333206
579.952 .0333170
580.738 .0333148
581.522 .0333177
582.307 .0333260
583.091 .0333436
583.874 .0333667
584.657 .0333937
585.440 .0334216
586.222 .0334476
587.004 .0334729
587.785 .0334957
588.566 .0335155
589.346 .0335345
590.126 .0335510
590.906 .0335667
591.685 .0335810
592.464 .0335937
593.242 .0336036
594.020 .0336092
594.797 .0336120
595.575 .0336106
596.351 .0336050
597.128 .0335964
597.904 .0335850
598.679 .0335717
599.454 .0335569
600.229 .0335404
601.004 .0335233
601.778 .0335052
602.551 .0334856
603.325 .0334654
604.097 .0334451
604.870 .0334248
605.642 .0334049
606.414 .0333858
607.185 .0333683
607.956 .0333514
608.727 .0333353
609.497 .0333195
610.267 .0333035
611.037 .0332865
611.806 .0332675
612.575 .0332472
613.344 .0332250
614.112 .0332013
614.880 .0331768
615.647 .0331528
616.414 .0331289
617.181 .0331052
617.948 .0330815
618.714 .0330576
619.480 .0330333
620.245 .0330078
621.011 .0329811
621.775 .0329539
622.540 .0329267
623.304 .0329003
624.068 .0328746
624.832 .0328507
625.595 .0328271
626.358 .0328041
627.120 .0327805
627.883 .0327550
628.645 .0327272
629.406 .0326974
630.168 .0326668
630.929 .0326356
631.689 .0326045
632.450 .0325738
633.210 .0325437
633.970 .0325141
634.729 .0324842
635.489 .0324528
636.248 .0324200
637.006 .0323863
637.765 .0323517
638.523 .0323172
639.280 .0322846
640.038 .0322545
640.795 .0322286
641.552 .0322064
642.309 .0321871
643.065 .0321696
643.821 .0321531
644.577 .0321353
645.332 .0321164
646.088 .0320956
646.843 .0320725
647.597 .0320474
648.352 .0320216
649.106 .0319955
649.860 .0319697
650.613 .0319444
651.367 .0319200
652.120 .0318963
652.872 .0318735
653.625 .0318495
654.377 .0318248
655.129 .0317994
655.881 .0317724
656.632 .0317442
657.384 .0317160
658.135 .0316881
658.885 .0316617
659.636 .0316373
660.386 .0316160
661.136 .0315969
661.885 .0315799
662.635 .0315639
663.384 .0315486
664.133 .0315336
664.881 .0315174
665.630 .0314998
666.378 .0314823
667.126 .0314652
667.874 .0314480
668.621 .0314313
669.368 .0314154
670.115 .0314001
670.862 .0313848
671.608 .0313695
672.354 .0313544
673.100 .0313393
673.846 .0313245
674.591 .0313093
675.337 .0312942
676.082 .0312792
676.826 .0312636
677.571 .0312482
678.315 .0312328
679.059 .0312167
679.803 .0312001
680.547 .0311841
681.290 .0311683
682.033 .0311526
682.776 .0311371
683.518 .0311217
684.261 .0311058
685.003 .0310897
685.745 .0310726
686.487 .0310548
687.228 .0310371
687.969 .0310192
688.710 .0310013
689.451 .0309841
690.192 .0309671
690.932 .0309502
691.672 .0309332
692.412 .0309157
693.152 .0308972
693.891 .0308780
694.630 .0308587
695.369 .0308386
696.108 .0308180
696.846 .0307975
697.585 .0307766
698.323 .0307559
699.061 .0307347
699.798 .0307131
700.536 .0306914
701.273 .0306693
702.010 .0306472
702.746 .0306242
703.483 .0306017
704.219 .0305798
704.955 .0305582
705.691 .0305365
706.427 .0305150
707.162 .0304937
707.897 .0304730
708.632 .0304525
709.367 .0304326
710.101 .0304132
710.835 .0303942
711.569 .0303752
712.303 .0303556
713.037 .0303356
713.770 .0303150
714.503 .0302933
715.236 .0302712
715.969 .0302480
716.702 .0302246
717.434 .0302014
718.166 .0301789
718.898 .0301571
719.629 .0301354
720.361 .0301140
721.092 .0300927
721.823 .0300706
722.554 .0300478
723.284 .0300242
724.014 .0299997
724.744 .0299745
725.474 .0299480
726.204 .0299210
726.933 .0298938
727.662 .0298666
728.391 .0298396
729.120 .0298129
729.849 .0297867
730.577 .0297609
731.305 .0297352
732.033 .0297100
732.760 .0296847
733.488 .0296593
734.215 .0296340
734.942 .0296092
735.669 .0295847
736.395 .0295614
737.122 .0295395
737.848 .0295195
738.573 .0295008
739.299 .0294833
740.024 .0294662
740.750 .0294492
741.474 .0294316
742.199 .0294129
742.924 .0293930
743.648 .0293728
744.372 .0293524
745.096 .0293329
745.819 .0293145
746.543 .0292974
747.266 .0292816
747.989 .0292670
748.711 .0292528
749.434 .0292393
750.156 .0292261
750.878 .0292137
751.599 .0292022
752.321 .0291922
753.042 .0291835
753.763 .0291763
754.484 .0291710
755.205 .0291664
755.925 .0291624
756.645 .0291583
757.365 .0291534
758.085 .0291477
758.804 .0291405
759.523 .0291313
760.242 .0291201
760.961 .0291073
761.679 .0290926
762.397 .0290758
763.115 .0290574
763.833 .0290376
764.551 .0290162
765.268 .0289938
765.985 .0289700
766.702 .0289450
767.418 .0289195
768.134 .0288936
768.850 .0288671
769.566 .0288413
770.282 .0288160
770.997 .0287920
771.712 .0287697
772.427 .0287493
773.142 .0287301
773.856 .0287126
774.570 .0286962
775.284 .0286800
775.998 .0286636
776.711 .0286475
777.424 .0286313
778.137 .0286158
778.849 .0286011
779.562 .0285873
780.274 .0285748
780.986 .0285638
781.697 .0285539
782.409 .0285452
783.120 .0285379
783.831 .0285320
784.541 .0285273
785.252 .0285242
785.962 .0285224
786.671 .0285217
787.381 .0285220
788.090 .0285231
788.799 .0285240
789.508 .0285243
790.217 .0285238
790.925 .0285219
791.633 .0285190
792.341 .0285143
793.048 .0285075
793.755 .0284985
794.462 .0284875
795.169 .0284740
795.875 .0284581
796.581 .0284412
797.287 .0284227
797.993 .0284036
798.698 .0283848
799.403 .0283664
800.108 .0283489
800.812 .0283326
801.517 .0283174
802.221 .0283033
802.924 .0282901
803.628 .0282782
804.331 .0282674
805.034 .0282586
805.736 .0282518
806.439 .0282464
807.141 .0282420
807.843 .0282386
808.544 .0282344
809.245 .0282291
809.946 .0282219
810.647 .0282127
811.347 .0282021
812.047 .0281904
812.747 .0281785
813.447 .0281670
814.146 .0281563
814.845 .0281470
815.543 .0281380
816.242 .0281292
816.940 .0281202
817.638 .0281107
818.335 .0281011
819.032 .0280911
819.729 .0280810
820.426 .0280715
821.122 .0280626
821.818 .0280543
822.514 .0280462
823.209 .0280380
823.905 .0280296
824.599 .0280202
825.294 .0280096
825.988 .0279980
826.682 .0279853
827.376 .0279721
828.069 .0279587
828.762 .0279449
829.455 .0279305
830.147 .0279155
830.840 .0279009
831.531 .0278865
832.223 .0278724
832.914 .0278592
833.605 .0278470
834.296 .0278364
834.986 .0278277
835.676 .0278204
836.366 .0278148
837.055 .0278103
837.744 .0278056
838.433 .0278000
839.121 .0277936
839.809 .0277860
840.497 .0277776
841.185 .0277683
841.872 .0277588
842.559 .0277490
843.245 .0277396
843.932 .0277303
844.617 .0277208
845.303 .0277108
845.988 .0276996
846.673 .0276869
847.358 .0276734
848.042 .0276587
848.726 .0276439
849.410 .0276294
850.093 .0276159
850.776 .0276030
851.459 .0275910
852.141 .0275791
852.823 .0275673
853.505 .0275547
854.186 .0275411
854.867 .0275263
855.548 .0275110
856.228 .0274962
856.908 .0274824
857.588 .0274699
858.267 .0274590
858.946 .0274486
859.625 .0274393
860.303 .0274296
860.981 .0274200
861.659 .0274100
862.336 .0273999
863.013 .0273897
863.690 .0273798
864.366 .0273705
865.042 .0273622
865.718 .0273542
866.393 .0273465
867.068 .0273377
867.743 .0273276
868.417 .0273159
869.091 .0273027
869.765 .0272882
870.438 .0272727
871.111 .0272565
871.783 .0272399
872.456 .0272228
873.127 .0272059
873.799 .0271894
874.470 .0271732
875.141 .0271581
875.811 .0271436
876.481 .0271298
877.151 .0271176
877.820 .0271063
878.489 .0270963
879.158 .0270874
879.826 .0270790
880.494 .0270709
881.162 .0270622
881.829 .0270532
882.496 .0270433
883.163 .0270329
883.829 .0270219
884.495 .0270099
885.160 .0269975
885.825 .0269845
886.490 .0269708
887.154 .0269569
887.818 .0269426
888.482 .0269277
889.145 .0269126
889.808 .0268977
890.471 .0268828
891.133 .0268689
891.795 .0268562
892.456 .0268453
893.117 .0268361
893.778 .0268287
894.439 .0268226
895.099 .0268174
895.758 .0268129
896.417 .0268082
897.076 .0268029
897.735 .0267973
898.393 .0267907
899.051 .0267835
899.708 .0267756
900.365 .0267676
901.022 .0267592
901.678 .0267503
902.334 .0267403
902.990 .0267295
903.645 .0267178
904.300 .0267055
904.954 .0266922
905.608 .0266785
906.262 .0266649
906.915 .0266509
907.568 .0266364
908.221 .0266221
908.873 .0266074
909.525 .0265931
910.176 .0265787
910.828 .0265640
911.478 .0265493
912.129 .0265348
912.778 .0265201
913.428 .0265050
914.077 .0264894
914.726 .0264729
915.375 .0264556
916.023 .0264384
916.670 .0264212
917.318 .0264045
917.964 .0263890
918.611 .0263747
919.257 .0263612
919.903 .0263483
920.548 .0263357
921.193 .0263229
921.838 .0263104
922.482 .0262974
923.126 .0262838
923.770 .0262705
924.413 .0262578
925.056 .0262458
925.698 .0262347
926.340 .0262248
926.982 .0262151
927.623 .0262058
928.264 .0261967
928.904 .0261864
929.544 .0261757
930.184 .0261647
930.823 .0261529
931.462 .0261410
932.101 .0261289
932.739 .0261164
933.377 .0261033
934.014 .0260902
934.651 .0260765
935.288 .0260621
935.924 .0260473
936.560 .0260315
937.196 .0260145
937.831 .0259968
938.466 .0259779
939.100 .0259582
939.734 .0259378
940.368 .0259168
941.001 .0258951
941.634 .0258734
942.266 .0258522
942.899 .0258316
943.530 .0258115
944.162 .0257924
944.793 .0257733
945.423 .0257542
946.053 .0257350
946.683 .0257158
947.313 .0256966
947.942 .0256770
948.571 .0256568
949.199 .0256363
949.827 .0256147
950.455 .0255935
951.082 .0255720
951.709 .0255510
952.335 .0255308
952.961 .0255111
953.587 .0254925
954.212 .0254748
954.837 .0254582
955.462 .0254427
956.086 .0254280
956.710 .0254143
957.334 .0254007
957.957 .0253877
958.579 .0253754
959.202 .0253643
959.824 .0253535
960.445 .0253438
961.067 .0253344
961.688 .0253258
962.308 .0253169
962.928 .0253080
963.548 .0252991
964.168 .0252890
964.787 .0252779
965.406 .0252661
966.024 .0252534
966.642 .0252403
967.260 .0252263
967.877 .0252129
968.494 .0251992
969.110 .0251855
969.727 .0251711
970.342 .0251565
970.958 .0251421
971.573 .0251277
972.188 .0251130
972.802 .0250997
973.416 .0250877
974.030 .0250771
974.643 .0250682
975.256 .0250615
975.869 .0250558
976.481 .0250516
977.093 .0250486
977.705 .0250469
978.316 .0250457
978.927 .0250450
979.538 .0250445
980.148 .0250441
980.758 .0250439
981.367 .0250431
981.977 .0250415
982.586 .0250401
983.194 .0250381
983.802 .0250357
984.410 .0250327
985.018 .0250300
985.625 .0250268
986.232 .0250235
986.838 .0250194
987.445 .0250138
988.050 .0250069
988.656 .0249991
989.261 .0249903
989.866 .0249809
990.471 .0249720
991.075 .0249647
991.679 .0249585
992.282 .0249545
992.886 .0249517
993.489 .0249506
994.091 .0249500
994.694 .0249498
995.296 .0249493
995.897 .0249482
996.499 .0249467
997.100 .0249448
997.701 .0249433
998.301 .0249429
998.901 .0249433
999.501 .0249454
1000.101 .0249490
1000.700 .0249543
1001.299 .0249604
1001.898 .0249676
1002.496 .0249750
1003.094 .0249825
1003.692 .0249889
1004.289 .0249937
1004.887 .0249972
1005.484 .0249987
1006.080 .0249990
1006.677 .0249980
1007.273 .0249969
1007.868 .0249960
1008.464 .0249961
1009.059 .0249976
1009.654 .0250004
1010.249 .0250049
1010.843 .0250101
1011.437 .0250148
1012.031 .0250181
1012.625 .0250199
1013.218 .0250205
1013.811 .0250200
1014.404 .0250192
1014.997 .0250185
1015.589 .0250196
1016.181 .0250228
1016.773 .0250274
1017.365 .0250339
1017.956 .0250412
1018.547 .0250483
1019.138 .0250544
1019.728 .0250589
1020.319 .0250616
1020.909 .0250634
1021.499 .0250648
1022.088 .0250662
1022.678 .0250681
1023.267 .0250712
1023.856 .0250746
1024.445 .0250785
1025.033 .0250823
1025.621 .0250849
1026.209 .0250862
1026.797 .0250867
1027.385 .0250857
1027.972 .0250843
1028.560 .0250830
1029.147 .0250823
1029.734 .0250826
1030.320 .0250841
1030.907 .0250860
1031.493 .0250882
1032.079 .0250904
1032.665 .0250925
1033.250 .0250940
1033.836 .0250953
1034.421 .0250964
1035.006 .0250979
1035.591 .0250996
1036.176 .0251016
1036.761 .0251040
1037.345 .0251066
1037.929 .0251089
1038.514 .0251103
1039.097 .0251105
1039.681 .0251094
1040.265 .0251076
1040.848 .0251049
1041.432 .0251024
1042.015 .0251005
1042.598 .0250993
1043.181 .0250989
1043.764 .0251002
1044.346 .0251027
1044.929 .0251063
1045.511 .0251112
1046.094 .0251167
1046.676 .0251222
1047.258 .0251279
1047.840 .0251329
1048.422 .0251371
1049.003 .0251399
1049.585 .0251406
1050.166 .0251395
1050.748 .0251378
1051.329 .0251354
1051.910 .0251335
1052.491 .0251326
1053.072 .0251326
1053.653 .0251331
1054.234 .0251343
1054.815 .0251352
1055.396 .0251356
1055.976 .0251356
1056.557 .0251353
1057.138 .0251360
1057.718 .0251387
1058.298 .0251445
1058.879 .0251543
1059.459 .0251681
1060.039 .0251833
1060.620 .0251977
1061.200 .0252103
1061.780 .0252185
1062.360 .0252225
1062.940 .0252218
1063.520 .0252173
1064.101 .0252093
1064.681 .0251991
1065.261 .0251884
1065.841 .0251765
1066.421 .0251653
1067.001 .0251528
1067.581 .0251377
1068.161 .0251203
1068.741 .0251008
1069.321 .0250801
1069.901 .0250593
1070.482 .0250407
1071.062 .0250244
1071.642 .0250111
1072.222 .0250012
1072.803 .0249943
1073.383 .0249902
1073.963 .0249891
1074.544 .0249903
1075.124 .0249906
1075.705 .0249923
1076.286 .0249946
1076.866 .0249975
1077.447 .0250010
1078.028 .0250055
1078.609 .0250108
1079.190 .0250169
1079.771 .0250253
1080.352 .0250342
1080.934 .0250428
1081.515 .0250544
1082.097 .0250662
1082.679 .0250783
1083.260 .0250904
1083.842 .0251016
1084.424 .0251113
1085.007 .0251203
1085.589 .0251273
1086.172 .0251313
1086.754 .0251348
1087.337 .0251379
1087.920 .0251397
1088.503 .0251407
1089.087 .0251402
1089.670 .0251375
1090.254 .0251340
1090.838 .0251291
1091.422 .0251218
1092.006 .0251133
1092.590 .0251028
1093.175 .0250911
1093.760 .0250785
1094.345 .0250660
1094.930 .0250534
1095.516 .0250412
1096.102 .0250291
1096.688 .0250179
1097.274 .0250069
1097.860 .0249944
1098.447 .0249814
1099.034 .0249693
1099.622 .0249543
1100.209 .0249385
1100.797 .0249227
1101.385 .0249074
1101.973 .0248935
1102.562 .0248845
1103.151 .0248768
1103.740 .0248725
1104.330 .0248708
1104.920 .0248694
1105.510 .0248665
1106.101 .0248625
1106.691 .0248538
1107.283 .0248425
1107.874 .0248318
1108.466 .0248196
1109.058 .0248073
1109.651 .0248001
1110.244 .0247954
1110.837 .0247927
1111.431 .0247901
1112.025 .0247870
1112.620 .0247813
1113.215 .0247761
1113.810 .0247718
1114.406 .0247684
1115.002 .0247703
1115.599 .0247761
1116.196 .0247848
1116.793 .0247947
1117.391 .0248046
1117.989 .0248120
1118.588 .0248175
1119.187 .0248201
1119.787 .0248211
1120.387 .0248215
1120.988 .0248253
1121.589 .0248338
1122.190 .0248471
1122.793 .0248666
1123.395 .0248894
1123.998 .0249112
1124.602 .0249348
1125.206 .0249557
1125.811 .0249794
1126.416 .0250032
1127.022 .0250321
1127.628 .0250650
1128.235 .0251044
1128.843 .0251503
1129.451 .0252045
1130.059 .0252664
1130.669 .0253337
1131.278 .0254022
1131.889 .0254707
1132.500 .0255351
1133.112 .0255953
1133.724 .0256494
1134.337 .0256996
1134.950 .0257415
1135.564 .0257807
1136.179 .0258152
1136.795 .0258507
1137.411 .0258875
1138.028 .0259269
1138.645 .0259710
1139.263 .0260096
1139.882 .0260402
1140.502 .0260681
1141.122 .0260904
1141.743 .0261092
1142.365 .0261036
1142.987 .0259820
1143.611 .0261747
1144.235 .0262115
1144.859 .0262182
1145.485 .0256602
