Measurement Sequence started on: 10-20-44-796
Integration time: 35
Scans to Average: 2 
>>>>>Begin Spectral Data<<<<<
432.953 .0302138
433.882 .0307219
434.810 .0296107
435.737 .0297438
436.662 .0297030
437.586 .0304893
438.509 .0306609
439.431 .0308277
440.351 .0310126
441.269 .0311750
442.187 .0313194
443.103 .0314394
444.018 .0315546
444.932 .0316763
445.844 .0318047
446.756 .0319251
447.666 .0320394
448.575 .0321313
449.482 .0322055
450.388 .0322591
451.294 .0322917
452.198 .0323107
453.100 .0323255
454.002 .0323390
454.902 .0323586
455.801 .0323837
456.699 .0324101
457.596 .0324354
458.492 .0324580
459.387 .0324677
460.280 .0324680
461.172 .0324558
462.064 .0324389
462.954 .0324116
463.843 .0323853
464.730 .0323584
465.617 .0323363
466.503 .0323193
467.387 .0323008
468.271 .0322780
469.153 .0322551
470.035 .0322230
470.915 .0321902
471.794 .0321529
472.673 .0321167
473.550 .0320823
474.426 .0320536
475.301 .0320285
476.175 .0320095
477.048 .0319899
477.920 .0319687
478.791 .0319403
479.661 .0319061
480.530 .0318626
481.398 .0318142
482.266 .0317688
483.132 .0317285
483.997 .0316944
484.861 .0316718
485.724 .0316573
486.587 .0316535
487.448 .0316521
488.308 .0316481
489.168 .0316398
490.026 .0316246
490.884 .0316017
491.741 .0315710
492.597 .0315391
493.452 .0315100
494.306 .0314817
495.159 .0314571
496.011 .0314354
496.862 .0314122
497.713 .0313831
498.562 .0313446
499.411 .0312957
500.259 .0312333
501.106 .0311598
501.952 .0310789
502.798 .0309947
503.642 .0309119
504.486 .0308303
505.329 .0307516
506.171 .0306803
507.012 .0306127
507.852 .0305450
508.692 .0304798
509.531 .0304157
510.369 .0303464
511.206 .0302741
512.043 .0301967
512.878 .0301095
513.713 .0300116
514.547 .0299019
515.381 .0297765
516.213 .0296385
517.045 .0294846
517.876 .0293131
518.706 .0291288
519.536 .0289339
520.365 .0287255
521.193 .0285089
522.020 .0282913
522.847 .0280714
523.673 .0278469
524.498 .0276272
525.323 .0274059
526.146 .0271937
526.969 .0269924
527.792 .0268008
528.614 .0266244
529.435 .0264669
530.255 .0263300
531.075 .0262122
531.894 .0261203
532.712 .0260546
533.530 .0259995
534.347 .0259562
535.163 .0259091
535.979 .0258580
536.794 .0258015
537.608 .0257386
538.422 .0256702
539.235 .0256018
540.048 .0255349
540.860 .0254760
541.671 .0254273
542.481 .0253944
543.292 .0253744
544.101 .0253621
544.910 .0253592
545.718 .0253587
546.526 .0253633
547.333 .0253786
548.139 .0254030
548.945 .0254481
549.750 .0255019
550.555 .0255714
551.359 .0256540
552.162 .0257467
552.965 .0258474
553.768 .0259453
554.569 .0260415
555.371 .0261284
556.171 .0262065
556.972 .0262793
557.771 .0263461
558.570 .0264156
559.369 .0264898
560.167 .0265679
560.964 .0266487
561.761 .0267331
562.558 .0268204
563.354 .0269112
564.149 .0269995
564.944 .0270848
565.738 .0271669
566.532 .0272473
567.325 .0273297
568.118 .0274104
568.910 .0274973
569.702 .0275897
570.494 .0276867
571.285 .0277856
572.075 .0278861
572.865 .0279849
573.654 .0280773
574.443 .0281621
575.232 .0282381
576.020 .0283047
576.807 .0283659
577.594 .0284222
578.381 .0284775
579.167 .0285336
579.952 .0285914
580.738 .0286506
581.522 .0287116
582.307 .0287736
583.091 .0288332
583.874 .0288896
584.657 .0289421
585.440 .0289888
586.222 .0290309
587.004 .0290691
587.785 .0291064
588.566 .0291425
589.346 .0291788
590.126 .0292147
590.906 .0292487
591.685 .0292810
592.464 .0293090
593.242 .0293336
594.020 .0293546
594.797 .0293726
595.575 .0293876
596.351 .0294002
597.128 .0294115
597.904 .0294203
598.679 .0294267
599.454 .0294300
600.229 .0294298
601.004 .0294262
601.778 .0294198
602.551 .0294102
603.325 .0293985
604.097 .0293860
604.870 .0293724
605.642 .0293580
606.414 .0293424
607.185 .0293252
607.956 .0293063
608.727 .0292857
609.497 .0292635
610.267 .0292395
611.037 .0292158
611.806 .0291922
612.575 .0291692
613.344 .0291475
614.112 .0291268
614.880 .0291073
615.647 .0290884
616.414 .0290698
617.181 .0290516
617.948 .0290337
618.714 .0290168
619.480 .0290008
620.245 .0289860
621.011 .0289726
621.775 .0289600
622.540 .0289484
623.304 .0289370
624.068 .0289255
624.832 .0289136
625.595 .0289009
626.358 .0288873
627.120 .0288728
627.883 .0288573
628.645 .0288413
629.406 .0288245
630.168 .0288071
630.929 .0287894
631.689 .0287713
632.450 .0287533
633.210 .0287360
633.970 .0287192
634.729 .0287032
635.489 .0286869
636.248 .0286710
637.006 .0286550
637.765 .0286386
638.523 .0286218
639.280 .0286046
640.038 .0285867
640.795 .0285683
641.552 .0285502
642.309 .0285325
643.065 .0285156
643.821 .0284995
644.577 .0284835
645.332 .0284674
646.088 .0284509
646.843 .0284346
647.597 .0284180
648.352 .0284027
649.106 .0283883
649.860 .0283742
650.613 .0283620
651.367 .0283516
652.120 .0283432
652.872 .0283368
653.625 .0283319
654.377 .0283274
655.129 .0283233
655.881 .0283193
656.632 .0283144
657.384 .0283095
658.135 .0283045
658.885 .0282987
659.636 .0282918
660.386 .0282841
661.136 .0282752
661.885 .0282651
662.635 .0282539
663.384 .0282409
664.133 .0282265
664.881 .0282106
665.630 .0281932
666.378 .0281751
667.126 .0281568
667.874 .0281388
668.621 .0281209
669.368 .0281034
670.115 .0280859
670.862 .0280686
671.608 .0280519
672.354 .0280363
673.100 .0280224
673.846 .0280105
674.591 .0280010
675.337 .0279939
676.082 .0279893
676.826 .0279865
677.571 .0279851
678.315 .0279842
679.059 .0279823
679.803 .0279791
680.547 .0279738
681.290 .0279664
682.033 .0279571
682.776 .0279459
683.518 .0279333
684.261 .0279192
685.003 .0279041
685.745 .0278880
686.487 .0278714
687.228 .0278543
687.969 .0278367
688.710 .0278182
689.451 .0277991
690.192 .0277798
690.932 .0277600
691.672 .0277405
692.412 .0277213
693.152 .0277028
693.891 .0276849
694.630 .0276679
695.369 .0276519
696.108 .0276362
696.846 .0276208
697.585 .0276048
698.323 .0275878
699.061 .0275698
699.798 .0275502
700.536 .0275298
701.273 .0275087
702.010 .0274878
702.746 .0274666
703.483 .0274463
704.219 .0274271
704.955 .0274092
705.691 .0273923
706.427 .0273757
707.162 .0273597
707.897 .0273443
708.632 .0273293
709.367 .0273150
710.101 .0273008
710.835 .0272868
711.569 .0272728
712.303 .0272587
713.037 .0272443
713.770 .0272299
714.503 .0272154
715.236 .0272006
715.969 .0271854
716.702 .0271699
717.434 .0271539
718.166 .0271376
718.898 .0271208
719.629 .0271033
720.361 .0270849
721.092 .0270659
721.823 .0270461
722.554 .0270254
723.284 .0270043
724.014 .0269821
724.744 .0269591
725.474 .0269356
726.204 .0269116
726.933 .0268873
727.662 .0268632
728.391 .0268394
729.120 .0268157
729.849 .0267924
730.577 .0267699
731.305 .0267480
732.033 .0267268
732.760 .0267059
733.488 .0266858
734.215 .0266658
734.942 .0266465
735.669 .0266273
736.395 .0266084
737.122 .0265898
737.848 .0265710
738.573 .0265519
739.299 .0265325
740.024 .0265134
740.750 .0264944
741.474 .0264756
742.199 .0264576
742.924 .0264395
743.648 .0264220
744.372 .0264054
745.096 .0263896
745.819 .0263739
746.543 .0263593
747.266 .0263456
747.989 .0263330
748.711 .0263218
749.434 .0263122
750.156 .0263039
750.878 .0262971
751.599 .0262915
752.321 .0262863
753.042 .0262820
753.763 .0262787
754.484 .0262757
755.205 .0262736
755.925 .0262723
756.645 .0262710
757.365 .0262695
758.085 .0262678
758.804 .0262648
759.523 .0262603
760.242 .0262541
760.961 .0262460
761.679 .0262363
762.397 .0262252
763.115 .0262127
763.833 .0261988
764.551 .0261845
765.268 .0261690
765.985 .0261520
766.702 .0261339
767.418 .0261145
768.134 .0260941
768.850 .0260739
769.566 .0260541
770.282 .0260353
770.997 .0260184
771.712 .0260033
772.427 .0259897
773.142 .0259778
773.856 .0259671
774.570 .0259569
775.284 .0259473
775.998 .0259377
776.711 .0259275
777.424 .0259174
778.137 .0259073
778.849 .0258967
779.562 .0258863
780.274 .0258755
780.986 .0258642
781.697 .0258526
782.409 .0258408
783.120 .0258285
783.831 .0258165
784.541 .0258049
785.252 .0257940
785.962 .0257838
786.671 .0257750
787.381 .0257665
788.090 .0257593
788.799 .0257528
789.508 .0257466
790.217 .0257405
790.925 .0257349
791.633 .0257293
792.341 .0257240
793.048 .0257184
793.755 .0257127
794.462 .0257059
795.169 .0256987
795.875 .0256905
796.581 .0256813
797.287 .0256713
797.993 .0256602
798.698 .0256483
799.403 .0256357
800.108 .0256224
800.812 .0256086
801.517 .0255945
802.221 .0255804
802.924 .0255662
803.628 .0255521
804.331 .0255384
805.034 .0255254
805.736 .0255130
806.439 .0255008
807.141 .0254890
807.843 .0254775
808.544 .0254662
809.245 .0254550
809.946 .0254442
810.647 .0254337
811.347 .0254239
812.047 .0254145
812.747 .0254059
813.447 .0253977
814.146 .0253895
814.845 .0253812
815.543 .0253725
816.242 .0253628
816.940 .0253518
817.638 .0253393
818.335 .0253260
819.032 .0253119
819.729 .0252974
820.426 .0252825
821.122 .0252675
821.818 .0252522
822.514 .0252360
823.209 .0252191
823.905 .0252014
824.599 .0251828
825.294 .0251636
825.988 .0251440
826.682 .0251246
827.376 .0251053
828.069 .0250868
828.762 .0250687
829.455 .0250512
830.147 .0250341
830.840 .0250172
831.531 .0250001
832.223 .0249837
832.914 .0249678
833.605 .0249526
834.296 .0249384
834.986 .0249251
835.676 .0249121
836.366 .0248988
837.055 .0248849
837.744 .0248702
838.433 .0248544
839.121 .0248382
839.809 .0248216
840.497 .0248059
841.185 .0247916
841.872 .0247786
842.559 .0247676
843.245 .0247581
843.932 .0247496
844.617 .0247416
845.303 .0247339
845.988 .0247263
846.673 .0247189
847.358 .0247121
848.042 .0247061
848.726 .0247009
849.410 .0246963
850.093 .0246919
850.776 .0246872
851.459 .0246818
852.141 .0246749
852.823 .0246664
853.505 .0246569
854.186 .0246459
854.867 .0246338
855.548 .0246206
856.228 .0246066
856.908 .0245921
857.588 .0245766
858.267 .0245605
858.946 .0245440
859.625 .0245276
860.303 .0245113
860.981 .0244958
861.659 .0244811
862.336 .0244667
863.013 .0244528
863.690 .0244389
864.366 .0244245
865.042 .0244094
865.718 .0243936
866.393 .0243776
867.068 .0243617
867.743 .0243462
868.417 .0243312
869.091 .0243173
869.765 .0243041
870.438 .0242913
871.111 .0242788
871.783 .0242664
872.456 .0242540
873.127 .0242411
873.799 .0242284
874.470 .0242154
875.141 .0242030
875.811 .0241911
876.481 .0241799
877.151 .0241694
877.820 .0241600
878.489 .0241513
879.158 .0241431
879.826 .0241349
880.494 .0241271
881.162 .0241188
881.829 .0241102
882.496 .0241010
883.163 .0240919
883.829 .0240825
884.495 .0240741
885.160 .0240666
885.825 .0240609
886.490 .0240567
887.154 .0240538
887.818 .0240513
888.482 .0240489
889.145 .0240454
889.808 .0240408
890.471 .0240348
891.133 .0240285
891.795 .0240214
892.456 .0240147
893.117 .0240083
893.778 .0240029
894.439 .0239980
895.099 .0239934
895.758 .0239880
896.417 .0239822
897.076 .0239751
897.735 .0239667
898.393 .0239573
899.051 .0239477
899.708 .0239379
900.365 .0239281
901.022 .0239188
901.678 .0239103
902.334 .0239022
902.990 .0238947
903.645 .0238873
904.300 .0238804
904.954 .0238737
905.608 .0238667
906.262 .0238600
906.915 .0238540
907.568 .0238488
908.221 .0238444
908.873 .0238410
909.525 .0238390
910.176 .0238381
910.828 .0238380
911.478 .0238384
912.129 .0238383
912.778 .0238373
913.428 .0238348
914.077 .0238308
914.726 .0238251
915.375 .0238185
916.023 .0238113
916.670 .0238044
917.318 .0237977
917.964 .0237915
918.611 .0237855
919.257 .0237795
919.903 .0237736
920.548 .0237670
921.193 .0237598
921.838 .0237526
922.482 .0237454
923.126 .0237390
923.770 .0237331
924.413 .0237281
925.056 .0237237
925.698 .0237199
926.340 .0237160
926.982 .0237119
927.623 .0237078
928.264 .0237036
928.904 .0236990
929.544 .0236941
930.184 .0236887
930.823 .0236828
931.462 .0236765
932.101 .0236698
932.739 .0236623
933.377 .0236546
934.014 .0236458
934.651 .0236369
935.288 .0236278
935.924 .0236185
936.560 .0236092
937.196 .0236003
937.831 .0235916
938.466 .0235826
939.100 .0235732
939.734 .0235635
940.368 .0235531
941.001 .0235422
941.634 .0235304
942.266 .0235177
942.899 .0235043
943.530 .0234899
944.162 .0234744
944.793 .0234587
945.423 .0234424
946.053 .0234252
946.683 .0234082
947.313 .0233910
947.942 .0233735
948.571 .0233556
949.199 .0233373
949.827 .0233183
950.455 .0232982
951.082 .0232776
951.709 .0232564
952.335 .0232353
952.961 .0232151
953.587 .0231957
954.212 .0231780
954.837 .0231620
955.462 .0231476
956.086 .0231344
956.710 .0231225
957.334 .0231107
957.957 .0230987
958.579 .0230862
959.202 .0230737
959.824 .0230608
960.445 .0230483
961.067 .0230366
961.688 .0230262
962.308 .0230173
962.928 .0230098
963.548 .0230030
964.168 .0229963
964.787 .0229893
965.406 .0229813
966.024 .0229724
966.642 .0229626
967.260 .0229518
967.877 .0229408
968.494 .0229301
969.110 .0229198
969.727 .0229100
970.342 .0229008
970.958 .0228925
971.573 .0228846
972.188 .0228770
972.802 .0228692
973.416 .0228613
974.030 .0228534
974.643 .0228455
975.256 .0228376
975.869 .0228300
976.481 .0228228
977.093 .0228166
977.705 .0228120
978.316 .0228088
978.927 .0228071
979.538 .0228063
980.148 .0228062
980.758 .0228058
981.367 .0228040
981.977 .0228014
982.586 .0227975
983.194 .0227927
983.802 .0227872
984.410 .0227812
985.018 .0227755
985.625 .0227702
986.232 .0227657
986.838 .0227613
987.445 .0227568
988.050 .0227512
988.656 .0227446
989.261 .0227370
989.866 .0227281
990.471 .0227185
991.075 .0227089
991.679 .0226996
992.282 .0226904
992.886 .0226811
993.489 .0226727
994.091 .0226646
994.694 .0226572
995.296 .0226501
995.897 .0226430
996.499 .0226356
997.100 .0226283
997.701 .0226206
998.301 .0226138
998.901 .0226074
999.501 .0226018
1000.101 .0225966
1000.700 .0225922
1001.299 .0225880
1001.898 .0225841
1002.496 .0225804
1003.094 .0225768
1003.692 .0225729
1004.289 .0225691
1004.887 .0225651
1005.484 .0225620
1006.080 .0225590
1006.677 .0225568
1007.273 .0225551
1007.868 .0225540
1008.464 .0225525
1009.059 .0225509
1009.654 .0225493
1010.249 .0225478
1010.843 .0225460
1011.437 .0225446
1012.031 .0225432
1012.625 .0225429
1013.218 .0225431
1013.811 .0225439
1014.404 .0225452
1014.997 .0225473
1015.589 .0225491
1016.181 .0225514
1016.773 .0225532
1017.365 .0225557
1017.956 .0225578
1018.547 .0225607
1019.138 .0225642
1019.728 .0225679
1020.319 .0225715
1020.909 .0225750
1021.499 .0225779
1022.088 .0225799
1022.678 .0225806
1023.267 .0225806
1023.856 .0225790
1024.445 .0225766
1025.033 .0225725
1025.621 .0225672
1026.209 .0225616
1026.797 .0225554
1027.385 .0225482
1027.972 .0225418
1028.560 .0225353
1029.147 .0225290
1029.734 .0225240
1030.320 .0225205
1030.907 .0225179
1031.493 .0225172
1032.079 .0225185
1032.665 .0225208
1033.250 .0225240
1033.836 .0225285
1034.421 .0225322
1035.006 .0225358
1035.591 .0225387
1036.176 .0225398
1036.761 .0225401
1037.345 .0225397
1037.929 .0225375
1038.514 .0225344
1039.097 .0225309
1039.681 .0225259
1040.265 .0225195
1040.848 .0225131
1041.432 .0225061
1042.015 .0224984
1042.598 .0224909
1043.181 .0224842
1043.764 .0224782
1044.346 .0224742
1044.929 .0224715
1045.511 .0224704
1046.094 .0224711
1046.676 .0224730
1047.258 .0224752
1047.840 .0224776
1048.422 .0224801
1049.003 .0224818
1049.585 .0224824
1050.166 .0224828
1050.748 .0224824
1051.329 .0224804
1051.910 .0224780
1052.491 .0224750
1053.072 .0224715
1053.653 .0224678
1054.234 .0224647
1054.815 .0224620
1055.396 .0224598
1055.976 .0224586
1056.557 .0224575
1057.138 .0224566
1057.718 .0224571
1058.298 .0224577
1058.879 .0224589
1059.459 .0224617
1060.039 .0224660
1060.620 .0224705
1061.200 .0224763
1061.780 .0224822
1062.360 .0224855
1062.940 .0224864
1063.520 .0224837
1064.101 .0224764
1064.681 .0224665
1065.261 .0224544
1065.841 .0224403
1066.421 .0224263
1067.001 .0224132
1067.581 .0224002
1068.161 .0223877
1068.741 .0223759
1069.321 .0223632
1069.901 .0223497
1070.482 .0223352
1071.062 .0223193
1071.642 .0223031
1072.222 .0222900
1072.803 .0222796
1073.383 .0222738
1073.963 .0222725
1074.544 .0222741
1075.124 .0222774
1075.705 .0222812
1076.286 .0222836
1076.866 .0222844
1077.447 .0222832
1078.028 .0222816
1078.609 .0222784
1079.190 .0222764
1079.771 .0222755
1080.352 .0222757
1080.934 .0222774
1081.515 .0222797
1082.097 .0222800
1082.679 .0222787
1083.260 .0222744
1083.842 .0222673
1084.424 .0222584
1085.007 .0222492
1085.589 .0222394
1086.172 .0222301
1086.754 .0222222
1087.337 .0222153
1087.920 .0222081
1088.503 .0222029
1089.087 .0221984
1089.670 .0221941
1090.254 .0221912
1090.838 .0221894
1091.422 .0221887
1092.006 .0221895
1092.590 .0221915
1093.175 .0221953
1093.760 .0222013
1094.345 .0222089
1094.930 .0222155
1095.516 .0222228
1096.102 .0222327
1096.688 .0222430
1097.274 .0222540
1097.860 .0222639
1098.447 .0222731
1099.034 .0222798
1099.622 .0222846
1100.209 .0222872
1100.797 .0222889
1101.385 .0222901
1101.973 .0222916
1102.562 .0222920
1103.151 .0222922
1103.740 .0222929
1104.330 .0222949
1104.920 .0222974
1105.510 .0223011
1106.101 .0223041
1106.691 .0223074
1107.283 .0223094
1107.874 .0223122
1108.466 .0223124
1109.058 .0223118
1109.651 .0223089
1110.244 .0223029
1110.837 .0222947
1111.431 .0222859
1112.025 .0222782
1112.620 .0222732
1113.215 .0222720
1113.810 .0222754
1114.406 .0222827
1115.002 .0222932
1115.599 .0223066
1116.196 .0223195
1116.793 .0223310
1117.391 .0223413
1117.989 .0223492
1118.588 .0223559
1119.187 .0223601
1119.787 .0223650
1120.387 .0223716
1120.988 .0223792
1121.589 .0223895
1122.190 .0224005
1122.793 .0224164
1123.395 .0224324
1123.998 .0224474
1124.602 .0224619
1125.206 .0224790
1125.811 .0224965
1126.416 .0225150
1127.022 .0225352
1127.628 .0225588
1128.235 .0225844
1128.843 .0226129
1129.451 .0226446
1130.059 .0226769
1130.669 .0227120
1131.278 .0227468
1131.889 .0227776
1132.500 .0228073
1133.112 .0228306
1133.724 .0228514
1134.337 .0228682
1134.950 .0228805
1135.564 .0228871
1136.179 .0228909
1136.795 .0228986
1137.411 .0229090
1138.028 .0229243
1138.645 .0229479
1139.263 .0229812
1139.882 .0230191
1140.502 .0230670
1141.122 .0231229
1141.743 .0231937
1142.365 .0232950
1142.987 .0232149
1143.611 .0234665
1144.235 .0235027
1144.859 .0237504
1145.485 .0243785
