Measurement Sequence started on: 10-20-44-796
Integration time: 35
Scans to Average: 2 
>>>>>Begin Spectral Data<<<<<
432.953 .0573581
433.882 .0428146
434.810 .0329790
435.737 .0353716
436.662 .0328021
437.586 .0339816
438.509 .0326954
439.431 .0321864
440.351 .0320998
441.269 .0320298
442.187 .0320958
443.103 .0322483
444.018 .0324251
444.932 .0326415
445.844 .0329079
446.756 .0332018
447.666 .0334994
448.575 .0337855
449.482 .0340418
450.388 .0342378
451.294 .0343870
452.198 .0344914
453.100 .0345554
454.002 .0345990
454.902 .0346391
455.801 .0346794
456.699 .0347344
457.596 .0347882
458.492 .0348380
459.387 .0348777
460.280 .0348999
461.172 .0348988
462.064 .0348815
462.954 .0348488
463.843 .0348019
464.730 .0347560
465.617 .0347196
466.503 .0346924
467.387 .0346680
468.271 .0346450
469.153 .0346182
470.035 .0345880
470.915 .0345492
471.794 .0344981
472.673 .0344428
473.550 .0343869
474.426 .0343269
475.301 .0342709
476.175 .0342294
477.048 .0341975
477.920 .0341758
478.791 .0341625
479.661 .0341503
480.530 .0341410
481.398 .0341292
482.266 .0341156
483.132 .0341003
483.997 .0340856
484.861 .0340698
485.724 .0340561
486.587 .0340481
487.448 .0340358
488.308 .0340189
489.168 .0339985
490.026 .0339680
490.884 .0339236
491.741 .0338695
492.597 .0338076
493.452 .0337406
494.306 .0336746
495.159 .0336090
496.011 .0335463
496.862 .0334891
497.713 .0334299
498.562 .0333605
499.411 .0332831
500.259 .0331968
501.106 .0330975
501.952 .0329937
502.798 .0328937
503.642 .0328001
504.486 .0327184
505.329 .0326471
506.171 .0325770
507.012 .0325035
507.852 .0324230
508.692 .0323268
509.531 .0322147
510.369 .0320933
511.206 .0319691
512.043 .0318473
512.878 .0317398
513.713 .0316433
514.547 .0315511
515.381 .0314615
516.213 .0313596
517.045 .0312336
517.876 .0310740
518.706 .0308877
519.536 .0306875
520.365 .0304843
521.193 .0302850
522.020 .0301040
522.847 .0299378
523.673 .0297825
524.498 .0296251
525.323 .0294507
526.146 .0292609
526.969 .0290542
527.792 .0288349
528.614 .0286181
529.435 .0284266
530.255 .0282794
531.075 .0281716
531.894 .0281154
532.712 .0280852
533.530 .0280626
534.347 .0280354
535.163 .0279917
535.979 .0279318
536.794 .0278596
537.608 .0277876
538.422 .0277284
539.235 .0276985
540.048 .0276958
540.860 .0277167
541.671 .0277606
542.481 .0278109
543.292 .0278538
544.101 .0278800
544.910 .0278906
545.718 .0278811
546.526 .0278585
547.333 .0278276
548.139 .0277903
548.945 .0277593
549.750 .0277262
550.555 .0276960
551.359 .0276712
552.162 .0276481
552.965 .0276236
553.768 .0276035
554.569 .0275932
555.371 .0275896
556.171 .0276018
556.972 .0276293
557.771 .0276743
558.570 .0277358
559.369 .0278093
560.167 .0278921
560.964 .0279852
561.761 .0280919
562.558 .0282076
563.354 .0283380
564.149 .0284837
564.944 .0286382
565.738 .0287984
566.532 .0289545
567.325 .0291043
568.118 .0292373
568.910 .0293510
569.702 .0294442
570.494 .0295227
571.285 .0295915
572.075 .0296534
572.865 .0297114
573.654 .0297688
574.443 .0298219
575.232 .0298719
576.020 .0299178
576.807 .0299603
577.594 .0299987
578.381 .0300372
579.167 .0300748
579.952 .0301165
580.738 .0301626
581.522 .0302169
582.307 .0302776
583.091 .0303452
583.874 .0304119
584.657 .0304759
585.440 .0305385
586.222 .0305972
587.004 .0306504
587.785 .0306996
588.566 .0307449
589.346 .0307851
590.126 .0308189
590.906 .0308451
591.685 .0308628
592.464 .0308745
593.242 .0308784
594.020 .0308760
594.797 .0308699
595.575 .0308616
596.351 .0308526
597.128 .0308451
597.904 .0308373
598.679 .0308287
599.454 .0308184
600.229 .0308072
601.004 .0307933
601.778 .0307785
602.551 .0307630
603.325 .0307489
604.097 .0307373
604.870 .0307293
605.642 .0307231
606.414 .0307203
607.185 .0307177
607.956 .0307141
608.727 .0307080
609.497 .0306998
610.267 .0306875
611.037 .0306723
611.806 .0306534
612.575 .0306328
613.344 .0306103
614.112 .0305882
614.880 .0305641
615.647 .0305395
616.414 .0305138
617.181 .0304860
617.948 .0304552
618.714 .0304230
619.480 .0303889
620.245 .0303546
621.011 .0303204
621.775 .0302876
622.540 .0302558
623.304 .0302272
624.068 .0302017
624.832 .0301785
625.595 .0301575
626.358 .0301371
627.120 .0301161
627.883 .0300946
628.645 .0300729
629.406 .0300519
630.168 .0300330
630.929 .0300174
631.689 .0300050
632.450 .0299956
633.210 .0299894
633.970 .0299847
634.729 .0299806
635.489 .0299756
636.248 .0299684
637.006 .0299584
637.765 .0299465
638.523 .0299335
639.280 .0299214
640.038 .0299101
640.795 .0299009
641.552 .0298932
642.309 .0298858
643.065 .0298773
643.821 .0298671
644.577 .0298536
645.332 .0298371
646.088 .0298172
646.843 .0297950
647.597 .0297709
648.352 .0297466
649.106 .0297221
649.860 .0296981
650.613 .0296748
651.367 .0296520
652.120 .0296293
652.872 .0296078
653.625 .0295869
654.377 .0295674
655.129 .0295491
655.881 .0295327
656.632 .0295171
657.384 .0295030
658.135 .0294897
658.885 .0294760
659.636 .0294621
660.386 .0294477
661.136 .0294324
661.885 .0294168
662.635 .0294003
663.384 .0293841
664.133 .0293681
664.881 .0293521
665.630 .0293359
666.378 .0293197
667.126 .0293031
667.874 .0292845
668.621 .0292638
669.368 .0292417
670.115 .0292182
670.862 .0291941
671.608 .0291712
672.354 .0291493
673.100 .0291302
673.846 .0291140
674.591 .0291008
675.337 .0290909
676.082 .0290834
676.826 .0290775
677.571 .0290724
678.315 .0290673
679.059 .0290615
679.803 .0290546
680.547 .0290476
681.290 .0290388
682.033 .0290279
682.776 .0290149
683.518 .0289992
684.261 .0289812
685.003 .0289618
685.745 .0289405
686.487 .0289188
687.228 .0288973
687.969 .0288760
688.710 .0288555
689.451 .0288359
690.192 .0288171
690.932 .0287982
691.672 .0287794
692.412 .0287600
693.152 .0287401
693.891 .0287216
694.630 .0287040
695.369 .0286881
696.108 .0286740
696.846 .0286611
697.585 .0286484
698.323 .0286355
699.061 .0286212
699.798 .0286047
700.536 .0285860
701.273 .0285645
702.010 .0285408
702.746 .0285152
703.483 .0284888
704.219 .0284618
704.955 .0284347
705.691 .0284083
706.427 .0283814
707.162 .0283553
707.897 .0283301
708.632 .0283058
709.367 .0282827
710.101 .0282608
710.835 .0282403
711.569 .0282208
712.303 .0282021
713.037 .0281836
713.770 .0281648
714.503 .0281460
715.236 .0281267
715.969 .0281069
716.702 .0280872
717.434 .0280681
718.166 .0280489
718.898 .0280303
719.629 .0280125
720.361 .0279952
721.092 .0279781
721.823 .0279610
722.554 .0279435
723.284 .0279256
724.014 .0279064
724.744 .0278862
725.474 .0278655
726.204 .0278448
726.933 .0278229
727.662 .0278009
728.391 .0277793
729.120 .0277578
729.849 .0277367
730.577 .0277171
731.305 .0276983
732.033 .0276806
732.760 .0276636
733.488 .0276469
734.215 .0276304
734.942 .0276140
735.669 .0275967
736.395 .0275794
737.122 .0275619
737.848 .0275442
738.573 .0275264
739.299 .0275094
740.024 .0274936
740.750 .0274784
741.474 .0274639
742.199 .0274502
742.924 .0274362
743.648 .0274220
744.372 .0274074
745.096 .0273925
745.819 .0273772
746.543 .0273618
747.266 .0273467
747.989 .0273328
748.711 .0273206
749.434 .0273103
750.156 .0273025
750.878 .0272978
751.599 .0272960
752.321 .0272961
753.042 .0272981
753.763 .0273017
754.484 .0273061
755.205 .0273104
755.925 .0273142
756.645 .0273168
757.365 .0273186
758.085 .0273193
758.804 .0273189
759.523 .0273173
760.242 .0273148
760.961 .0273108
761.679 .0273052
762.397 .0272972
763.115 .0272867
763.833 .0272727
764.551 .0272559
765.268 .0272364
765.985 .0272144
766.702 .0271907
767.418 .0271666
768.134 .0271430
768.850 .0271210
769.566 .0271003
770.282 .0270817
770.997 .0270647
771.712 .0270490
772.427 .0270336
773.142 .0270180
773.856 .0270019
774.570 .0269854
775.284 .0269685
775.998 .0269514
776.711 .0269349
777.424 .0269195
778.137 .0269050
778.849 .0268914
779.562 .0268783
780.274 .0268655
780.986 .0268528
781.697 .0268401
782.409 .0268271
783.120 .0268146
783.831 .0268033
784.541 .0267933
785.252 .0267856
785.962 .0267800
786.671 .0267763
787.381 .0267736
788.090 .0267716
788.799 .0267689
789.508 .0267652
790.217 .0267605
790.925 .0267544
791.633 .0267472
792.341 .0267391
793.048 .0267299
793.755 .0267197
794.462 .0267087
795.169 .0266969
795.875 .0266835
796.581 .0266701
797.287 .0266560
797.993 .0266424
798.698 .0266297
799.403 .0266188
800.108 .0266101
800.812 .0266039
801.517 .0265994
802.221 .0265955
802.924 .0265922
803.628 .0265899
804.331 .0265874
805.034 .0265853
805.736 .0265831
806.439 .0265812
807.141 .0265798
807.843 .0265790
808.544 .0265774
809.245 .0265753
809.946 .0265720
810.647 .0265664
811.347 .0265583
812.047 .0265483
812.747 .0265368
813.447 .0265247
814.146 .0265128
814.845 .0265013
815.543 .0264899
816.242 .0264795
816.940 .0264694
817.638 .0264598
818.335 .0264499
819.032 .0264394
819.729 .0264280
820.426 .0264157
821.122 .0264021
821.818 .0263878
822.514 .0263732
823.209 .0263586
823.905 .0263441
824.599 .0263299
825.294 .0263161
825.988 .0263033
826.682 .0262909
827.376 .0262788
828.069 .0262663
828.762 .0262530
829.455 .0262386
830.147 .0262236
830.840 .0262079
831.531 .0261923
832.223 .0261774
832.914 .0261636
833.605 .0261505
834.296 .0261386
834.986 .0261278
835.676 .0261182
836.366 .0261088
837.055 .0260993
837.744 .0260889
838.433 .0260782
839.121 .0260673
839.809 .0260564
840.497 .0260457
841.185 .0260358
841.872 .0260264
842.559 .0260178
843.245 .0260098
843.932 .0260023
844.617 .0259949
845.303 .0259878
845.988 .0259805
846.673 .0259721
847.358 .0259626
848.042 .0259526
848.726 .0259421
849.410 .0259313
850.093 .0259200
850.776 .0259085
851.459 .0258967
852.141 .0258850
852.823 .0258731
853.505 .0258605
854.186 .0258480
854.867 .0258351
855.548 .0258219
856.228 .0258088
856.908 .0257960
857.588 .0257839
858.267 .0257730
858.946 .0257630
859.625 .0257534
860.303 .0257433
860.981 .0257341
861.659 .0257248
862.336 .0257155
863.013 .0257060
863.690 .0256959
864.366 .0256855
865.042 .0256751
865.718 .0256645
866.393 .0256542
867.068 .0256439
867.743 .0256340
868.417 .0256237
869.091 .0256130
869.765 .0256017
870.438 .0255899
871.111 .0255773
871.783 .0255644
872.456 .0255501
873.127 .0255352
873.799 .0255199
874.470 .0255047
875.141 .0254900
875.811 .0254756
876.481 .0254620
877.151 .0254491
877.820 .0254368
878.489 .0254254
879.158 .0254143
879.826 .0254040
880.494 .0253945
881.162 .0253858
881.829 .0253775
882.496 .0253696
883.163 .0253625
883.829 .0253557
884.495 .0253493
885.160 .0253433
885.825 .0253373
886.490 .0253322
887.154 .0253273
887.818 .0253220
888.482 .0253162
889.145 .0253096
889.808 .0253017
890.471 .0252925
891.133 .0252825
891.795 .0252721
892.456 .0252618
893.117 .0252530
893.778 .0252454
894.439 .0252396
895.099 .0252359
895.758 .0252334
896.417 .0252318
897.076 .0252306
897.735 .0252292
898.393 .0252279
899.051 .0252262
899.708 .0252241
900.365 .0252213
901.022 .0252185
901.678 .0252154
902.334 .0252117
902.990 .0252078
903.645 .0252036
904.300 .0251993
904.954 .0251955
905.608 .0251917
906.262 .0251881
906.915 .0251847
907.568 .0251817
908.221 .0251784
908.873 .0251742
909.525 .0251692
910.176 .0251630
910.828 .0251558
911.478 .0251475
912.129 .0251377
912.778 .0251268
913.428 .0251157
914.077 .0251035
914.726 .0250903
915.375 .0250756
916.023 .0250596
916.670 .0250424
917.318 .0250240
917.964 .0250041
918.611 .0249831
919.257 .0249625
919.903 .0249422
920.548 .0249226
921.193 .0249049
921.838 .0248891
922.482 .0248757
923.126 .0248648
923.770 .0248558
924.413 .0248478
925.056 .0248408
925.698 .0248347
926.340 .0248295
926.982 .0248248
927.623 .0248204
928.264 .0248163
928.904 .0248128
929.544 .0248092
930.184 .0248052
930.823 .0248005
931.462 .0247959
932.101 .0247909
932.739 .0247854
933.377 .0247793
934.014 .0247730
934.651 .0247664
935.288 .0247597
935.924 .0247523
936.560 .0247441
937.196 .0247344
937.831 .0247233
938.466 .0247109
939.100 .0246972
939.734 .0246818
940.368 .0246653
941.001 .0246475
941.634 .0246291
942.266 .0246095
942.899 .0245888
943.530 .0245674
944.162 .0245459
944.793 .0245240
945.423 .0245019
946.053 .0244792
946.683 .0244570
947.313 .0244350
947.942 .0244133
948.571 .0243913
949.199 .0243690
949.827 .0243462
950.455 .0243232
951.082 .0243002
951.709 .0242774
952.335 .0242553
952.961 .0242345
953.587 .0242151
954.212 .0241967
954.837 .0241789
955.462 .0241621
956.086 .0241466
956.710 .0241331
957.334 .0241204
957.957 .0241085
958.579 .0240983
959.202 .0240896
959.824 .0240826
960.445 .0240766
961.067 .0240721
961.688 .0240696
962.308 .0240683
962.928 .0240684
963.548 .0240691
964.168 .0240705
964.787 .0240724
965.406 .0240733
966.024 .0240726
966.642 .0240691
967.260 .0240629
967.877 .0240541
968.494 .0240428
969.110 .0240298
969.727 .0240150
970.342 .0239990
970.958 .0239826
971.573 .0239657
972.188 .0239480
972.802 .0239303
973.416 .0239113
974.030 .0238915
974.643 .0238708
975.256 .0238499
975.869 .0238293
976.481 .0238100
977.093 .0237926
977.705 .0237771
978.316 .0237636
978.927 .0237519
979.538 .0237412
980.148 .0237322
980.758 .0237241
981.367 .0237166
981.977 .0237107
982.586 .0237065
983.194 .0237038
983.802 .0237030
984.410 .0237028
985.018 .0237030
985.625 .0237026
986.232 .0237019
986.838 .0237001
987.445 .0236977
988.050 .0236948
988.656 .0236915
989.261 .0236884
989.866 .0236853
990.471 .0236819
991.075 .0236785
991.679 .0236747
992.282 .0236700
992.886 .0236642
993.489 .0236583
994.091 .0236522
994.694 .0236470
995.296 .0236426
995.897 .0236392
996.499 .0236368
997.100 .0236352
997.701 .0236342
998.301 .0236334
998.901 .0236329
999.501 .0236320
1000.101 .0236300
1000.700 .0236271
1001.299 .0236235
1001.898 .0236197
1002.496 .0236156
1003.094 .0236124
1003.692 .0236095
1004.289 .0236081
1004.887 .0236086
1005.484 .0236104
1006.080 .0236130
1006.677 .0236162
1007.273 .0236189
1007.868 .0236210
1008.464 .0236229
1009.059 .0236243
1009.654 .0236257
1010.249 .0236273
1010.843 .0236292
1011.437 .0236312
1012.031 .0236332
1012.625 .0236354
1013.218 .0236365
1013.811 .0236368
1014.404 .0236353
1014.997 .0236320
1015.589 .0236280
1016.181 .0236227
1016.773 .0236171
1017.365 .0236110
1017.956 .0236051
1018.547 .0236000
1019.138 .0235970
1019.728 .0235968
1020.319 .0236002
1020.909 .0236078
1021.499 .0236185
1022.088 .0236309
1022.678 .0236435
1023.267 .0236552
1023.856 .0236649
1024.445 .0236719
1025.033 .0236769
1025.621 .0236797
1026.209 .0236834
1026.797 .0236876
1027.385 .0236936
1027.972 .0237017
1028.560 .0237112
1029.147 .0237199
1029.734 .0237266
1030.320 .0237305
1030.907 .0237303
1031.493 .0237272
1032.079 .0237228
1032.665 .0237174
1033.250 .0237133
1033.836 .0237109
1034.421 .0237106
1035.006 .0237119
1035.591 .0237151
1036.176 .0237182
1036.761 .0237199
1037.345 .0237203
1037.929 .0237178
1038.514 .0237122
1039.097 .0237043
1039.681 .0236952
1040.265 .0236849
1040.848 .0236746
1041.432 .0236641
1042.015 .0236535
1042.598 .0236435
1043.181 .0236338
1043.764 .0236227
1044.346 .0236112
1044.929 .0235984
1045.511 .0235838
1046.094 .0235690
1046.676 .0235561
1047.258 .0235451
1047.840 .0235371
1048.422 .0235316
1049.003 .0235280
1049.585 .0235259
1050.166 .0235248
1050.748 .0235227
1051.329 .0235207
1051.910 .0235194
1052.491 .0235191
1053.072 .0235205
1053.653 .0235255
1054.234 .0235331
1054.815 .0235436
1055.396 .0235558
1055.976 .0235671
1056.557 .0235771
1057.138 .0235859
1057.718 .0235927
1058.298 .0235991
1058.879 .0236051
1059.459 .0236114
1060.039 .0236180
1060.620 .0236263
1061.200 .0236346
1061.780 .0236412
1062.360 .0236460
1062.940 .0236477
1063.520 .0236474
1064.101 .0236460
1064.681 .0236426
1065.261 .0236402
1065.841 .0236373
1066.421 .0236332
1067.001 .0236265
1067.581 .0236174
1068.161 .0236064
1068.741 .0235941
1069.321 .0235821
1069.901 .0235716
1070.482 .0235639
1071.062 .0235605
1071.642 .0235611
1072.222 .0235655
1072.803 .0235733
1073.383 .0235816
1073.963 .0235903
1074.544 .0236003
1075.124 .0236096
1075.705 .0236192
1076.286 .0236295
1076.866 .0236415
1077.447 .0236522
1078.028 .0236607
1078.609 .0236680
1079.190 .0236719
1079.771 .0236738
1080.352 .0236719
1080.934 .0236652
1081.515 .0236562
1082.097 .0236445
1082.679 .0236310
1083.260 .0236167
1083.842 .0236036
1084.424 .0235919
1085.007 .0235812
1085.589 .0235723
1086.172 .0235673
1086.754 .0235660
1087.337 .0235685
1087.920 .0235730
1088.503 .0235789
1089.087 .0235855
1089.670 .0235916
1090.254 .0235956
1090.838 .0235983
1091.422 .0236001
1092.006 .0235995
1092.590 .0235956
1093.175 .0235906
1093.760 .0235839
1094.345 .0235747
1094.930 .0235619
1095.516 .0235447
1096.102 .0235229
1096.688 .0234968
1097.274 .0234691
1097.860 .0234415
1098.447 .0234141
1099.034 .0233863
1099.622 .0233597
1100.209 .0233348
1100.797 .0233124
1101.385 .0232922
1101.973 .0232770
1102.562 .0232651
1103.151 .0232560
1103.740 .0232488
1104.330 .0232458
1104.920 .0232477
1105.510 .0232557
1106.101 .0232658
1106.691 .0232791
1107.283 .0232922
1107.874 .0233032
1108.466 .0233121
1109.058 .0233210
1109.651 .0233281
1110.244 .0233309
1110.837 .0233331
1111.431 .0233338
1112.025 .0233305
1112.620 .0233267
1113.215 .0233215
1113.810 .0233145
1114.406 .0233053
1115.002 .0232934
1115.599 .0232793
1116.196 .0232652
1116.793 .0232517
1117.391 .0232382
1117.989 .0232294
1118.588 .0232252
1119.187 .0232240
1119.787 .0232242
1120.387 .0232335
1120.988 .0232454
1121.589 .0232629
1122.190 .0232850
1122.793 .0233118
1123.395 .0233438
1123.998 .0233816
1124.602 .0234206
1125.206 .0234629
1125.811 .0235073
1126.416 .0235524
1127.022 .0235915
1127.628 .0236310
1128.235 .0236675
1128.843 .0237053
1129.451 .0237472
1130.059 .0237937
1130.669 .0238435
1131.278 .0239002
1131.889 .0239584
1132.500 .0240132
1133.112 .0240602
1133.724 .0240976
1134.337 .0241215
1134.950 .0241339
1135.564 .0241423
1136.179 .0241527
1136.795 .0241723
1137.411 .0242069
1138.028 .0242581
1138.645 .0243235
1139.263 .0244019
1139.882 .0244820
1140.502 .0245610
1141.122 .0246432
1141.743 .0247446
1142.365 .0248311
1142.987 .0247191
1143.611 .0248935
1144.235 .0251716
1144.859 .0258200
1145.485 .0251065
