Measurement Sequence started on: 10-20-44-796
Integration time: 35
Scans to Average: 2 
>>>>>Begin Spectral Data<<<<<
432.953 .0235741
433.882 .0317692
434.810 .0364709
435.737 .0309031
436.662 .0291311
437.586 .0315798
438.509 .0319672
439.431 .0321327
440.351 .0322241
441.269 .0324663
442.187 .0326817
443.103 .0327775
444.018 .0328211
444.932 .0328600
445.844 .0328805
446.756 .0329164
447.666 .0329667
448.575 .0330219
449.482 .0330643
450.388 .0331001
451.294 .0330975
452.198 .0330626
453.100 .0330143
454.002 .0329597
454.902 .0328996
455.801 .0328509
456.699 .0328143
457.596 .0327882
458.492 .0327746
459.387 .0327612
460.280 .0327482
461.172 .0327291
462.064 .0327001
462.954 .0326557
463.843 .0325989
464.730 .0325402
465.617 .0324765
466.503 .0324133
467.387 .0323577
468.271 .0323059
469.153 .0322597
470.035 .0322136
470.915 .0321701
471.794 .0321249
472.673 .0320790
473.550 .0320313
474.426 .0319896
475.301 .0319500
476.175 .0319202
477.048 .0318954
477.920 .0318803
478.791 .0318729
479.661 .0318711
480.530 .0318719
481.398 .0318729
482.266 .0318721
483.132 .0318717
483.997 .0318625
484.861 .0318503
485.724 .0318345
486.587 .0318162
487.448 .0317931
488.308 .0317685
489.168 .0317387
490.026 .0317034
490.884 .0316621
491.741 .0316141
492.597 .0315549
493.452 .0314933
494.306 .0314291
495.159 .0313639
496.011 .0313053
496.862 .0312547
497.713 .0312051
498.562 .0311614
499.411 .0311193
500.259 .0310727
501.106 .0310207
501.952 .0309681
502.798 .0309118
503.642 .0308603
504.486 .0308191
505.329 .0307842
506.171 .0307570
507.012 .0307363
507.852 .0307124
508.692 .0306735
509.531 .0306157
510.369 .0305354
511.206 .0304330
512.043 .0303197
512.878 .0302005
513.713 .0300800
514.547 .0299659
515.381 .0298572
516.213 .0297444
517.045 .0296155
517.876 .0294699
518.706 .0292998
519.536 .0291060
520.365 .0288942
521.193 .0286790
522.020 .0284656
522.847 .0282721
523.673 .0280977
524.498 .0279380
525.323 .0277907
526.146 .0276523
526.969 .0275112
527.792 .0273685
528.614 .0272221
529.435 .0270735
530.255 .0269261
531.075 .0267960
531.894 .0266833
532.712 .0265883
533.530 .0265112
534.347 .0264511
535.163 .0264003
535.979 .0263596
536.794 .0263215
537.608 .0262850
538.422 .0262520
539.235 .0262248
540.048 .0261943
540.860 .0261658
541.671 .0261463
542.481 .0261300
543.292 .0261192
544.101 .0261155
544.910 .0261206
545.718 .0261307
546.526 .0261507
547.333 .0261800
548.139 .0262105
548.945 .0262438
549.750 .0262734
550.555 .0263068
551.359 .0263448
552.162 .0263872
552.965 .0264333
553.768 .0264865
554.569 .0265474
555.371 .0266102
556.171 .0266707
556.972 .0267361
557.771 .0268080
558.570 .0268809
559.369 .0269536
560.167 .0270287
560.964 .0271026
561.761 .0271787
562.558 .0272538
563.354 .0273290
564.149 .0273976
564.944 .0274630
565.738 .0275246
566.532 .0275829
567.325 .0276386
568.118 .0276926
568.910 .0277479
569.702 .0278073
570.494 .0278706
571.285 .0279386
572.075 .0280156
572.865 .0281005
573.654 .0281877
574.443 .0282760
575.232 .0283652
576.020 .0284530
576.807 .0285400
577.594 .0286268
578.381 .0287135
579.167 .0287997
579.952 .0288838
580.738 .0289640
581.522 .0290394
582.307 .0291084
583.091 .0291696
583.874 .0292198
584.657 .0292618
585.440 .0292954
586.222 .0293233
587.004 .0293455
587.785 .0293651
588.566 .0293833
589.346 .0294025
590.126 .0294220
590.906 .0294408
591.685 .0294595
592.464 .0294787
593.242 .0294960
594.020 .0295105
594.797 .0295235
595.575 .0295341
596.351 .0295422
597.128 .0295505
597.904 .0295577
598.679 .0295659
599.454 .0295739
600.229 .0295846
601.004 .0295961
601.778 .0296082
602.551 .0296185
603.325 .0296261
604.097 .0296324
604.870 .0296352
605.642 .0296332
606.414 .0296291
607.185 .0296229
607.956 .0296153
608.727 .0296056
609.497 .0295959
610.267 .0295841
611.037 .0295722
611.806 .0295580
612.575 .0295414
613.344 .0295226
614.112 .0295027
614.880 .0294810
615.647 .0294592
616.414 .0294382
617.181 .0294174
617.948 .0293978
618.714 .0293808
619.480 .0293642
620.245 .0293486
621.011 .0293339
621.775 .0293205
622.540 .0293077
623.304 .0292961
624.068 .0292844
624.832 .0292723
625.595 .0292600
626.358 .0292458
627.120 .0292291
627.883 .0292097
628.645 .0291882
629.406 .0291651
630.168 .0291404
630.929 .0291158
631.689 .0290916
632.450 .0290690
633.210 .0290477
633.970 .0290270
634.729 .0290070
635.489 .0289864
636.248 .0289652
637.006 .0289431
637.765 .0289198
638.523 .0288969
639.280 .0288745
640.038 .0288542
640.795 .0288369
641.552 .0288216
642.309 .0288081
643.065 .0287954
643.821 .0287824
644.577 .0287678
645.332 .0287514
646.088 .0287340
646.843 .0287156
647.597 .0286974
648.352 .0286799
649.106 .0286642
649.860 .0286513
650.613 .0286411
651.367 .0286325
652.120 .0286256
652.872 .0286183
653.625 .0286100
654.377 .0286008
655.129 .0285901
655.881 .0285774
656.632 .0285636
657.384 .0285490
658.135 .0285343
658.885 .0285201
659.636 .0285069
660.386 .0284936
661.136 .0284814
661.885 .0284684
662.635 .0284537
663.384 .0284377
664.133 .0284210
664.881 .0284034
665.630 .0283864
666.378 .0283706
667.126 .0283563
667.874 .0283450
668.621 .0283366
669.368 .0283299
670.115 .0283244
670.862 .0283190
671.608 .0283131
672.354 .0283062
673.100 .0282992
673.846 .0282917
674.591 .0282848
675.337 .0282790
676.082 .0282750
676.826 .0282721
677.571 .0282699
678.315 .0282680
679.059 .0282652
679.803 .0282615
680.547 .0282562
681.290 .0282504
682.033 .0282435
682.776 .0282367
683.518 .0282301
684.261 .0282225
685.003 .0282147
685.745 .0282055
686.487 .0281941
687.228 .0281807
687.969 .0281650
688.710 .0281465
689.451 .0281260
690.192 .0281047
690.932 .0280825
691.672 .0280596
692.412 .0280364
693.152 .0280126
693.891 .0279881
694.630 .0279642
695.369 .0279397
696.108 .0279154
696.846 .0278924
697.585 .0278698
698.323 .0278485
699.061 .0278292
699.798 .0278115
700.536 .0277952
701.273 .0277802
702.010 .0277658
702.746 .0277508
703.483 .0277354
704.219 .0277196
704.955 .0277031
705.691 .0276853
706.427 .0276661
707.162 .0276449
707.897 .0276233
708.632 .0276009
709.367 .0275782
710.101 .0275555
710.835 .0275331
711.569 .0275102
712.303 .0274864
713.037 .0274625
713.770 .0274382
714.503 .0274136
715.236 .0273889
715.969 .0273643
716.702 .0273407
717.434 .0273181
718.166 .0272976
718.898 .0272794
719.629 .0272642
720.361 .0272501
721.092 .0272373
721.823 .0272253
722.554 .0272137
723.284 .0272017
724.014 .0271891
724.744 .0271756
725.474 .0271611
726.204 .0271458
726.933 .0271296
727.662 .0271131
728.391 .0270966
729.120 .0270799
729.849 .0270627
730.577 .0270445
731.305 .0270253
732.033 .0270049
732.760 .0269840
733.488 .0269624
734.215 .0269401
734.942 .0269173
735.669 .0268943
736.395 .0268713
737.122 .0268490
737.848 .0268275
738.573 .0268065
739.299 .0267862
740.024 .0267660
740.750 .0267464
741.474 .0267272
742.199 .0267093
742.924 .0266930
743.648 .0266780
744.372 .0266645
745.096 .0266522
745.819 .0266413
746.543 .0266313
747.266 .0266225
747.989 .0266145
748.711 .0266069
749.434 .0266000
750.156 .0265935
750.878 .0265886
751.599 .0265855
752.321 .0265843
753.042 .0265843
753.763 .0265850
754.484 .0265859
755.205 .0265859
755.925 .0265850
756.645 .0265829
757.365 .0265799
758.085 .0265759
758.804 .0265704
759.523 .0265642
760.242 .0265580
760.961 .0265521
761.679 .0265459
762.397 .0265392
763.115 .0265313
763.833 .0265213
764.551 .0265094
765.268 .0264957
765.985 .0264807
766.702 .0264647
767.418 .0264485
768.134 .0264319
768.850 .0264152
769.566 .0263988
770.282 .0263829
770.997 .0263673
771.712 .0263520
772.427 .0263364
773.142 .0263208
773.856 .0263054
774.570 .0262902
775.284 .0262753
775.998 .0262613
776.711 .0262487
777.424 .0262370
778.137 .0262261
778.849 .0262166
779.562 .0262077
780.274 .0261999
780.986 .0261918
781.697 .0261836
782.409 .0261746
783.120 .0261645
783.831 .0261531
784.541 .0261406
785.252 .0261274
785.962 .0261134
786.671 .0260998
787.381 .0260867
788.090 .0260741
788.799 .0260624
789.508 .0260507
790.217 .0260393
790.925 .0260274
791.633 .0260151
792.341 .0260015
793.048 .0259879
793.755 .0259742
794.462 .0259609
795.169 .0259490
795.875 .0259381
796.581 .0259282
797.287 .0259188
797.993 .0259096
798.698 .0258998
799.403 .0258891
800.108 .0258780
800.812 .0258655
801.517 .0258527
802.221 .0258392
802.924 .0258246
803.628 .0258101
804.331 .0257961
805.034 .0257822
805.736 .0257682
806.439 .0257545
807.141 .0257404
807.843 .0257261
808.544 .0257113
809.245 .0256955
809.946 .0256792
810.647 .0256628
811.347 .0256461
812.047 .0256294
812.747 .0256136
813.447 .0255981
814.146 .0255833
814.845 .0255692
815.543 .0255540
816.242 .0255380
816.940 .0255206
817.638 .0255021
818.335 .0254825
819.032 .0254622
819.729 .0254422
820.426 .0254234
821.122 .0254065
821.818 .0253908
822.514 .0253767
823.209 .0253638
823.905 .0253515
824.599 .0253387
825.294 .0253248
825.988 .0253094
826.682 .0252928
827.376 .0252757
828.069 .0252580
828.762 .0252399
829.455 .0252214
830.147 .0252024
830.840 .0251835
831.531 .0251639
832.223 .0251438
832.914 .0251228
833.605 .0251015
834.296 .0250798
834.986 .0250575
835.676 .0250349
836.366 .0250127
837.055 .0249909
837.744 .0249694
838.433 .0249483
839.121 .0249282
839.809 .0249093
840.497 .0248921
841.185 .0248768
841.872 .0248627
842.559 .0248496
843.245 .0248371
843.932 .0248241
844.617 .0248107
845.303 .0247966
845.988 .0247818
846.673 .0247666
847.358 .0247523
848.042 .0247387
848.726 .0247268
849.410 .0247169
850.093 .0247088
850.776 .0247017
851.459 .0246954
852.141 .0246883
852.823 .0246803
853.505 .0246712
854.186 .0246615
854.867 .0246513
855.548 .0246418
856.228 .0246330
856.908 .0246250
857.588 .0246177
858.267 .0246112
858.946 .0246042
859.625 .0245967
860.303 .0245879
860.981 .0245779
861.659 .0245668
862.336 .0245550
863.013 .0245429
863.690 .0245308
864.366 .0245198
865.042 .0245095
865.718 .0245000
866.393 .0244917
867.068 .0244850
867.743 .0244799
868.417 .0244766
869.091 .0244747
869.765 .0244735
870.438 .0244730
871.111 .0244725
871.783 .0244711
872.456 .0244683
873.127 .0244640
873.799 .0244584
874.470 .0244512
875.141 .0244433
875.811 .0244346
876.481 .0244260
877.151 .0244175
877.820 .0244088
878.489 .0243996
879.158 .0243898
879.826 .0243796
880.494 .0243684
881.162 .0243566
881.829 .0243448
882.496 .0243332
883.163 .0243232
883.829 .0243155
884.495 .0243103
885.160 .0243078
885.825 .0243082
886.490 .0243108
887.154 .0243143
887.818 .0243180
888.482 .0243210
889.145 .0243228
889.808 .0243235
890.471 .0243225
891.133 .0243208
891.795 .0243196
892.456 .0243188
893.117 .0243182
893.778 .0243178
894.439 .0243172
895.099 .0243154
895.758 .0243125
896.417 .0243078
897.076 .0243017
897.735 .0242953
898.393 .0242890
899.051 .0242842
899.708 .0242812
900.365 .0242804
901.022 .0242812
901.678 .0242834
902.334 .0242858
902.990 .0242871
903.645 .0242877
904.300 .0242867
904.954 .0242851
905.608 .0242829
906.262 .0242809
906.915 .0242802
907.568 .0242806
908.221 .0242817
908.873 .0242828
909.525 .0242836
910.176 .0242831
910.828 .0242812
911.478 .0242775
912.129 .0242719
912.778 .0242649
913.428 .0242564
914.077 .0242473
914.726 .0242374
915.375 .0242273
916.023 .0242164
916.670 .0242052
917.318 .0241931
917.964 .0241795
918.611 .0241651
919.257 .0241502
919.903 .0241352
920.548 .0241200
921.193 .0241055
921.838 .0240924
922.482 .0240806
923.126 .0240709
923.770 .0240629
924.413 .0240567
925.056 .0240518
925.698 .0240477
926.340 .0240444
926.982 .0240414
927.623 .0240391
928.264 .0240373
928.904 .0240361
929.544 .0240352
930.184 .0240340
930.823 .0240322
931.462 .0240298
932.101 .0240263
932.739 .0240209
933.377 .0240138
934.014 .0240049
934.651 .0239944
935.288 .0239825
935.924 .0239694
936.560 .0239552
937.196 .0239399
937.831 .0239232
938.466 .0239046
939.100 .0238846
939.734 .0238638
940.368 .0238422
941.001 .0238210
941.634 .0238005
942.266 .0237808
942.899 .0237622
943.530 .0237444
944.162 .0237271
944.793 .0237097
945.423 .0236924
946.053 .0236752
946.683 .0236579
947.313 .0236408
947.942 .0236238
948.571 .0236070
949.199 .0235897
949.827 .0235715
950.455 .0235520
951.082 .0235312
951.709 .0235089
952.335 .0234852
952.961 .0234606
953.587 .0234354
954.212 .0234098
954.837 .0233840
955.462 .0233577
956.086 .0233314
956.710 .0233050
957.334 .0232794
957.957 .0232550
958.579 .0232320
959.202 .0232111
959.824 .0231926
960.445 .0231763
961.067 .0231617
961.688 .0231483
962.308 .0231358
962.928 .0231236
963.548 .0231110
964.168 .0230977
964.787 .0230840
965.406 .0230698
966.024 .0230557
966.642 .0230413
967.260 .0230270
967.877 .0230125
968.494 .0229975
969.110 .0229824
969.727 .0229674
970.342 .0229518
970.958 .0229364
971.573 .0229216
972.188 .0229081
972.802 .0228950
973.416 .0228828
974.030 .0228719
974.643 .0228620
975.256 .0228527
975.869 .0228439
976.481 .0228359
977.093 .0228291
977.705 .0228225
978.316 .0228164
978.927 .0228106
979.538 .0228045
980.148 .0227975
980.758 .0227897
981.367 .0227807
981.977 .0227703
982.586 .0227588
983.194 .0227466
983.802 .0227341
984.410 .0227219
985.018 .0227094
985.625 .0226974
986.232 .0226863
986.838 .0226757
987.445 .0226652
988.050 .0226554
988.656 .0226458
989.261 .0226369
989.866 .0226284
990.471 .0226199
991.075 .0226118
991.679 .0226051
992.282 .0225983
992.886 .0225920
993.489 .0225861
994.091 .0225806
994.694 .0225752
995.296 .0225700
995.897 .0225638
996.499 .0225572
997.100 .0225499
997.701 .0225420
998.301 .0225334
998.901 .0225251
999.501 .0225165
1000.101 .0225080
1000.700 .0224996
1001.299 .0224908
1001.898 .0224812
1002.496 .0224718
1003.094 .0224618
1003.692 .0224521
1004.289 .0224424
1004.887 .0224335
1005.484 .0224255
1006.080 .0224189
1006.677 .0224126
1007.273 .0224066
1007.868 .0224009
1008.464 .0223951
1009.059 .0223893
1009.654 .0223839
1010.249 .0223802
1010.843 .0223792
1011.437 .0223814
1012.031 .0223858
1012.625 .0223927
1013.218 .0224014
1013.811 .0224101
1014.404 .0224176
1014.997 .0224238
1015.589 .0224279
1016.181 .0224312
1016.773 .0224335
1017.365 .0224365
1017.956 .0224409
1018.547 .0224479
1019.138 .0224560
1019.728 .0224657
1020.319 .0224758
1020.909 .0224859
1021.499 .0224947
1022.088 .0225034
1022.678 .0225101
1023.267 .0225168
1023.856 .0225232
1024.445 .0225302
1025.033 .0225375
1025.621 .0225455
1026.209 .0225526
1026.797 .0225588
1027.385 .0225623
1027.972 .0225624
1028.560 .0225574
1029.147 .0225498
1029.734 .0225381
1030.320 .0225243
1030.907 .0225091
1031.493 .0224948
1032.079 .0224825
1032.665 .0224739
1033.250 .0224677
1033.836 .0224645
1034.421 .0224634
1035.006 .0224644
1035.591 .0224658
1036.176 .0224690
1036.761 .0224735
1037.345 .0224812
1037.929 .0224908
1038.514 .0225028
1039.097 .0225166
1039.681 .0225332
1040.265 .0225495
1040.848 .0225648
1041.432 .0225779
1042.015 .0225871
1042.598 .0225922
1043.181 .0225946
1043.764 .0225944
1044.346 .0225935
1044.929 .0225926
1045.511 .0225925
1046.094 .0225930
1046.676 .0225954
1047.258 .0225980
1047.840 .0226020
1048.422 .0226079
1049.003 .0226143
1049.585 .0226213
1050.166 .0226307
1050.748 .0226430
1051.329 .0226572
1051.910 .0226734
1052.491 .0226904
1053.072 .0227071
1053.653 .0227230
1054.234 .0227369
1054.815 .0227482
1055.396 .0227594
1055.976 .0227705
1056.557 .0227811
1057.138 .0227920
1057.718 .0228018
1058.298 .0228103
1058.879 .0228167
1059.459 .0228196
1060.039 .0228173
1060.620 .0228109
1061.200 .0228010
1061.780 .0227866
1062.360 .0227711
1062.940 .0227569
1063.520 .0227454
1064.101 .0227366
1064.681 .0227311
1065.261 .0227268
1065.841 .0227235
1066.421 .0227199
1067.001 .0227139
1067.581 .0227079
1068.161 .0227025
1068.741 .0226984
1069.321 .0226978
1069.901 .0227041
1070.482 .0227156
1071.062 .0227311
1071.642 .0227510
1072.222 .0227698
1072.803 .0227851
1073.383 .0227930
1073.963 .0227935
1074.544 .0227870
1075.124 .0227752
1075.705 .0227585
1076.286 .0227400
1076.866 .0227250
1077.447 .0227104
1078.028 .0226974
1078.609 .0226860
1079.190 .0226744
1079.771 .0226609
1080.352 .0226444
1080.934 .0226253
1081.515 .0226064
1082.097 .0225917
1082.679 .0225810
1083.260 .0225765
1083.842 .0225814
1084.424 .0225918
1085.007 .0226067
1085.589 .0226218
1086.172 .0226349
1086.754 .0226418
1087.337 .0226434
1087.920 .0226378
1088.503 .0226265
1089.087 .0226121
1089.670 .0225971
1090.254 .0225820
1090.838 .0225712
1091.422 .0225635
1092.006 .0225585
1092.590 .0225555
1093.175 .0225560
1093.760 .0225568
1094.345 .0225597
1094.930 .0225636
1095.516 .0225726
1096.102 .0225867
1096.688 .0226062
1097.274 .0226312
1097.860 .0226614
1098.447 .0226965
1099.034 .0227331
1099.622 .0227656
1100.209 .0227959
1100.797 .0228194
1101.385 .0228353
1101.973 .0228431
1102.562 .0228452
1103.151 .0228423
1103.740 .0228338
1104.330 .0228214
1104.920 .0228078
1105.510 .0227924
1106.101 .0227793
1106.691 .0227684
1107.283 .0227606
1107.874 .0227568
1108.466 .0227559
1109.058 .0227596
1109.651 .0227685
1110.244 .0227800
1110.837 .0227930
1111.431 .0228064
1112.025 .0228217
1112.620 .0228376
1113.215 .0228511
1113.810 .0228674
1114.406 .0228859
1115.002 .0229039
1115.599 .0229184
1116.196 .0229250
1116.793 .0229218
1117.391 .0229068
1117.989 .0228783
1118.588 .0228398
1119.187 .0227908
1119.787 .0227409
1120.387 .0226918
1120.988 .0226474
1121.589 .0226126
1122.190 .0225833
1122.793 .0225588
1123.395 .0225361
1123.998 .0225109
1124.602 .0224831
1125.206 .0224548
1125.811 .0224370
1126.416 .0224279
1127.022 .0224338
1127.628 .0224557
1128.235 .0224925
1128.843 .0225414
1129.451 .0226007
1130.059 .0226598
1130.669 .0227183
1131.278 .0227767
1131.889 .0228301
1132.500 .0228817
1133.112 .0229356
1133.724 .0229934
1134.337 .0230530
1134.950 .0231125
1135.564 .0231672
1136.179 .0232099
1136.795 .0232435
1137.411 .0232605
1138.028 .0232642
1138.645 .0232603
1139.263 .0232451
1139.882 .0232205
1140.502 .0231876
1141.122 .0231430
1141.743 .0230798
1142.365 .0229860
1142.987 .0229633
1143.611 .0228943
1144.235 .0226330
1144.859 .0224232
1145.485 .0219501
