Measurement Sequence started on: 10-20-44-796
Integration time: 35
Scans to Average: 2 
>>>>>Begin Spectral Data<<<<<
432.953 .0414304
433.882 .0300864
434.810 .0306659
435.737 .0311740
436.662 .0306021
437.586 .0319527
438.509 .0317731
439.431 .0319504
440.351 .0320624
441.269 .0321169
442.187 .0321441
443.103 .0321194
444.018 .0320823
444.932 .0320449
445.844 .0319987
446.756 .0319517
447.666 .0318980
448.575 .0318264
449.482 .0317432
450.388 .0316503
451.294 .0315601
452.198 .0314749
453.100 .0313933
454.002 .0313296
454.902 .0312765
455.801 .0312424
456.699 .0312185
457.596 .0312059
458.492 .0311955
459.387 .0311888
460.280 .0311797
461.172 .0311655
462.064 .0311502
462.954 .0311328
463.843 .0311151
464.730 .0311067
465.617 .0311020
466.503 .0311014
467.387 .0311024
468.271 .0311052
469.153 .0311059
470.035 .0311063
470.915 .0311028
471.794 .0310973
472.673 .0310895
473.550 .0310781
474.426 .0310655
475.301 .0310547
476.175 .0310454
477.048 .0310351
477.920 .0310225
478.791 .0310089
479.661 .0309927
480.530 .0309752
481.398 .0309540
482.266 .0309328
483.132 .0309142
483.997 .0308933
484.861 .0308703
485.724 .0308482
486.587 .0308279
487.448 .0308068
488.308 .0307848
489.168 .0307618
490.026 .0307366
490.884 .0307095
491.741 .0306772
492.597 .0306425
493.452 .0306050
494.306 .0305632
495.159 .0305146
496.011 .0304639
496.862 .0304097
497.713 .0303497
498.562 .0302866
499.411 .0302196
500.259 .0301467
501.106 .0300695
501.952 .0299883
502.798 .0299060
503.642 .0298242
504.486 .0297460
505.329 .0296703
506.171 .0296020
507.012 .0295400
507.852 .0294821
508.692 .0294279
509.531 .0293781
510.369 .0293230
511.206 .0292659
512.043 .0292031
512.878 .0291317
513.713 .0290561
514.547 .0289732
515.381 .0288817
516.213 .0287821
517.045 .0286744
517.876 .0285518
518.706 .0284110
519.536 .0282549
520.365 .0280787
521.193 .0278862
522.020 .0276777
522.847 .0274525
523.673 .0272211
524.498 .0269904
525.323 .0267549
526.146 .0265230
526.969 .0262979
527.792 .0260753
528.614 .0258578
529.435 .0256500
530.255 .0254558
531.075 .0252771
531.894 .0251277
532.712 .0250029
533.530 .0248967
534.347 .0248166
535.163 .0247466
535.979 .0246935
536.794 .0246504
537.608 .0246157
538.422 .0245905
539.235 .0245824
540.048 .0245927
540.860 .0246151
541.671 .0246533
542.481 .0247056
543.292 .0247602
544.101 .0248120
544.910 .0248538
545.718 .0248914
546.526 .0249247
547.333 .0249631
548.139 .0250098
548.945 .0250694
549.750 .0251393
550.555 .0252191
551.359 .0253020
552.162 .0253830
552.965 .0254602
553.768 .0255290
554.569 .0255919
555.371 .0256531
556.171 .0257136
556.972 .0257783
557.771 .0258495
558.570 .0259288
559.369 .0260082
560.167 .0260864
560.964 .0261599
561.761 .0262273
562.558 .0262873
563.354 .0263468
564.149 .0264047
564.944 .0264641
565.738 .0265272
566.532 .0265938
567.325 .0266606
568.118 .0267297
568.910 .0267997
569.702 .0268700
570.494 .0269396
571.285 .0270111
572.075 .0270814
572.865 .0271555
573.654 .0272323
574.443 .0273110
575.232 .0273898
576.020 .0274707
576.807 .0275491
577.594 .0276248
578.381 .0276978
579.167 .0277683
579.952 .0278346
580.738 .0278996
581.522 .0279620
582.307 .0280225
583.091 .0280811
583.874 .0281396
584.657 .0281957
585.440 .0282497
586.222 .0282984
587.004 .0283431
587.785 .0283838
588.566 .0284191
589.346 .0284472
590.126 .0284711
590.906 .0284912
591.685 .0285073
592.464 .0285192
593.242 .0285287
594.020 .0285353
594.797 .0285408
595.575 .0285437
596.351 .0285449
597.128 .0285449
597.904 .0285435
598.679 .0285410
599.454 .0285374
600.229 .0285323
601.004 .0285243
601.778 .0285140
602.551 .0285021
603.325 .0284873
604.097 .0284712
604.870 .0284538
605.642 .0284368
606.414 .0284199
607.185 .0284035
607.956 .0283868
608.727 .0283709
609.497 .0283545
610.267 .0283369
611.037 .0283182
611.806 .0282985
612.575 .0282783
613.344 .0282584
614.112 .0282392
614.880 .0282218
615.647 .0282059
616.414 .0281921
617.181 .0281792
617.948 .0281677
618.714 .0281561
619.480 .0281448
620.245 .0281331
621.011 .0281214
621.775 .0281093
622.540 .0280972
623.304 .0280851
624.068 .0280734
624.832 .0280613
625.595 .0280491
626.358 .0280363
627.120 .0280235
627.883 .0280103
628.645 .0279975
629.406 .0279845
630.168 .0279721
630.929 .0279599
631.689 .0279479
632.450 .0279355
633.210 .0279235
633.970 .0279109
634.729 .0278980
635.489 .0278846
636.248 .0278711
637.006 .0278572
637.765 .0278434
638.523 .0278290
639.280 .0278143
640.038 .0277988
640.795 .0277827
641.552 .0277660
642.309 .0277493
643.065 .0277331
643.821 .0277174
644.577 .0277025
645.332 .0276886
646.088 .0276747
646.843 .0276607
647.597 .0276473
648.352 .0276338
649.106 .0276201
649.860 .0276062
650.613 .0275928
651.367 .0275805
652.120 .0275696
652.872 .0275599
653.625 .0275515
654.377 .0275439
655.129 .0275367
655.881 .0275286
656.632 .0275205
657.384 .0275123
658.135 .0275037
658.885 .0274952
659.636 .0274869
660.386 .0274782
661.136 .0274698
661.885 .0274615
662.635 .0274531
663.384 .0274440
664.133 .0274338
664.881 .0274225
665.630 .0274105
666.378 .0273977
667.126 .0273834
667.874 .0273679
668.621 .0273513
669.368 .0273331
670.115 .0273129
670.862 .0272917
671.608 .0272695
672.354 .0272472
673.100 .0272245
673.846 .0272019
674.591 .0271794
675.337 .0271578
676.082 .0271367
676.826 .0271157
677.571 .0270947
678.315 .0270736
679.059 .0270524
679.803 .0270316
680.547 .0270112
681.290 .0269919
682.033 .0269735
682.776 .0269561
683.518 .0269393
684.261 .0269233
685.003 .0269078
685.745 .0268929
686.487 .0268784
687.228 .0268640
687.969 .0268496
688.710 .0268353
689.451 .0268214
690.192 .0268076
690.932 .0267943
691.672 .0267811
692.412 .0267683
693.152 .0267556
693.891 .0267426
694.630 .0267296
695.369 .0267164
696.108 .0267025
696.846 .0266878
697.585 .0266719
698.323 .0266553
699.061 .0266381
699.798 .0266207
700.536 .0266033
701.273 .0265866
702.010 .0265707
702.746 .0265556
703.483 .0265414
704.219 .0265280
704.955 .0265148
705.691 .0265025
706.427 .0264904
707.162 .0264784
707.897 .0264664
708.632 .0264546
709.367 .0264428
710.101 .0264308
710.835 .0264182
711.569 .0264047
712.303 .0263901
713.037 .0263748
713.770 .0263585
714.503 .0263418
715.236 .0263251
715.969 .0263083
716.702 .0262917
717.434 .0262752
718.166 .0262584
718.898 .0262414
719.629 .0262244
720.361 .0262073
721.092 .0261905
721.823 .0261742
722.554 .0261587
723.284 .0261441
724.014 .0261306
724.744 .0261177
725.474 .0261047
726.204 .0260916
726.933 .0260779
727.662 .0260634
728.391 .0260484
729.120 .0260332
729.849 .0260185
730.577 .0260048
731.305 .0259922
732.033 .0259807
732.760 .0259703
733.488 .0259605
734.215 .0259509
734.942 .0259407
735.669 .0259297
736.395 .0259180
737.122 .0259059
737.848 .0258935
738.573 .0258815
739.299 .0258701
740.024 .0258591
740.750 .0258480
741.474 .0258374
742.199 .0258259
742.924 .0258136
743.648 .0258007
744.372 .0257868
745.096 .0257726
745.819 .0257588
746.543 .0257455
747.266 .0257340
747.989 .0257244
748.711 .0257166
749.434 .0257102
750.156 .0257054
750.878 .0257014
751.599 .0256980
752.321 .0256952
753.042 .0256929
753.763 .0256907
754.484 .0256890
755.205 .0256879
755.925 .0256871
756.645 .0256864
757.365 .0256851
758.085 .0256831
758.804 .0256801
759.523 .0256747
760.242 .0256673
760.961 .0256578
761.679 .0256463
762.397 .0256327
763.115 .0256172
763.833 .0256004
764.551 .0255822
765.268 .0255629
765.985 .0255423
766.702 .0255208
767.418 .0254988
768.134 .0254763
768.850 .0254537
769.566 .0254312
770.282 .0254089
770.997 .0253872
771.712 .0253666
772.427 .0253472
773.142 .0253287
773.856 .0253116
774.570 .0252956
775.284 .0252807
775.998 .0252665
776.711 .0252532
777.424 .0252402
778.137 .0252275
778.849 .0252142
779.562 .0251996
780.274 .0251844
780.986 .0251689
781.697 .0251526
782.409 .0251369
783.120 .0251219
783.831 .0251084
784.541 .0250961
785.252 .0250856
785.962 .0250763
786.671 .0250676
787.381 .0250590
788.090 .0250498
788.799 .0250395
789.508 .0250283
790.217 .0250161
790.925 .0250034
791.633 .0249905
792.341 .0249776
793.048 .0249642
793.755 .0249510
794.462 .0249374
795.169 .0249229
795.875 .0249075
796.581 .0248909
797.287 .0248732
797.993 .0248544
798.698 .0248351
799.403 .0248158
800.108 .0247967
800.812 .0247779
801.517 .0247595
802.221 .0247419
802.924 .0247252
803.628 .0247093
804.331 .0246944
805.034 .0246806
805.736 .0246675
806.439 .0246551
807.141 .0246432
807.843 .0246319
808.544 .0246209
809.245 .0246096
809.946 .0245983
810.647 .0245869
811.347 .0245755
812.047 .0245643
812.747 .0245536
813.447 .0245433
814.146 .0245331
814.845 .0245234
815.543 .0245136
816.242 .0245037
816.940 .0244934
817.638 .0244825
818.335 .0244709
819.032 .0244587
819.729 .0244458
820.426 .0244322
821.122 .0244184
821.818 .0244043
822.514 .0243898
823.209 .0243752
823.905 .0243603
824.599 .0243451
825.294 .0243297
825.988 .0243143
826.682 .0242989
827.376 .0242836
828.069 .0242678
828.762 .0242520
829.455 .0242359
830.147 .0242196
830.840 .0242038
831.531 .0241884
832.223 .0241738
832.914 .0241602
833.605 .0241477
834.296 .0241361
834.986 .0241254
835.676 .0241152
836.366 .0241051
837.055 .0240950
837.744 .0240849
838.433 .0240744
839.121 .0240645
839.809 .0240554
840.497 .0240469
841.185 .0240396
841.872 .0240331
842.559 .0240272
843.245 .0240215
843.932 .0240158
844.617 .0240099
845.303 .0240032
845.988 .0239963
846.673 .0239887
847.358 .0239811
848.042 .0239738
848.726 .0239669
849.410 .0239604
850.093 .0239544
850.776 .0239483
851.459 .0239417
852.141 .0239347
852.823 .0239269
853.505 .0239186
854.186 .0239099
854.867 .0239011
855.548 .0238925
856.228 .0238844
856.908 .0238772
857.588 .0238707
858.267 .0238653
858.946 .0238605
859.625 .0238559
860.303 .0238519
860.981 .0238479
861.659 .0238442
862.336 .0238402
863.013 .0238364
863.690 .0238325
864.366 .0238282
865.042 .0238234
865.718 .0238178
866.393 .0238115
867.068 .0238050
867.743 .0237974
868.417 .0237894
869.091 .0237809
869.765 .0237725
870.438 .0237642
871.111 .0237563
871.783 .0237485
872.456 .0237413
873.127 .0237345
873.799 .0237283
874.470 .0237220
875.141 .0237164
875.811 .0237115
876.481 .0237073
877.151 .0237042
877.820 .0237020
878.489 .0237006
879.158 .0237006
879.826 .0237008
880.494 .0237014
881.162 .0237013
881.829 .0237009
882.496 .0236995
883.163 .0236973
883.829 .0236943
884.495 .0236904
885.160 .0236869
885.825 .0236841
886.490 .0236816
887.154 .0236803
887.818 .0236795
888.482 .0236791
889.145 .0236785
889.808 .0236779
890.471 .0236763
891.133 .0236749
891.795 .0236732
892.456 .0236715
893.117 .0236700
893.778 .0236693
894.439 .0236686
895.099 .0236680
895.758 .0236675
896.417 .0236660
897.076 .0236633
897.735 .0236597
898.393 .0236546
899.051 .0236487
899.708 .0236421
900.365 .0236350
901.022 .0236273
901.678 .0236198
902.334 .0236121
902.990 .0236045
903.645 .0235975
904.300 .0235909
904.954 .0235845
905.608 .0235788
906.262 .0235738
906.915 .0235694
907.568 .0235659
908.221 .0235636
908.873 .0235621
909.525 .0235611
910.176 .0235605
910.828 .0235601
911.478 .0235597
912.129 .0235591
912.778 .0235579
913.428 .0235555
914.077 .0235524
914.726 .0235478
915.375 .0235421
916.023 .0235355
916.670 .0235286
917.318 .0235215
917.964 .0235144
918.611 .0235073
919.257 .0235000
919.903 .0234923
920.548 .0234845
921.193 .0234764
921.838 .0234680
922.482 .0234595
923.126 .0234512
923.770 .0234432
924.413 .0234362
925.056 .0234298
925.698 .0234245
926.340 .0234203
926.982 .0234169
927.623 .0234135
928.264 .0234101
928.904 .0234068
929.544 .0234027
930.184 .0233977
930.823 .0233915
931.462 .0233838
932.101 .0233748
932.739 .0233645
933.377 .0233530
934.014 .0233402
934.651 .0233275
935.288 .0233142
935.924 .0233007
936.560 .0232870
937.196 .0232726
937.831 .0232575
938.466 .0232412
939.100 .0232238
939.734 .0232046
940.368 .0231846
941.001 .0231641
941.634 .0231437
942.266 .0231245
942.899 .0231062
943.530 .0230892
944.162 .0230730
944.793 .0230570
945.423 .0230399
946.053 .0230214
946.683 .0230016
947.313 .0229806
947.942 .0229586
948.571 .0229357
949.199 .0229124
949.827 .0228893
950.455 .0228663
951.082 .0228434
951.709 .0228210
952.335 .0227988
952.961 .0227764
953.587 .0227542
954.212 .0227321
954.837 .0227103
955.462 .0226891
956.086 .0226684
956.710 .0226484
957.334 .0226287
957.957 .0226093
958.579 .0225899
959.202 .0225710
959.824 .0225524
960.445 .0225339
961.067 .0225159
961.688 .0224982
962.308 .0224807
962.928 .0224635
963.548 .0224461
964.168 .0224283
964.787 .0224099
965.406 .0223916
966.024 .0223732
966.642 .0223554
967.260 .0223389
967.877 .0223238
968.494 .0223099
969.110 .0222970
969.727 .0222842
970.342 .0222716
970.958 .0222590
971.573 .0222464
972.188 .0222331
972.802 .0222202
973.416 .0222078
974.030 .0221957
974.643 .0221843
975.256 .0221735
975.869 .0221627
976.481 .0221520
977.093 .0221410
977.705 .0221297
978.316 .0221183
978.927 .0221072
979.538 .0220962
980.148 .0220855
980.758 .0220751
981.367 .0220645
981.977 .0220538
982.586 .0220430
983.194 .0220314
983.802 .0220193
984.410 .0220070
985.018 .0219946
985.625 .0219822
986.232 .0219698
986.838 .0219574
987.445 .0219454
988.050 .0219331
988.656 .0219206
989.261 .0219080
989.866 .0218953
990.471 .0218832
991.075 .0218720
991.679 .0218618
992.282 .0218531
992.886 .0218460
993.489 .0218408
994.091 .0218367
994.694 .0218335
995.296 .0218304
995.897 .0218268
996.499 .0218226
997.100 .0218174
997.701 .0218113
998.301 .0218049
998.901 .0217991
999.501 .0217937
1000.101 .0217892
1000.700 .0217857
1001.299 .0217824
1001.898 .0217794
1002.496 .0217759
1003.094 .0217715
1003.692 .0217663
1004.289 .0217605
1004.887 .0217548
1005.484 .0217492
1006.080 .0217444
1006.677 .0217402
1007.273 .0217365
1007.868 .0217334
1008.464 .0217305
1009.059 .0217271
1009.654 .0217233
1010.249 .0217193
1010.843 .0217148
1011.437 .0217098
1012.031 .0217040
1012.625 .0216988
1013.218 .0216935
1013.811 .0216882
1014.404 .0216833
1014.997 .0216789
1015.589 .0216756
1016.181 .0216735
1016.773 .0216724
1017.365 .0216736
1017.956 .0216758
1018.547 .0216786
1019.138 .0216812
1019.728 .0216841
1020.319 .0216865
1020.909 .0216882
1021.499 .0216901
1022.088 .0216926
1022.678 .0216951
1023.267 .0216988
1023.856 .0217029
1024.445 .0217075
1025.033 .0217118
1025.621 .0217148
1026.209 .0217164
1026.797 .0217167
1027.385 .0217153
1027.972 .0217132
1028.560 .0217116
1029.147 .0217107
1029.734 .0217103
1030.320 .0217114
1030.907 .0217132
1031.493 .0217160
1032.079 .0217190
1032.665 .0217225
1033.250 .0217257
1033.836 .0217290
1034.421 .0217321
1035.006 .0217356
1035.591 .0217401
1036.176 .0217456
1036.761 .0217518
1037.345 .0217587
1037.929 .0217655
1038.514 .0217717
1039.097 .0217772
1039.681 .0217822
1040.265 .0217861
1040.848 .0217889
1041.432 .0217898
1042.015 .0217897
1042.598 .0217878
1043.181 .0217850
1043.764 .0217822
1044.346 .0217798
1044.929 .0217787
1045.511 .0217791
1046.094 .0217813
1046.676 .0217854
1047.258 .0217900
1047.840 .0217952
1048.422 .0218000
1049.003 .0218041
1049.585 .0218068
1050.166 .0218089
1050.748 .0218118
1051.329 .0218159
1051.910 .0218220
1052.491 .0218313
1053.072 .0218427
1053.653 .0218554
1054.234 .0218682
1054.815 .0218787
1055.396 .0218870
1055.976 .0218921
1056.557 .0218939
1057.138 .0218932
1057.718 .0218917
1058.298 .0218894
1058.879 .0218871
1059.459 .0218859
1060.039 .0218852
1060.620 .0218837
1061.200 .0218814
1061.780 .0218761
1062.360 .0218678
1062.940 .0218573
1063.520 .0218452
1064.101 .0218319
1064.681 .0218200
1065.261 .0218084
1065.841 .0217981
1066.421 .0217910
1067.001 .0217861
1067.581 .0217837
1068.161 .0217838
1068.741 .0217864
1069.321 .0217903
1069.901 .0217950
1070.482 .0218006
1071.062 .0218070
1071.642 .0218151
1072.222 .0218237
1072.803 .0218319
1073.383 .0218420
1073.963 .0218524
1074.544 .0218630
1075.124 .0218731
1075.705 .0218821
1076.286 .0218887
1076.866 .0218939
1077.447 .0218950
1078.028 .0218940
1078.609 .0218914
1079.190 .0218876
1079.771 .0218827
1080.352 .0218787
1080.934 .0218744
1081.515 .0218702
1082.097 .0218674
1082.679 .0218654
1083.260 .0218611
1083.842 .0218581
1084.424 .0218547
1085.007 .0218520
1085.589 .0218503
1086.172 .0218496
1086.754 .0218510
1087.337 .0218559
1087.920 .0218619
1088.503 .0218685
1089.087 .0218771
1089.670 .0218868
1090.254 .0218948
1090.838 .0219025
1091.422 .0219111
1092.006 .0219194
1092.590 .0219284
1093.175 .0219376
1093.760 .0219470
1094.345 .0219584
1094.930 .0219687
1095.516 .0219776
1096.102 .0219860
1096.688 .0219925
1097.274 .0219970
1097.860 .0219997
1098.447 .0220021
1099.034 .0220020
1099.622 .0220021
1100.209 .0220017
1100.797 .0219999
1101.385 .0219970
1101.973 .0219939
1102.562 .0219893
1103.151 .0219838
1103.740 .0219770
1104.330 .0219687
1104.920 .0219625
1105.510 .0219601
1106.101 .0219599
1106.691 .0219620
1107.283 .0219668
1107.874 .0219731
1108.466 .0219770
1109.058 .0219803
1109.651 .0219812
1110.244 .0219812
1110.837 .0219829
1111.431 .0219859
1112.025 .0219912
1112.620 .0220009
1113.215 .0220175
1113.810 .0220354
1114.406 .0220550
1115.002 .0220733
1115.599 .0220864
1116.196 .0220927
1116.793 .0220903
1117.391 .0220798
1117.989 .0220630
1118.588 .0220456
1119.187 .0220287
1119.787 .0220126
1120.387 .0220023
1120.988 .0219950
1121.589 .0219883
1122.190 .0219796
1122.793 .0219678
1123.395 .0219496
1123.998 .0219264
1124.602 .0219009
1125.206 .0218730
1125.811 .0218489
1126.416 .0218336
1127.022 .0218295
1127.628 .0218345
1128.235 .0218523
1128.843 .0218804
1129.451 .0219170
1130.059 .0219616
1130.669 .0220118
1131.278 .0220649
1131.889 .0221215
1132.500 .0221780
1133.112 .0222324
1133.724 .0222837
1134.337 .0223382
1134.950 .0223913
1135.564 .0224473
1136.179 .0225051
1136.795 .0225696
1137.411 .0226393
1138.028 .0227154
1138.645 .0227943
1139.263 .0228761
1139.882 .0229556
1140.502 .0230392
1141.122 .0231269
1141.743 .0232188
1142.365 .0233328
1142.987 .0232532
1143.611 .0235463
1144.235 .0237807
1144.859 .0237951
1145.485 .0243476
