Measurement Sequence started on: 10-20-44-796
Integration time: 35
Scans to Average: 2 
>>>>>Begin Spectral Data<<<<<
432.953 .0337118
433.882 .0309819
434.810 .0295899
435.737 .0319767
436.662 .0335932
437.586 .0314868
438.509 .0311909
439.431 .0309270
440.351 .0306801
441.269 .0304080
442.187 .0301773
443.103 .0300474
444.018 .0300211
444.932 .0300361
445.844 .0300704
446.756 .0301189
447.666 .0301777
448.575 .0302452
449.482 .0303387
450.388 .0304533
451.294 .0305778
452.198 .0307154
453.100 .0308443
454.002 .0309594
454.902 .0310570
455.801 .0311360
456.699 .0312046
457.596 .0312751
458.492 .0313333
459.387 .0313783
460.280 .0314132
461.172 .0314342
462.064 .0314385
462.954 .0314324
463.843 .0314208
464.730 .0314063
465.617 .0314002
466.503 .0314060
467.387 .0314214
468.271 .0314451
469.153 .0314683
470.035 .0314841
470.915 .0314959
471.794 .0314884
472.673 .0314699
473.550 .0314431
474.426 .0314159
475.301 .0313907
476.175 .0313672
477.048 .0313478
477.920 .0313290
478.791 .0313079
479.661 .0312853
480.530 .0312588
481.398 .0312298
482.266 .0311992
483.132 .0311738
483.997 .0311520
484.861 .0311350
485.724 .0311229
486.587 .0311167
487.448 .0311115
488.308 .0311098
489.168 .0311075
490.026 .0311012
490.884 .0310946
491.741 .0310835
492.597 .0310700
493.452 .0310542
494.306 .0310313
495.159 .0310012
496.011 .0309627
496.862 .0309144
497.713 .0308509
498.562 .0307806
499.411 .0307060
500.259 .0306301
501.106 .0305541
501.952 .0304784
502.798 .0304033
503.642 .0303306
504.486 .0302577
505.329 .0301813
506.171 .0301042
507.012 .0300222
507.852 .0299336
508.692 .0298461
509.531 .0297555
510.369 .0296729
511.206 .0295995
512.043 .0295394
512.878 .0294825
513.713 .0294259
514.547 .0293613
515.381 .0292843
516.213 .0291912
517.045 .0290773
517.876 .0289406
518.706 .0287937
519.536 .0286355
520.365 .0284703
521.193 .0283108
522.020 .0281598
522.847 .0280108
523.673 .0278653
524.498 .0277106
525.323 .0275513
526.146 .0273885
526.969 .0272271
527.792 .0270614
528.614 .0268967
529.435 .0267404
530.255 .0265872
531.075 .0264376
531.894 .0262961
532.712 .0261480
533.530 .0260060
534.347 .0258608
535.163 .0257092
535.979 .0255631
536.794 .0254362
537.608 .0253217
538.422 .0252249
539.235 .0251431
540.048 .0250735
540.860 .0250108
541.671 .0249649
542.481 .0249227
543.292 .0248945
544.101 .0248925
544.910 .0249150
545.718 .0249637
546.526 .0250500
547.333 .0251580
548.139 .0252871
548.945 .0254251
549.750 .0255609
550.555 .0256747
551.359 .0257763
552.162 .0258597
552.965 .0259255
553.768 .0259804
554.569 .0260283
555.371 .0260683
556.171 .0261089
556.972 .0261455
557.771 .0261754
558.570 .0262000
559.369 .0262216
560.167 .0262334
560.964 .0262455
561.761 .0262596
562.558 .0262820
563.354 .0263153
564.149 .0263590
564.944 .0264121
565.738 .0264723
566.532 .0265372
567.325 .0266025
568.118 .0266720
568.910 .0267443
569.702 .0268211
570.494 .0269038
571.285 .0269975
572.075 .0270970
572.865 .0272024
573.654 .0273092
574.443 .0274173
575.232 .0275244
576.020 .0276272
576.807 .0277233
577.594 .0278155
578.381 .0279023
579.167 .0279867
579.952 .0280647
580.738 .0281452
581.522 .0282256
582.307 .0283066
583.091 .0283863
583.874 .0284645
584.657 .0285358
585.440 .0286040
586.222 .0286639
587.004 .0287177
587.785 .0287658
588.566 .0288104
589.346 .0288500
590.126 .0288858
590.906 .0289187
591.685 .0289504
592.464 .0289778
593.242 .0290027
594.020 .0290222
594.797 .0290388
595.575 .0290516
596.351 .0290619
597.128 .0290696
597.904 .0290754
598.679 .0290792
599.454 .0290805
600.229 .0290788
601.004 .0290750
601.778 .0290684
602.551 .0290610
603.325 .0290537
604.097 .0290477
604.870 .0290417
605.642 .0290371
606.414 .0290337
607.185 .0290305
607.956 .0290264
608.727 .0290212
609.497 .0290149
610.267 .0290071
611.037 .0289977
611.806 .0289877
612.575 .0289764
613.344 .0289647
614.112 .0289509
614.880 .0289353
615.647 .0289177
616.414 .0288978
617.181 .0288764
617.948 .0288550
618.714 .0288341
619.480 .0288149
620.245 .0287964
621.011 .0287793
621.775 .0287638
622.540 .0287490
623.304 .0287346
624.068 .0287210
624.832 .0287080
625.595 .0286970
626.358 .0286875
627.120 .0286810
627.883 .0286757
628.645 .0286719
629.406 .0286691
630.168 .0286650
630.929 .0286592
631.689 .0286514
632.450 .0286399
633.210 .0286261
633.970 .0286091
634.729 .0285887
635.489 .0285651
636.248 .0285399
637.006 .0285132
637.765 .0284846
638.523 .0284553
639.280 .0284264
640.038 .0283982
640.795 .0283722
641.552 .0283477
642.309 .0283242
643.065 .0283031
643.821 .0282834
644.577 .0282639
645.332 .0282453
646.088 .0282282
646.843 .0282132
647.597 .0282003
648.352 .0281901
649.106 .0281831
649.860 .0281789
650.613 .0281776
651.367 .0281781
652.120 .0281796
652.872 .0281812
653.625 .0281822
654.377 .0281823
655.129 .0281824
655.881 .0281811
656.632 .0281783
657.384 .0281733
658.135 .0281663
658.885 .0281566
659.636 .0281441
660.386 .0281296
661.136 .0281144
661.885 .0280985
662.635 .0280828
663.384 .0280673
664.133 .0280531
664.881 .0280399
665.630 .0280266
666.378 .0280138
667.126 .0280009
667.874 .0279869
668.621 .0279730
669.368 .0279592
670.115 .0279469
670.862 .0279359
671.608 .0279267
672.354 .0279189
673.100 .0279131
673.846 .0279081
674.591 .0279024
675.337 .0278963
676.082 .0278895
676.826 .0278796
677.571 .0278667
678.315 .0278513
679.059 .0278342
679.803 .0278158
680.547 .0277973
681.290 .0277790
682.033 .0277623
682.776 .0277471
683.518 .0277333
684.261 .0277211
685.003 .0277101
685.745 .0276989
686.487 .0276872
687.228 .0276750
687.969 .0276622
688.710 .0276485
689.451 .0276352
690.192 .0276225
690.932 .0276108
691.672 .0276000
692.412 .0275901
693.152 .0275816
693.891 .0275742
694.630 .0275666
695.369 .0275584
696.108 .0275495
696.846 .0275388
697.585 .0275262
698.323 .0275115
699.061 .0274948
699.798 .0274766
700.536 .0274573
701.273 .0274379
702.010 .0274185
702.746 .0273999
703.483 .0273821
704.219 .0273646
704.955 .0273475
705.691 .0273298
706.427 .0273107
707.162 .0272906
707.897 .0272695
708.632 .0272480
709.367 .0272271
710.101 .0272077
710.835 .0271910
711.569 .0271764
712.303 .0271639
713.037 .0271529
713.770 .0271427
714.503 .0271328
715.236 .0271221
715.969 .0271105
716.702 .0270976
717.434 .0270841
718.166 .0270702
718.898 .0270558
719.629 .0270417
720.361 .0270280
721.092 .0270145
721.823 .0270003
722.554 .0269858
723.284 .0269708
724.014 .0269552
724.744 .0269389
725.474 .0269220
726.204 .0269043
726.933 .0268859
727.662 .0268672
728.391 .0268482
729.120 .0268298
729.849 .0268118
730.577 .0267942
731.305 .0267771
732.033 .0267600
732.760 .0267434
733.488 .0267264
734.215 .0267099
734.942 .0266935
735.669 .0266762
736.395 .0266589
737.122 .0266413
737.848 .0266239
738.573 .0266064
739.299 .0265893
740.024 .0265728
740.750 .0265566
741.474 .0265407
742.199 .0265249
742.924 .0265092
743.648 .0264937
744.372 .0264778
745.096 .0264611
745.819 .0264442
746.543 .0264270
747.266 .0264098
747.989 .0263934
748.711 .0263781
749.434 .0263644
750.156 .0263519
750.878 .0263412
751.599 .0263326
752.321 .0263257
753.042 .0263208
753.763 .0263172
754.484 .0263147
755.205 .0263129
755.925 .0263120
756.645 .0263117
757.365 .0263114
758.085 .0263110
758.804 .0263094
759.523 .0263065
760.242 .0263024
760.961 .0262961
761.679 .0262881
762.397 .0262781
763.115 .0262656
763.833 .0262505
764.551 .0262328
765.268 .0262125
765.985 .0261900
766.702 .0261654
767.418 .0261392
768.134 .0261113
768.850 .0260832
769.566 .0260550
770.282 .0260277
770.997 .0260023
771.712 .0259781
772.427 .0259554
773.142 .0259349
773.856 .0259156
774.570 .0258984
775.284 .0258828
775.998 .0258687
776.711 .0258566
777.424 .0258458
778.137 .0258363
778.849 .0258277
779.562 .0258196
780.274 .0258119
780.986 .0258034
781.697 .0257946
782.409 .0257848
783.120 .0257739
783.831 .0257625
784.541 .0257505
785.252 .0257379
785.962 .0257254
786.671 .0257123
787.381 .0256991
788.090 .0256856
788.799 .0256709
789.508 .0256556
790.217 .0256394
790.925 .0256229
791.633 .0256063
792.341 .0255897
793.048 .0255734
793.755 .0255570
794.462 .0255406
795.169 .0255239
795.875 .0255067
796.581 .0254893
797.287 .0254717
797.993 .0254542
798.698 .0254371
799.403 .0254211
800.108 .0254060
800.812 .0253924
801.517 .0253796
802.221 .0253676
802.924 .0253560
803.628 .0253447
804.331 .0253338
805.034 .0253235
805.736 .0253147
806.439 .0253067
807.141 .0252994
807.843 .0252933
808.544 .0252873
809.245 .0252809
809.946 .0252739
810.647 .0252656
811.347 .0252560
812.047 .0252455
812.747 .0252336
813.447 .0252207
814.146 .0252078
814.845 .0251952
815.543 .0251829
816.242 .0251719
816.940 .0251621
817.638 .0251529
818.335 .0251453
819.032 .0251391
819.729 .0251338
820.426 .0251292
821.122 .0251246
821.818 .0251191
822.514 .0251129
823.209 .0251054
823.905 .0250963
824.599 .0250861
825.294 .0250745
825.988 .0250611
826.682 .0250460
827.376 .0250299
828.069 .0250117
828.762 .0249919
829.455 .0249707
830.147 .0249481
830.840 .0249247
831.531 .0249011
832.223 .0248781
832.914 .0248574
833.605 .0248392
834.296 .0248232
834.986 .0248094
835.676 .0247981
836.366 .0247884
837.055 .0247804
837.744 .0247733
838.433 .0247666
839.121 .0247602
839.809 .0247541
840.497 .0247481
841.185 .0247428
841.872 .0247381
842.559 .0247340
843.245 .0247294
843.932 .0247246
844.617 .0247188
845.303 .0247120
845.988 .0247044
846.673 .0246957
847.358 .0246862
848.042 .0246759
848.726 .0246654
849.410 .0246552
850.093 .0246458
850.776 .0246368
851.459 .0246280
852.141 .0246195
852.823 .0246113
853.505 .0246030
854.186 .0245941
854.867 .0245854
855.548 .0245767
856.228 .0245670
856.908 .0245561
857.588 .0245443
858.267 .0245322
858.946 .0245196
859.625 .0245074
860.303 .0244954
860.981 .0244842
861.659 .0244738
862.336 .0244633
863.013 .0244529
863.690 .0244421
864.366 .0244307
865.042 .0244182
865.718 .0244050
866.393 .0243917
867.068 .0243782
867.743 .0243656
868.417 .0243540
869.091 .0243432
869.765 .0243331
870.438 .0243234
871.111 .0243143
871.783 .0243051
872.456 .0242952
873.127 .0242850
873.799 .0242744
874.470 .0242635
875.141 .0242521
875.811 .0242399
876.481 .0242276
877.151 .0242157
877.820 .0242039
878.489 .0241923
879.158 .0241811
879.826 .0241705
880.494 .0241598
881.162 .0241491
881.829 .0241383
882.496 .0241266
883.163 .0241145
883.829 .0241020
884.495 .0240893
885.160 .0240776
885.825 .0240670
886.490 .0240587
887.154 .0240521
887.818 .0240471
888.482 .0240425
889.145 .0240383
889.808 .0240338
890.471 .0240287
891.133 .0240227
891.795 .0240165
892.456 .0240103
893.117 .0240042
893.778 .0239977
894.439 .0239916
895.099 .0239854
895.758 .0239792
896.417 .0239725
897.076 .0239659
897.735 .0239586
898.393 .0239514
899.051 .0239441
899.708 .0239364
900.365 .0239282
901.022 .0239195
901.678 .0239102
902.334 .0239007
902.990 .0238912
903.645 .0238819
904.300 .0238734
904.954 .0238659
905.608 .0238587
906.262 .0238519
906.915 .0238452
907.568 .0238377
908.221 .0238286
908.873 .0238182
909.525 .0238062
910.176 .0237932
910.828 .0237796
911.478 .0237656
912.129 .0237513
912.778 .0237364
913.428 .0237211
914.077 .0237050
914.726 .0236888
915.375 .0236719
916.023 .0236554
916.670 .0236400
917.318 .0236263
917.964 .0236150
918.611 .0236061
919.257 .0235987
919.903 .0235924
920.548 .0235867
921.193 .0235813
921.838 .0235759
922.482 .0235712
923.126 .0235673
923.770 .0235648
924.413 .0235627
925.056 .0235613
925.698 .0235592
926.340 .0235571
926.982 .0235536
927.623 .0235483
928.264 .0235409
928.904 .0235312
929.544 .0235199
930.184 .0235083
930.823 .0234962
931.462 .0234841
932.101 .0234717
932.739 .0234596
933.377 .0234469
934.014 .0234335
934.651 .0234196
935.288 .0234062
935.924 .0233926
936.560 .0233792
937.196 .0233653
937.831 .0233521
938.466 .0233390
939.100 .0233260
939.734 .0233126
940.368 .0232983
941.001 .0232827
941.634 .0232666
942.266 .0232501
942.899 .0232333
943.530 .0232168
944.162 .0232001
944.793 .0231830
945.423 .0231652
946.053 .0231466
946.683 .0231277
947.313 .0231091
947.942 .0230906
948.571 .0230719
949.199 .0230533
949.827 .0230343
950.455 .0230146
951.082 .0229954
951.709 .0229762
952.335 .0229568
952.961 .0229377
953.587 .0229194
954.212 .0229015
954.837 .0228844
955.462 .0228677
956.086 .0228515
956.710 .0228356
957.334 .0228191
957.957 .0228017
958.579 .0227842
959.202 .0227666
959.824 .0227493
960.445 .0227322
961.067 .0227166
961.688 .0227017
962.308 .0226884
962.928 .0226764
963.548 .0226656
964.168 .0226557
964.787 .0226465
965.406 .0226381
966.024 .0226310
966.642 .0226246
967.260 .0226196
967.877 .0226156
968.494 .0226133
969.110 .0226118
969.727 .0226111
970.342 .0226108
970.958 .0226112
971.573 .0226116
972.188 .0226122
972.802 .0226125
973.416 .0226132
974.030 .0226135
974.643 .0226134
975.256 .0226128
975.869 .0226120
976.481 .0226104
977.093 .0226094
977.705 .0226082
978.316 .0226076
978.927 .0226072
979.538 .0226075
980.148 .0226082
980.758 .0226098
981.367 .0226117
981.977 .0226141
982.586 .0226163
983.194 .0226178
983.802 .0226178
984.410 .0226162
985.018 .0226133
985.625 .0226091
986.232 .0226034
986.838 .0225973
987.445 .0225905
988.050 .0225839
988.656 .0225768
989.261 .0225687
989.866 .0225595
990.471 .0225487
991.075 .0225361
991.679 .0225216
992.282 .0225055
992.886 .0224894
993.489 .0224745
994.091 .0224618
994.694 .0224515
995.296 .0224432
995.897 .0224375
996.499 .0224328
997.100 .0224279
997.701 .0224229
998.301 .0224175
998.901 .0224130
999.501 .0224099
1000.101 .0224084
1000.700 .0224090
1001.299 .0224119
1001.898 .0224168
1002.496 .0224224
1003.094 .0224272
1003.692 .0224310
1004.289 .0224331
1004.887 .0224349
1005.484 .0224365
1006.080 .0224389
1006.677 .0224432
1007.273 .0224499
1007.868 .0224584
1008.464 .0224677
1009.059 .0224775
1009.654 .0224872
1010.249 .0224968
1010.843 .0225056
1011.437 .0225139
1012.031 .0225222
1012.625 .0225315
1013.218 .0225426
1013.811 .0225556
1014.404 .0225700
1014.997 .0225850
1015.589 .0225995
1016.181 .0226127
1016.773 .0226233
1017.365 .0226320
1017.956 .0226381
1018.547 .0226427
1019.138 .0226458
1019.728 .0226485
1020.319 .0226510
1020.909 .0226540
1021.499 .0226570
1022.088 .0226597
1022.678 .0226607
1023.267 .0226600
1023.856 .0226571
1024.445 .0226524
1025.033 .0226457
1025.621 .0226386
1026.209 .0226310
1026.797 .0226236
1027.385 .0226165
1027.972 .0226106
1028.560 .0226055
1029.147 .0226013
1029.734 .0225972
1030.320 .0225928
1030.907 .0225887
1031.493 .0225847
1032.079 .0225818
1032.665 .0225816
1033.250 .0225840
1033.836 .0225886
1034.421 .0225948
1035.006 .0226026
1035.591 .0226104
1036.176 .0226179
1036.761 .0226248
1037.345 .0226303
1037.929 .0226345
1038.514 .0226382
1039.097 .0226419
1039.681 .0226469
1040.265 .0226527
1040.848 .0226595
1041.432 .0226666
1042.015 .0226720
1042.598 .0226753
1043.181 .0226757
1043.764 .0226751
1044.346 .0226745
1044.929 .0226741
1045.511 .0226756
1046.094 .0226797
1046.676 .0226869
1047.258 .0226965
1047.840 .0227074
1048.422 .0227178
1049.003 .0227247
1049.585 .0227291
1050.166 .0227306
1050.748 .0227310
1051.329 .0227321
1051.910 .0227355
1052.491 .0227415
1053.072 .0227502
1053.653 .0227587
1054.234 .0227652
1054.815 .0227677
1055.396 .0227659
1055.976 .0227567
1056.557 .0227417
1057.138 .0227241
1057.718 .0227057
1058.298 .0226890
1058.879 .0226774
1059.459 .0226671
1060.039 .0226588
1060.620 .0226500
1061.200 .0226386
1061.780 .0226228
1062.360 .0226049
1062.940 .0225850
1063.520 .0225655
1064.101 .0225496
1064.681 .0225388
1065.261 .0225304
1065.841 .0225277
1066.421 .0225287
1067.001 .0225298
1067.581 .0225297
1068.161 .0225270
1068.741 .0225220
1069.321 .0225176
1069.901 .0225135
1070.482 .0225111
1071.062 .0225096
1071.642 .0225101
1072.222 .0225098
1072.803 .0225058
1073.383 .0224981
1073.963 .0224846
1074.544 .0224671
1075.124 .0224473
1075.705 .0224278
1076.286 .0224102
1076.866 .0223965
1077.447 .0223883
1078.028 .0223853
1078.609 .0223838
1079.190 .0223836
1079.771 .0223838
1080.352 .0223816
1080.934 .0223767
1081.515 .0223715
1082.097 .0223665
1082.679 .0223651
1083.260 .0223666
1083.842 .0223734
1084.424 .0223822
1085.007 .0223938
1085.589 .0224041
1086.172 .0224107
1086.754 .0224134
1087.337 .0224089
1087.920 .0223965
1088.503 .0223791
1089.087 .0223570
1089.670 .0223314
1090.254 .0223053
1090.838 .0222825
1091.422 .0222626
1092.006 .0222446
1092.590 .0222313
1093.175 .0222217
1093.760 .0222131
1094.345 .0222068
1094.930 .0221995
1095.516 .0221925
1096.102 .0221861
1096.688 .0221785
1097.274 .0221739
1097.860 .0221704
1098.447 .0221706
1099.034 .0221728
1099.622 .0221767
1100.209 .0221822
1100.797 .0221879
1101.385 .0221938
1101.973 .0222001
1102.562 .0222040
1103.151 .0222063
1103.740 .0222076
1104.330 .0222103
1104.920 .0222131
1105.510 .0222155
1106.101 .0222205
1106.691 .0222267
1107.283 .0222317
1107.874 .0222388
1108.466 .0222439
1109.058 .0222465
1109.651 .0222494
1110.244 .0222490
1110.837 .0222451
1111.431 .0222375
1112.025 .0222269
1112.620 .0222145
1113.215 .0222007
1113.810 .0221851
1114.406 .0221659
1115.002 .0221476
1115.599 .0221317
1116.196 .0221120
1116.793 .0220934
1117.391 .0220784
1117.989 .0220624
1118.588 .0220468
1119.187 .0220336
1119.787 .0220210
1120.387 .0220138
1120.988 .0220121
1121.589 .0220148
1122.190 .0220222
1122.793 .0220355
1123.395 .0220510
1123.998 .0220725
1124.602 .0220993
1125.206 .0221316
1125.811 .0221663
1126.416 .0222080
1127.022 .0222519
1127.628 .0222942
1128.235 .0223405
1128.843 .0223870
1129.451 .0224340
1130.059 .0224813
1130.669 .0225222
1131.278 .0225613
1131.889 .0225946
1132.500 .0226237
1133.112 .0226449
1133.724 .0226625
1134.337 .0226765
1134.950 .0226869
1135.564 .0226998
1136.179 .0227162
1136.795 .0227365
1137.411 .0227612
1138.028 .0227904
1138.645 .0228220
1139.263 .0228525
1139.882 .0228881
1140.502 .0229215
1141.122 .0229591
1141.743 .0229913
1142.365 .0229950
1142.987 .0231131
1143.611 .0230963
1144.235 .0231570
1144.859 .0230703
1145.485 .0223753
