Measurement Sequence started on: 10-20-44-796
Integration time: 35
Scans to Average: 2 
>>>>>Begin Spectral Data<<<<<
432.953 .0379246
433.882 .0364444
434.810 .0392343
435.737 .0392825
436.662 .0383312
437.586 .0385054
438.509 .0383752
439.431 .0381942
440.351 .0378619
441.269 .0375284
442.187 .0372524
443.103 .0370210
444.018 .0368300
444.932 .0367088
445.844 .0366529
446.756 .0366172
447.666 .0365707
448.575 .0364985
449.482 .0364108
450.388 .0363520
451.294 .0362986
452.198 .0362652
453.100 .0362635
454.002 .0363014
454.902 .0363556
455.801 .0364081
456.699 .0364469
457.596 .0364707
458.492 .0364663
459.387 .0364402
460.280 .0364003
461.172 .0363556
462.064 .0363147
462.954 .0362832
463.843 .0362597
464.730 .0362492
465.617 .0362394
466.503 .0362366
467.387 .0362351
468.271 .0362299
469.153 .0362222
470.035 .0362080
470.915 .0362009
471.794 .0361979
472.673 .0361972
473.550 .0361997
474.426 .0362060
475.301 .0362124
476.175 .0362186
477.048 .0362145
477.920 .0362034
478.791 .0361818
479.661 .0361553
480.530 .0361194
481.398 .0360778
482.266 .0360369
483.132 .0360006
483.997 .0359647
484.861 .0359372
485.724 .0359143
486.587 .0358937
487.448 .0358716
488.308 .0358511
489.168 .0358302
490.026 .0358069
490.884 .0357769
491.741 .0357459
492.597 .0357114
493.452 .0356758
494.306 .0356332
495.159 .0355910
496.011 .0355544
496.862 .0355176
497.713 .0354772
498.562 .0354365
499.411 .0353911
500.259 .0353360
501.106 .0352740
501.952 .0352061
502.798 .0351340
503.642 .0350555
504.486 .0349825
505.329 .0349218
506.171 .0348709
507.012 .0348334
507.852 .0348028
508.692 .0347790
509.531 .0347502
510.369 .0347031
511.206 .0346408
512.043 .0345649
512.878 .0344779
513.713 .0343789
514.547 .0342804
515.381 .0341876
516.213 .0341016
517.045 .0340127
517.876 .0339199
518.706 .0338118
519.536 .0336814
520.365 .0335252
521.193 .0333402
522.020 .0331386
522.847 .0329279
523.673 .0327142
524.498 .0325047
525.323 .0323039
526.146 .0321159
526.969 .0319277
527.792 .0317471
528.614 .0315653
529.435 .0313824
530.255 .0312002
531.075 .0310225
531.894 .0308603
532.712 .0307123
533.530 .0305826
534.347 .0304799
535.163 .0303928
535.979 .0303236
536.794 .0302612
537.608 .0302113
538.422 .0301766
539.235 .0301490
540.048 .0301243
540.860 .0301092
541.671 .0301088
542.481 .0301139
543.292 .0301108
544.101 .0301123
544.910 .0301161
545.718 .0301133
546.526 .0301075
547.333 .0301001
548.139 .0300955
548.945 .0300984
549.750 .0301042
550.555 .0301173
551.359 .0301414
552.162 .0301708
552.965 .0302135
553.768 .0302661
554.569 .0303323
555.371 .0303978
556.171 .0304674
556.972 .0305406
557.771 .0306047
558.570 .0306528
559.369 .0306936
560.167 .0307254
560.964 .0307536
561.761 .0307757
562.558 .0307976
563.354 .0308261
564.149 .0308605
564.944 .0308933
565.738 .0309261
566.532 .0309514
567.325 .0309713
568.118 .0309796
568.910 .0309819
569.702 .0309813
570.494 .0309806
571.285 .0309856
572.075 .0310028
572.865 .0310312
573.654 .0310669
574.443 .0311075
575.232 .0311533
576.020 .0312005
576.807 .0312475
577.594 .0312926
578.381 .0313363
579.167 .0313807
579.952 .0314258
580.738 .0314705
581.522 .0315167
582.307 .0315655
583.091 .0316152
583.874 .0316661
584.657 .0317160
585.440 .0317648
586.222 .0318138
587.004 .0318635
587.785 .0319125
588.566 .0319580
589.346 .0319999
590.126 .0320366
590.906 .0320664
591.685 .0320912
592.464 .0321101
593.242 .0321236
594.020 .0321324
594.797 .0321398
595.575 .0321457
596.351 .0321507
597.128 .0321544
597.904 .0321561
598.679 .0321552
599.454 .0321494
600.229 .0321387
601.004 .0321246
601.778 .0321093
602.551 .0320929
603.325 .0320771
604.097 .0320632
604.870 .0320502
605.642 .0320379
606.414 .0320260
607.185 .0320143
607.956 .0320003
608.727 .0319851
609.497 .0319680
610.267 .0319498
611.037 .0319322
611.806 .0319153
612.575 .0319005
613.344 .0318874
614.112 .0318754
614.880 .0318640
615.647 .0318527
616.414 .0318401
617.181 .0318253
617.948 .0318102
618.714 .0317933
619.480 .0317751
620.245 .0317555
621.011 .0317359
621.775 .0317151
622.540 .0316940
623.304 .0316714
624.068 .0316471
624.832 .0316216
625.595 .0315944
626.358 .0315657
627.120 .0315363
627.883 .0315055
628.645 .0314743
629.406 .0314423
630.168 .0314114
630.929 .0313798
631.689 .0313493
632.450 .0313196
633.210 .0312909
633.970 .0312622
634.729 .0312343
635.489 .0312058
636.248 .0311783
637.006 .0311509
637.765 .0311237
638.523 .0310960
639.280 .0310694
640.038 .0310440
640.795 .0310204
641.552 .0309983
642.309 .0309786
643.065 .0309607
643.821 .0309451
644.577 .0309295
645.332 .0309142
646.088 .0308992
646.843 .0308830
647.597 .0308651
648.352 .0308463
649.106 .0308268
649.860 .0308062
650.613 .0307853
651.367 .0307650
652.120 .0307443
652.872 .0307224
653.625 .0306998
654.377 .0306751
655.129 .0306488
655.881 .0306196
656.632 .0305890
657.384 .0305579
658.135 .0305278
658.885 .0304978
659.636 .0304706
660.386 .0304469
661.136 .0304267
661.885 .0304081
662.635 .0303924
663.384 .0303780
664.133 .0303640
664.881 .0303494
665.630 .0303349
666.378 .0303201
667.126 .0303062
667.874 .0302920
668.621 .0302786
669.368 .0302648
670.115 .0302518
670.862 .0302383
671.608 .0302258
672.354 .0302132
673.100 .0301995
673.846 .0301853
674.591 .0301713
675.337 .0301572
676.082 .0301426
676.826 .0301284
677.571 .0301153
678.315 .0301023
679.059 .0300891
679.803 .0300761
680.547 .0300633
681.290 .0300506
682.033 .0300372
682.776 .0300234
683.518 .0300094
684.261 .0299944
685.003 .0299793
685.745 .0299643
686.487 .0299495
687.228 .0299353
687.969 .0299203
688.710 .0299054
689.451 .0298894
690.192 .0298723
690.932 .0298540
691.672 .0298350
692.412 .0298156
693.152 .0297958
693.891 .0297767
694.630 .0297587
695.369 .0297413
696.108 .0297246
696.846 .0297085
697.585 .0296920
698.323 .0296757
699.061 .0296587
699.798 .0296414
700.536 .0296249
701.273 .0296086
702.010 .0295931
702.746 .0295784
703.483 .0295640
704.219 .0295492
704.955 .0295328
705.691 .0295154
706.427 .0294954
707.162 .0294732
707.897 .0294495
708.632 .0294243
709.367 .0293984
710.101 .0293722
710.835 .0293461
711.569 .0293206
712.303 .0292952
713.037 .0292694
713.770 .0292429
714.503 .0292161
715.236 .0291893
715.969 .0291627
716.702 .0291369
717.434 .0291134
718.166 .0290922
718.898 .0290736
719.629 .0290575
720.361 .0290432
721.092 .0290302
721.823 .0290171
722.554 .0290032
723.284 .0289874
724.014 .0289694
724.744 .0289495
725.474 .0289274
726.204 .0289042
726.933 .0288807
727.662 .0288564
728.391 .0288325
729.120 .0288089
729.849 .0287853
730.577 .0287615
731.305 .0287371
732.033 .0287126
732.760 .0286870
733.488 .0286613
734.215 .0286354
734.942 .0286094
735.669 .0285840
736.395 .0285589
737.122 .0285341
737.848 .0285103
738.573 .0284872
739.299 .0284646
740.024 .0284429
740.750 .0284222
741.474 .0284022
742.199 .0283827
742.924 .0283636
743.648 .0283446
744.372 .0283249
745.096 .0283057
745.819 .0282861
746.543 .0282675
747.266 .0282506
747.989 .0282341
748.711 .0282193
749.434 .0282056
750.156 .0281929
750.878 .0281807
751.599 .0281688
752.321 .0281575
753.042 .0281454
753.763 .0281336
754.484 .0281223
755.205 .0281114
755.925 .0281023
756.645 .0280940
757.365 .0280861
758.085 .0280783
758.804 .0280692
759.523 .0280586
760.242 .0280464
760.961 .0280324
761.679 .0280165
762.397 .0279994
763.115 .0279813
763.833 .0279624
764.551 .0279430
765.268 .0279238
765.985 .0279039
766.702 .0278835
767.418 .0278623
768.134 .0278401
768.850 .0278190
769.566 .0277991
770.282 .0277811
770.997 .0277659
771.712 .0277531
772.427 .0277435
773.142 .0277361
773.856 .0277309
774.570 .0277268
775.284 .0277228
775.998 .0277187
776.711 .0277131
777.424 .0277064
778.137 .0276990
778.849 .0276906
779.562 .0276815
780.274 .0276717
780.986 .0276608
781.697 .0276491
782.409 .0276371
783.120 .0276245
783.831 .0276114
784.541 .0275982
785.252 .0275853
785.962 .0275730
786.671 .0275618
787.381 .0275524
788.090 .0275445
788.799 .0275388
789.508 .0275344
790.217 .0275310
790.925 .0275289
791.633 .0275283
792.341 .0275280
793.048 .0275283
793.755 .0275285
794.462 .0275278
795.169 .0275262
795.875 .0275241
796.581 .0275206
797.287 .0275167
797.993 .0275116
798.698 .0275063
799.403 .0275003
800.108 .0274943
800.812 .0274879
801.517 .0274817
802.221 .0274755
802.924 .0274685
803.628 .0274609
804.331 .0274539
805.034 .0274467
805.736 .0274403
806.439 .0274351
807.141 .0274312
807.843 .0274283
808.544 .0274265
809.245 .0274249
809.946 .0274233
810.647 .0274213
811.347 .0274185
812.047 .0274146
812.747 .0274104
813.447 .0274049
814.146 .0273986
814.845 .0273922
815.543 .0273856
816.242 .0273781
816.940 .0273701
817.638 .0273613
818.335 .0273511
819.032 .0273398
819.729 .0273271
820.426 .0273131
821.122 .0272980
821.818 .0272817
822.514 .0272646
823.209 .0272475
823.905 .0272310
824.599 .0272146
825.294 .0271994
825.988 .0271852
826.682 .0271716
827.376 .0271584
828.069 .0271455
828.762 .0271324
829.455 .0271179
830.147 .0271021
830.840 .0270849
831.531 .0270673
832.223 .0270499
832.914 .0270323
833.605 .0270156
834.296 .0270001
834.986 .0269856
835.676 .0269715
836.366 .0269577
837.055 .0269440
837.744 .0269290
838.433 .0269123
839.121 .0268941
839.809 .0268748
840.497 .0268553
841.185 .0268362
841.872 .0268181
842.559 .0268014
843.245 .0267864
843.932 .0267725
844.617 .0267601
845.303 .0267487
845.988 .0267370
846.673 .0267250
847.358 .0267124
848.042 .0266997
848.726 .0266866
849.410 .0266744
850.093 .0266631
850.776 .0266526
851.459 .0266425
852.141 .0266318
852.823 .0266204
853.505 .0266083
854.186 .0265942
854.867 .0265778
855.548 .0265595
856.228 .0265392
856.908 .0265172
857.588 .0264945
858.267 .0264708
858.946 .0264469
859.625 .0264227
860.303 .0263988
860.981 .0263746
861.659 .0263508
862.336 .0263273
863.013 .0263041
863.690 .0262816
864.366 .0262599
865.042 .0262388
865.718 .0262194
866.393 .0262023
867.068 .0261867
867.743 .0261732
868.417 .0261613
869.091 .0261501
869.765 .0261388
870.438 .0261272
871.111 .0261148
871.783 .0261003
872.456 .0260856
873.127 .0260697
873.799 .0260530
874.470 .0260366
875.141 .0260200
875.811 .0260042
876.481 .0259889
877.151 .0259735
877.820 .0259570
878.489 .0259397
879.158 .0259215
879.826 .0259013
880.494 .0258809
881.162 .0258611
881.829 .0258421
882.496 .0258244
883.163 .0258090
883.829 .0257952
884.495 .0257831
885.160 .0257728
885.825 .0257627
886.490 .0257534
887.154 .0257435
887.818 .0257325
888.482 .0257207
889.145 .0257089
889.808 .0256973
890.471 .0256855
891.133 .0256750
891.795 .0256659
892.456 .0256572
893.117 .0256498
893.778 .0256427
894.439 .0256357
895.099 .0256284
895.758 .0256203
896.417 .0256108
897.076 .0256008
897.735 .0255907
898.393 .0255809
899.051 .0255719
899.708 .0255643
900.365 .0255576
901.022 .0255523
901.678 .0255482
902.334 .0255451
902.990 .0255425
903.645 .0255403
904.300 .0255380
904.954 .0255352
905.608 .0255318
906.262 .0255277
906.915 .0255229
907.568 .0255172
908.221 .0255111
908.873 .0255036
909.525 .0254947
910.176 .0254846
910.828 .0254741
911.478 .0254628
912.129 .0254505
912.778 .0254382
913.428 .0254259
914.077 .0254137
914.726 .0254014
915.375 .0253886
916.023 .0253766
916.670 .0253649
917.318 .0253537
917.964 .0253433
918.611 .0253354
919.257 .0253298
919.903 .0253264
920.548 .0253257
921.193 .0253273
921.838 .0253306
922.482 .0253346
923.126 .0253392
923.770 .0253435
924.413 .0253472
925.056 .0253494
925.698 .0253511
926.340 .0253524
926.982 .0253529
927.623 .0253529
928.264 .0253522
928.904 .0253509
929.544 .0253485
930.184 .0253447
930.823 .0253399
931.462 .0253340
932.101 .0253274
932.739 .0253195
933.377 .0253110
934.014 .0253015
934.651 .0252911
935.288 .0252801
935.924 .0252686
936.560 .0252569
937.196 .0252450
937.831 .0252331
938.466 .0252216
939.100 .0252104
939.734 .0251995
940.368 .0251884
941.001 .0251769
941.634 .0251655
942.266 .0251537
942.899 .0251422
943.530 .0251308
944.162 .0251197
944.793 .0251096
945.423 .0250999
946.053 .0250903
946.683 .0250809
947.313 .0250719
947.942 .0250628
948.571 .0250533
949.199 .0250436
949.827 .0250333
950.455 .0250222
951.082 .0250112
951.709 .0250001
952.335 .0249891
952.961 .0249788
953.587 .0249685
954.212 .0249585
954.837 .0249487
955.462 .0249394
956.086 .0249299
956.710 .0249206
957.334 .0249115
957.957 .0249020
958.579 .0248925
959.202 .0248834
959.824 .0248749
960.445 .0248674
961.067 .0248611
961.688 .0248552
962.308 .0248501
962.928 .0248460
963.548 .0248414
964.168 .0248364
964.787 .0248309
965.406 .0248248
966.024 .0248180
966.642 .0248110
967.260 .0248043
967.877 .0247986
968.494 .0247933
969.110 .0247883
969.727 .0247834
970.342 .0247785
970.958 .0247723
971.573 .0247653
972.188 .0247576
972.802 .0247497
973.416 .0247421
974.030 .0247360
974.643 .0247312
975.256 .0247291
975.869 .0247295
976.481 .0247318
977.093 .0247362
977.705 .0247416
978.316 .0247466
978.927 .0247508
979.538 .0247534
980.148 .0247544
980.758 .0247540
981.367 .0247533
981.977 .0247533
982.586 .0247541
983.194 .0247560
983.802 .0247581
984.410 .0247607
985.018 .0247634
985.625 .0247650
986.232 .0247657
986.838 .0247655
987.445 .0247650
988.050 .0247639
988.656 .0247628
989.261 .0247623
989.866 .0247617
990.471 .0247612
991.075 .0247592
991.679 .0247559
992.282 .0247513
992.886 .0247457
993.489 .0247389
994.091 .0247317
994.694 .0247244
995.296 .0247160
995.897 .0247069
996.499 .0246968
997.100 .0246848
997.701 .0246718
998.301 .0246573
998.901 .0246428
999.501 .0246288
1000.101 .0246179
1000.700 .0246100
1001.299 .0246060
1001.898 .0246057
1002.496 .0246080
1003.094 .0246116
1003.692 .0246166
1004.289 .0246206
1004.887 .0246240
1005.484 .0246265
1006.080 .0246282
1006.677 .0246290
1007.273 .0246296
1007.868 .0246301
1008.464 .0246307
1009.059 .0246310
1009.654 .0246314
1010.249 .0246309
1010.843 .0246301
1011.437 .0246295
1012.031 .0246283
1012.625 .0246266
1013.218 .0246242
1013.811 .0246209
1014.404 .0246172
1014.997 .0246124
1015.589 .0246068
1016.181 .0246000
1016.773 .0245930
1017.365 .0245865
1017.956 .0245794
1018.547 .0245730
1019.138 .0245675
1019.728 .0245613
1020.319 .0245551
1020.909 .0245483
1021.499 .0245395
1022.088 .0245293
1022.678 .0245173
1023.267 .0245031
1023.856 .0244870
1024.445 .0244697
1025.033 .0244525
1025.621 .0244352
1026.209 .0244186
1026.797 .0244015
1027.385 .0243837
1027.972 .0243665
1028.560 .0243491
1029.147 .0243310
1029.734 .0243138
1030.320 .0242973
1030.907 .0242816
1031.493 .0242678
1032.079 .0242564
1032.665 .0242485
1033.250 .0242444
1033.836 .0242443
1034.421 .0242483
1035.006 .0242542
1035.591 .0242636
1036.176 .0242740
1036.761 .0242860
1037.345 .0242990
1037.929 .0243106
1038.514 .0243215
1039.097 .0243315
1039.681 .0243413
1040.265 .0243499
1040.848 .0243574
1041.432 .0243630
1042.015 .0243657
1042.598 .0243639
1043.181 .0243584
1043.764 .0243480
1044.346 .0243344
1044.929 .0243192
1045.511 .0243029
1046.094 .0242880
1046.676 .0242753
1047.258 .0242650
1047.840 .0242579
1048.422 .0242523
1049.003 .0242482
1049.585 .0242436
1050.166 .0242397
1050.748 .0242353
1051.329 .0242316
1051.910 .0242297
1052.491 .0242300
1053.072 .0242322
1053.653 .0242345
1054.234 .0242361
1054.815 .0242341
1055.396 .0242279
1055.976 .0242157
1056.557 .0241997
1057.138 .0241808
1057.718 .0241605
1058.298 .0241408
1058.879 .0241230
1059.459 .0241070
1060.039 .0240934
1060.620 .0240802
1061.200 .0240673
1061.780 .0240529
1062.360 .0240389
1062.940 .0240247
1063.520 .0240129
1064.101 .0240024
1064.681 .0239948
1065.261 .0239905
1065.841 .0239887
1066.421 .0239870
1067.001 .0239845
1067.581 .0239802
1068.161 .0239737
1068.741 .0239627
1069.321 .0239480
1069.901 .0239297
1070.482 .0239087
1071.062 .0238845
1071.642 .0238568
1072.222 .0238268
1072.803 .0237943
1073.383 .0237621
1073.963 .0237317
1074.544 .0237028
1075.124 .0236767
1075.705 .0236540
1076.286 .0236344
1076.866 .0236178
1077.447 .0236019
1078.028 .0235871
1078.609 .0235742
1079.190 .0235627
1079.771 .0235519
1080.352 .0235442
1080.934 .0235421
1081.515 .0235453
1082.097 .0235517
1082.679 .0235640
1083.260 .0235777
1083.842 .0235895
1084.424 .0235982
1085.007 .0236012
1085.589 .0235997
1086.172 .0235929
1086.754 .0235816
1087.337 .0235695
1087.920 .0235579
1088.503 .0235479
1089.087 .0235385
1089.670 .0235322
1090.254 .0235280
1090.838 .0235220
1091.422 .0235159
1092.006 .0235079
1092.590 .0234991
1093.175 .0234907
1093.760 .0234835
1094.345 .0234807
1094.930 .0234811
1095.516 .0234823
1096.102 .0234829
1096.688 .0234825
1097.274 .0234777
1097.860 .0234640
1098.447 .0234455
1099.034 .0234214
1099.622 .0233914
1100.209 .0233584
1100.797 .0233257
1101.385 .0232953
1101.973 .0232707
1102.562 .0232485
1103.151 .0232278
1103.740 .0232092
1104.330 .0231928
1104.920 .0231734
1105.510 .0231549
1106.101 .0231394
1106.691 .0231243
1107.283 .0231103
1107.874 .0231026
1108.466 .0230964
1109.058 .0230984
1109.651 .0231059
1110.244 .0231180
1110.837 .0231327
1111.431 .0231489
1112.025 .0231623
1112.620 .0231715
1113.215 .0231810
1113.810 .0231873
1114.406 .0231897
1115.002 .0231933
1115.599 .0231953
1116.196 .0231994
1116.793 .0232054
1117.391 .0232160
1117.989 .0232293
1118.588 .0232490
1119.187 .0232717
1119.787 .0232949
1120.387 .0233215
1120.988 .0233461
1121.589 .0233672
1122.190 .0233844
1122.793 .0233984
1123.395 .0234085
1123.998 .0234226
1124.602 .0234410
1125.206 .0234673
1125.811 .0235002
1126.416 .0235369
1127.022 .0235787
1127.628 .0236198
1128.235 .0236532
1128.843 .0236770
1129.451 .0236898
1130.059 .0236967
1130.669 .0236907
1131.278 .0236848
1131.889 .0236800
1132.500 .0236859
1133.112 .0237015
1133.724 .0237251
1134.337 .0237591
1134.950 .0238021
1135.564 .0238505
1136.179 .0239013
1136.795 .0239552
1137.411 .0240128
1138.028 .0240742
1138.645 .0241473
1139.263 .0242319
1139.882 .0243328
1140.502 .0244424
1141.122 .0245656
1141.743 .0246881
1142.365 .0248370
1142.987 .0250533
1143.611 .0250394
1144.235 .0252519
1144.859 .0251661
1145.485 .0260428
