Measurement Sequence started on: 10-20-44-796
Integration time: 35
Scans to Average: 2 
>>>>>Begin Spectral Data<<<<<
432.953 .0428198
433.882 .0401982
434.810 .0353212
435.737 .0353121
436.662 .0347059
437.586 .0353839
438.509 .0348407
439.431 .0344969
440.351 .0343347
441.269 .0341983
442.187 .0340822
443.103 .0339678
444.018 .0338851
444.932 .0338111
445.844 .0337327
446.756 .0336562
447.666 .0335766
448.575 .0334958
449.482 .0334244
450.388 .0333674
451.294 .0333186
452.198 .0332942
453.100 .0332732
454.002 .0332500
454.902 .0332298
455.801 .0332019
456.699 .0331658
457.596 .0331337
458.492 .0330959
459.387 .0330546
460.280 .0330148
461.172 .0329768
462.064 .0329422
462.954 .0329075
463.843 .0328719
464.730 .0328347
465.617 .0327936
466.503 .0327501
467.387 .0326980
468.271 .0326478
469.153 .0325996
470.035 .0325516
470.915 .0325116
471.794 .0324771
472.673 .0324503
473.550 .0324315
474.426 .0324238
475.301 .0324223
476.175 .0324223
477.048 .0324254
477.920 .0324262
478.791 .0324250
479.661 .0324249
480.530 .0324218
481.398 .0324174
482.266 .0324141
483.132 .0324110
483.997 .0324037
484.861 .0323983
485.724 .0323954
486.587 .0323918
487.448 .0323874
488.308 .0323802
489.168 .0323663
490.026 .0323500
490.884 .0323320
491.741 .0323077
492.597 .0322817
493.452 .0322543
494.306 .0322243
495.159 .0321948
496.011 .0321646
496.862 .0321342
497.713 .0320979
498.562 .0320562
499.411 .0320044
500.259 .0319403
501.106 .0318696
501.952 .0317908
502.798 .0317090
503.642 .0316253
504.486 .0315397
505.329 .0314533
506.171 .0313668
507.012 .0312818
507.852 .0311959
508.692 .0311071
509.531 .0310137
510.369 .0309172
511.206 .0308180
512.043 .0307198
512.878 .0306231
513.713 .0305263
514.547 .0304309
515.381 .0303310
516.213 .0302248
517.045 .0301103
517.876 .0299859
518.706 .0298518
519.536 .0297106
520.365 .0295589
521.193 .0294003
522.020 .0292340
522.847 .0290638
523.673 .0288886
524.498 .0287096
525.323 .0285254
526.146 .0283352
526.969 .0281447
527.792 .0279559
528.614 .0277669
529.435 .0275860
530.255 .0274139
531.075 .0272510
531.894 .0271026
532.712 .0269668
533.530 .0268384
534.347 .0267240
535.163 .0266196
535.979 .0265246
536.794 .0264392
537.608 .0263647
538.422 .0263066
539.235 .0262639
540.048 .0262406
540.860 .0262263
541.671 .0262232
542.481 .0262305
543.292 .0262373
544.101 .0262502
544.910 .0262659
545.718 .0262842
546.526 .0263121
547.333 .0263474
548.139 .0263910
548.945 .0264386
549.750 .0264887
550.555 .0265346
551.359 .0265787
552.162 .0266164
552.965 .0266459
553.768 .0266754
554.569 .0267091
555.371 .0267463
556.171 .0267882
556.972 .0268394
557.771 .0268993
558.570 .0269660
559.369 .0270371
560.167 .0271058
560.964 .0271755
561.761 .0272440
562.558 .0273086
563.354 .0273718
564.149 .0274350
564.944 .0274990
565.738 .0275625
566.532 .0276288
567.325 .0276954
568.118 .0277627
568.910 .0278305
569.702 .0278984
570.494 .0279674
571.285 .0280374
572.075 .0281093
572.865 .0281815
573.654 .0282554
574.443 .0283296
575.232 .0284028
576.020 .0284749
576.807 .0285480
577.594 .0286235
578.381 .0287016
579.167 .0287818
579.952 .0288652
580.738 .0289514
581.522 .0290404
582.307 .0291296
583.091 .0292176
583.874 .0293032
584.657 .0293847
585.440 .0294594
586.222 .0295272
587.004 .0295874
587.785 .0296395
588.566 .0296828
589.346 .0297170
590.126 .0297437
590.906 .0297625
591.685 .0297755
592.464 .0297835
593.242 .0297882
594.020 .0297905
594.797 .0297909
595.575 .0297903
596.351 .0297896
597.128 .0297879
597.904 .0297838
598.679 .0297790
599.454 .0297732
600.229 .0297664
601.004 .0297592
601.778 .0297529
602.551 .0297477
603.325 .0297431
604.097 .0297399
604.870 .0297369
605.642 .0297341
606.414 .0297310
607.185 .0297254
607.956 .0297190
608.727 .0297108
609.497 .0297003
610.267 .0296878
611.037 .0296745
611.806 .0296593
612.575 .0296427
613.344 .0296249
614.112 .0296061
614.880 .0295863
615.647 .0295667
616.414 .0295471
617.181 .0295287
617.948 .0295112
618.714 .0294943
619.480 .0294781
620.245 .0294630
621.011 .0294468
621.775 .0294301
622.540 .0294131
623.304 .0293958
624.068 .0293786
624.832 .0293628
625.595 .0293488
626.358 .0293376
627.120 .0293284
627.883 .0293199
628.645 .0293114
629.406 .0293027
630.168 .0292913
630.929 .0292771
631.689 .0292603
632.450 .0292407
633.210 .0292185
633.970 .0291952
634.729 .0291717
635.489 .0291481
636.248 .0291253
637.006 .0291034
637.765 .0290817
638.523 .0290607
639.280 .0290395
640.038 .0290181
640.795 .0289980
641.552 .0289792
642.309 .0289616
643.065 .0289457
643.821 .0289321
644.577 .0289205
645.332 .0289102
646.088 .0289019
646.843 .0288943
647.597 .0288866
648.352 .0288790
649.106 .0288707
649.860 .0288616
650.613 .0288519
651.367 .0288413
652.120 .0288295
652.872 .0288171
653.625 .0288037
654.377 .0287893
655.129 .0287741
655.881 .0287581
656.632 .0287404
657.384 .0287210
658.135 .0287006
658.885 .0286791
659.636 .0286576
660.386 .0286364
661.136 .0286156
661.885 .0285963
662.635 .0285783
663.384 .0285614
664.133 .0285450
664.881 .0285287
665.630 .0285125
666.378 .0284958
667.126 .0284781
667.874 .0284593
668.621 .0284405
669.368 .0284218
670.115 .0284034
670.862 .0283857
671.608 .0283690
672.354 .0283529
673.100 .0283374
673.846 .0283220
674.591 .0283063
675.337 .0282901
676.082 .0282734
676.826 .0282566
677.571 .0282410
678.315 .0282263
679.059 .0282132
679.803 .0282020
680.547 .0281925
681.290 .0281834
682.033 .0281746
682.776 .0281654
683.518 .0281554
684.261 .0281441
685.003 .0281317
685.745 .0281181
686.487 .0281045
687.228 .0280910
687.969 .0280781
688.710 .0280658
689.451 .0280538
690.192 .0280417
690.932 .0280293
691.672 .0280161
692.412 .0280019
693.152 .0279867
693.891 .0279716
694.630 .0279561
695.369 .0279410
696.108 .0279261
696.846 .0279115
697.585 .0278966
698.323 .0278812
699.061 .0278650
699.798 .0278476
700.536 .0278292
701.273 .0278103
702.010 .0277912
702.746 .0277719
703.483 .0277528
704.219 .0277339
704.955 .0277154
705.691 .0276972
706.427 .0276785
707.162 .0276600
707.897 .0276421
708.632 .0276247
709.367 .0276080
710.101 .0275921
710.835 .0275772
711.569 .0275622
712.303 .0275470
713.037 .0275312
713.770 .0275152
714.503 .0274987
715.236 .0274819
715.969 .0274651
716.702 .0274490
717.434 .0274338
718.166 .0274192
718.898 .0274055
719.629 .0273925
720.361 .0273794
721.092 .0273658
721.823 .0273514
722.554 .0273359
723.284 .0273200
724.014 .0273030
724.744 .0272852
725.474 .0272663
726.204 .0272464
726.933 .0272252
727.662 .0272031
728.391 .0271798
729.120 .0271553
729.849 .0271300
730.577 .0271051
731.305 .0270796
732.033 .0270545
732.760 .0270298
733.488 .0270060
734.215 .0269826
734.942 .0269602
735.669 .0269381
736.395 .0269177
737.122 .0268990
737.848 .0268818
738.573 .0268661
739.299 .0268520
740.024 .0268388
740.750 .0268260
741.474 .0268136
742.199 .0268007
742.924 .0267869
743.648 .0267732
744.372 .0267588
745.096 .0267446
745.819 .0267302
746.543 .0267163
747.266 .0267030
747.989 .0266909
748.711 .0266793
749.434 .0266681
750.156 .0266579
750.878 .0266480
751.599 .0266384
752.321 .0266293
753.042 .0266208
753.763 .0266134
754.484 .0266069
755.205 .0266016
755.925 .0265972
756.645 .0265933
757.365 .0265893
758.085 .0265850
758.804 .0265800
759.523 .0265733
760.242 .0265644
760.961 .0265539
761.679 .0265415
762.397 .0265274
763.115 .0265121
763.833 .0264956
764.551 .0264785
765.268 .0264606
765.985 .0264416
766.702 .0264220
767.418 .0264018
768.134 .0263809
768.850 .0263596
769.566 .0263377
770.282 .0263155
770.997 .0262935
771.712 .0262724
772.427 .0262524
773.142 .0262339
773.856 .0262168
774.570 .0262009
775.284 .0261863
775.998 .0261727
776.711 .0261595
777.424 .0261464
778.137 .0261334
778.849 .0261196
779.562 .0261052
780.274 .0260904
780.986 .0260755
781.697 .0260615
782.409 .0260490
783.120 .0260372
783.831 .0260269
784.541 .0260184
785.252 .0260108
785.962 .0260042
786.671 .0259978
787.381 .0259912
788.090 .0259842
788.799 .0259766
789.508 .0259684
790.217 .0259596
790.925 .0259511
791.633 .0259426
792.341 .0259341
793.048 .0259259
793.755 .0259176
794.462 .0259087
795.169 .0258996
795.875 .0258894
796.581 .0258781
797.287 .0258658
797.993 .0258529
798.698 .0258397
799.403 .0258264
800.108 .0258133
800.812 .0258005
801.517 .0257879
802.221 .0257758
802.924 .0257637
803.628 .0257519
804.331 .0257408
805.034 .0257303
805.736 .0257205
806.439 .0257120
807.141 .0257043
807.843 .0256977
808.544 .0256914
809.245 .0256849
809.946 .0256781
810.647 .0256708
811.347 .0256629
812.047 .0256548
812.747 .0256474
813.447 .0256405
814.146 .0256344
814.845 .0256295
815.543 .0256248
816.242 .0256206
816.940 .0256156
817.638 .0256092
818.335 .0256015
819.032 .0255925
819.729 .0255818
820.426 .0255701
821.122 .0255581
821.818 .0255452
822.514 .0255320
823.209 .0255187
823.905 .0255049
824.599 .0254909
825.294 .0254763
825.988 .0254610
826.682 .0254447
827.376 .0254280
828.069 .0254105
828.762 .0253929
829.455 .0253757
830.147 .0253588
830.840 .0253426
831.531 .0253277
832.223 .0253143
832.914 .0253015
833.605 .0252894
834.296 .0252778
834.986 .0252660
835.676 .0252538
836.366 .0252409
837.055 .0252279
837.744 .0252147
838.433 .0252015
839.121 .0251884
839.809 .0251754
840.497 .0251632
841.185 .0251510
841.872 .0251387
842.559 .0251266
843.245 .0251147
843.932 .0251026
844.617 .0250910
845.303 .0250803
845.988 .0250702
846.673 .0250606
847.358 .0250517
848.042 .0250429
848.726 .0250341
849.410 .0250252
850.093 .0250160
850.776 .0250066
851.459 .0249973
852.141 .0249871
852.823 .0249769
853.505 .0249672
854.186 .0249571
854.867 .0249466
855.548 .0249361
856.228 .0249253
856.908 .0249143
857.588 .0249035
858.267 .0248932
858.946 .0248832
859.625 .0248734
860.303 .0248636
860.981 .0248537
861.659 .0248437
862.336 .0248333
863.013 .0248227
863.690 .0248122
864.366 .0248016
865.042 .0247905
865.718 .0247796
866.393 .0247690
867.068 .0247584
867.743 .0247476
868.417 .0247362
869.091 .0247241
869.765 .0247113
870.438 .0246980
871.111 .0246842
871.783 .0246704
872.456 .0246568
873.127 .0246428
873.799 .0246290
874.470 .0246148
875.141 .0246003
875.811 .0245851
876.481 .0245698
877.151 .0245541
877.820 .0245379
878.489 .0245218
879.158 .0245064
879.826 .0244916
880.494 .0244781
881.162 .0244651
881.829 .0244528
882.496 .0244412
883.163 .0244300
883.829 .0244191
884.495 .0244091
885.160 .0244003
885.825 .0243932
886.490 .0243872
887.154 .0243828
887.818 .0243793
888.482 .0243764
889.145 .0243738
889.808 .0243708
890.471 .0243671
891.133 .0243632
891.795 .0243582
892.456 .0243531
893.117 .0243473
893.778 .0243410
894.439 .0243342
895.099 .0243263
895.758 .0243176
896.417 .0243079
897.076 .0242974
897.735 .0242863
898.393 .0242747
899.051 .0242634
899.708 .0242521
900.365 .0242410
901.022 .0242301
901.678 .0242191
902.334 .0242086
902.990 .0241982
903.645 .0241878
904.300 .0241784
904.954 .0241699
905.608 .0241622
906.262 .0241559
906.915 .0241508
907.568 .0241464
908.221 .0241421
908.873 .0241376
909.525 .0241323
910.176 .0241260
910.828 .0241189
911.478 .0241107
912.129 .0241018
912.778 .0240927
913.428 .0240828
914.077 .0240728
914.726 .0240629
915.375 .0240531
916.023 .0240432
916.670 .0240339
917.318 .0240250
917.964 .0240166
918.611 .0240088
919.257 .0240012
919.903 .0239937
920.548 .0239863
921.193 .0239791
921.838 .0239721
922.482 .0239654
923.126 .0239592
923.770 .0239537
924.413 .0239491
925.056 .0239448
925.698 .0239409
926.340 .0239374
926.982 .0239342
927.623 .0239309
928.264 .0239275
928.904 .0239234
929.544 .0239190
930.184 .0239137
930.823 .0239074
931.462 .0239001
932.101 .0238919
932.739 .0238826
933.377 .0238725
934.014 .0238616
934.651 .0238498
935.288 .0238376
935.924 .0238255
936.560 .0238128
937.196 .0237999
937.831 .0237865
938.466 .0237725
939.100 .0237576
939.734 .0237423
940.368 .0237265
941.001 .0237112
941.634 .0236968
942.266 .0236837
942.899 .0236718
943.530 .0236609
944.162 .0236512
944.793 .0236418
945.423 .0236323
946.053 .0236219
946.683 .0236104
947.313 .0235982
947.942 .0235851
948.571 .0235716
949.199 .0235575
949.827 .0235432
950.455 .0235286
951.082 .0235135
951.709 .0234977
952.335 .0234813
952.961 .0234647
953.587 .0234478
954.212 .0234314
954.837 .0234153
955.462 .0233997
956.086 .0233853
956.710 .0233720
957.334 .0233591
957.957 .0233462
958.579 .0233335
959.202 .0233206
959.824 .0233074
960.445 .0232942
961.067 .0232810
961.688 .0232685
962.308 .0232569
962.928 .0232462
963.548 .0232360
964.168 .0232262
964.787 .0232162
965.406 .0232065
966.024 .0231970
966.642 .0231874
967.260 .0231780
967.877 .0231693
968.494 .0231616
969.110 .0231543
969.727 .0231478
970.342 .0231422
970.958 .0231373
971.573 .0231332
972.188 .0231289
972.802 .0231247
973.416 .0231209
974.030 .0231174
974.643 .0231140
975.256 .0231113
975.869 .0231086
976.481 .0231065
977.093 .0231051
977.705 .0231052
978.316 .0231066
978.927 .0231089
979.538 .0231123
980.148 .0231161
980.758 .0231205
981.367 .0231247
981.977 .0231287
982.586 .0231329
983.194 .0231368
983.802 .0231402
984.410 .0231428
985.018 .0231450
985.625 .0231469
986.232 .0231482
986.838 .0231487
987.445 .0231483
988.050 .0231470
988.656 .0231448
989.261 .0231417
989.866 .0231371
990.471 .0231318
991.075 .0231253
991.679 .0231184
992.282 .0231107
992.886 .0231029
993.489 .0230957
994.091 .0230894
994.694 .0230848
995.296 .0230811
995.897 .0230783
996.499 .0230764
997.100 .0230742
997.701 .0230719
998.301 .0230682
998.901 .0230641
999.501 .0230596
1000.101 .0230551
1000.700 .0230509
1001.299 .0230476
1001.898 .0230456
1002.496 .0230447
1003.094 .0230447
1003.692 .0230454
1004.289 .0230459
1004.887 .0230458
1005.484 .0230449
1006.080 .0230428
1006.677 .0230399
1007.273 .0230365
1007.868 .0230331
1008.464 .0230302
1009.059 .0230282
1009.654 .0230276
1010.249 .0230282
1010.843 .0230302
1011.437 .0230330
1012.031 .0230357
1012.625 .0230386
1013.218 .0230405
1013.811 .0230415
1014.404 .0230418
1014.997 .0230424
1015.589 .0230432
1016.181 .0230447
1016.773 .0230475
1017.365 .0230514
1017.956 .0230554
1018.547 .0230591
1019.138 .0230617
1019.728 .0230630
1020.319 .0230628
1020.909 .0230604
1021.499 .0230567
1022.088 .0230529
1022.678 .0230488
1023.267 .0230451
1023.856 .0230420
1024.445 .0230396
1025.033 .0230369
1025.621 .0230338
1026.209 .0230306
1026.797 .0230257
1027.385 .0230200
1027.972 .0230132
1028.560 .0230062
1029.147 .0229989
1029.734 .0229913
1030.320 .0229843
1030.907 .0229779
1031.493 .0229719
1032.079 .0229652
1032.665 .0229587
1033.250 .0229528
1033.836 .0229467
1034.421 .0229410
1035.006 .0229359
1035.591 .0229323
1036.176 .0229297
1036.761 .0229284
1037.345 .0229282
1037.929 .0229291
1038.514 .0229306
1039.097 .0229321
1039.681 .0229336
1040.265 .0229350
1040.848 .0229367
1041.432 .0229382
1042.015 .0229407
1042.598 .0229432
1043.181 .0229453
1043.764 .0229473
1044.346 .0229487
1044.929 .0229485
1045.511 .0229461
1046.094 .0229416
1046.676 .0229341
1047.258 .0229237
1047.840 .0229121
1048.422 .0228999
1049.003 .0228884
1049.585 .0228787
1050.166 .0228709
1050.748 .0228650
1051.329 .0228617
1051.910 .0228581
1052.491 .0228548
1053.072 .0228520
1053.653 .0228474
1054.234 .0228416
1054.815 .0228357
1055.396 .0228307
1055.976 .0228260
1056.557 .0228229
1057.138 .0228215
1057.718 .0228208
1058.298 .0228210
1058.879 .0228208
1059.459 .0228197
1060.039 .0228182
1060.620 .0228147
1061.200 .0228080
1061.780 .0228004
1062.360 .0227912
1062.940 .0227799
1063.520 .0227683
1064.101 .0227564
1064.681 .0227446
1065.261 .0227323
1065.841 .0227198
1066.421 .0227080
1067.001 .0226967
1067.581 .0226859
1068.161 .0226743
1068.741 .0226630
1069.321 .0226521
1069.901 .0226399
1070.482 .0226281
1071.062 .0226163
1071.642 .0226043
1072.222 .0225927
1072.803 .0225814
1073.383 .0225725
1073.963 .0225654
1074.544 .0225602
1075.124 .0225559
1075.705 .0225523
1076.286 .0225496
1076.866 .0225466
1077.447 .0225444
1078.028 .0225438
1078.609 .0225442
1079.190 .0225456
1079.771 .0225471
1080.352 .0225493
1080.934 .0225526
1081.515 .0225576
1082.097 .0225631
1082.679 .0225692
1083.260 .0225741
1083.842 .0225786
1084.424 .0225805
1085.007 .0225808
1085.589 .0225780
1086.172 .0225713
1086.754 .0225609
1087.337 .0225454
1087.920 .0225272
1088.503 .0225079
1089.087 .0224875
1089.670 .0224682
1090.254 .0224476
1090.838 .0224268
1091.422 .0224039
1092.006 .0223798
1092.590 .0223540
1093.175 .0223269
1093.760 .0222993
1094.345 .0222713
1094.930 .0222446
1095.516 .0222241
1096.102 .0222111
1096.688 .0222067
1097.274 .0222101
1097.860 .0222174
1098.447 .0222260
1099.034 .0222338
1099.622 .0222375
1100.209 .0222378
1100.797 .0222356
1101.385 .0222317
1101.973 .0222269
1102.562 .0222250
1103.151 .0222278
1103.740 .0222341
1104.330 .0222452
1104.920 .0222576
1105.510 .0222679
1106.101 .0222725
1106.691 .0222709
1107.283 .0222621
1107.874 .0222472
1108.466 .0222281
1109.058 .0222079
1109.651 .0221907
1110.244 .0221786
1110.837 .0221715
1111.431 .0221718
1112.025 .0221781
1112.620 .0221886
1113.215 .0221983
1113.810 .0222064
1114.406 .0222146
1115.002 .0222212
1115.599 .0222247
1116.196 .0222275
1116.793 .0222303
1117.391 .0222360
1117.989 .0222447
1118.588 .0222567
1119.187 .0222700
1119.787 .0222835
1120.387 .0222987
1120.988 .0223106
1121.589 .0223196
1122.190 .0223254
1122.793 .0223266
1123.395 .0223249
1123.998 .0223217
1124.602 .0223164
1125.206 .0223123
1125.811 .0223134
1126.416 .0223170
1127.022 .0223204
1127.628 .0223266
1128.235 .0223334
1128.843 .0223427
1129.451 .0223504
1130.059 .0223579
1130.669 .0223614
1131.278 .0223633
1131.889 .0223628
1132.500 .0223600
1133.112 .0223601
1133.724 .0223646
1134.337 .0223759
1134.950 .0223949
1135.564 .0224214
1136.179 .0224561
1136.795 .0224967
1137.411 .0225458
1138.028 .0225966
1138.645 .0226482
1139.263 .0227052
1139.882 .0227679
1140.502 .0228393
1141.122 .0229186
1141.743 .0230043
1142.365 .0231128
1142.987 .0232400
1143.611 .0233760
1144.235 .0234275
1144.859 .0234243
1145.485 .0240150
