Measurement Sequence started on: 10-20-44-796
Integration time: 35
Scans to Average: 2 
>>>>>Begin Spectral Data<<<<<
432.953 .0488188
433.882 .0515186
434.810 .0444301
435.737 .0434528
436.662 .0395580
437.586 .0410746
438.509 .0400800
439.431 .0392794
440.351 .0388633
441.269 .0385859
442.187 .0384651
443.103 .0383838
444.018 .0383548
444.932 .0383599
445.844 .0383865
446.756 .0384515
447.666 .0385440
448.575 .0386386
449.482 .0387337
450.388 .0388153
451.294 .0388773
452.198 .0389240
453.100 .0389422
454.002 .0389543
454.902 .0389637
455.801 .0389612
456.699 .0389485
457.596 .0389334
458.492 .0389127
459.387 .0388801
460.280 .0388493
461.172 .0388086
462.064 .0387636
462.954 .0387201
463.843 .0386709
464.730 .0386218
465.617 .0385769
466.503 .0385267
467.387 .0384700
468.271 .0384111
469.153 .0383480
470.035 .0382832
470.915 .0382305
471.794 .0381857
472.673 .0381477
473.550 .0381200
474.426 .0380981
475.301 .0380748
476.175 .0380506
477.048 .0380175
477.920 .0379723
478.791 .0379184
479.661 .0378559
480.530 .0377880
481.398 .0377208
482.266 .0376608
483.132 .0376084
483.997 .0375618
484.861 .0375215
485.724 .0374835
486.587 .0374466
487.448 .0374079
488.308 .0373633
489.168 .0373123
490.026 .0372538
490.884 .0371903
491.741 .0371234
492.597 .0370549
493.452 .0369915
494.306 .0369325
495.159 .0368771
496.011 .0368268
496.862 .0367768
497.713 .0367252
498.562 .0366701
499.411 .0366075
500.259 .0365354
501.106 .0364535
501.952 .0363661
502.798 .0362738
503.642 .0361810
504.486 .0360925
505.329 .0360072
506.171 .0359237
507.012 .0358430
507.852 .0357601
508.692 .0356742
509.531 .0355812
510.369 .0354827
511.206 .0353765
512.043 .0352602
512.878 .0351326
513.713 .0349944
514.547 .0348495
515.381 .0347026
516.213 .0345535
517.045 .0344052
517.876 .0342615
518.706 .0341255
519.536 .0339965
520.365 .0338744
521.193 .0337588
522.020 .0336453
522.847 .0335281
523.673 .0334061
524.498 .0332753
525.323 .0331409
526.146 .0330082
526.969 .0328762
527.792 .0327477
528.614 .0326203
529.435 .0324963
530.255 .0323690
531.075 .0322399
531.894 .0321041
532.712 .0319582
533.530 .0318009
534.347 .0316406
535.163 .0314789
535.979 .0313231
536.794 .0311781
537.608 .0310539
538.422 .0309523
539.235 .0308693
540.048 .0307995
540.860 .0307506
541.671 .0307138
542.481 .0306851
543.292 .0306520
544.101 .0306204
544.910 .0305884
545.718 .0305582
546.526 .0305344
547.333 .0305249
548.139 .0305365
548.945 .0305651
549.750 .0306030
550.555 .0306554
551.359 .0307137
552.162 .0307666
552.965 .0308128
553.768 .0308530
554.569 .0308842
555.371 .0309164
556.171 .0309546
556.972 .0310010
557.771 .0310588
558.570 .0311246
559.369 .0311919
560.167 .0312604
560.964 .0313270
561.761 .0313828
562.558 .0314309
563.354 .0314803
564.149 .0315247
564.944 .0315710
565.738 .0316265
566.532 .0316897
567.325 .0317586
568.118 .0318315
568.910 .0318999
569.702 .0319649
570.494 .0320278
571.285 .0320846
572.075 .0321366
572.865 .0321895
573.654 .0322417
574.443 .0322887
575.232 .0323305
576.020 .0323701
576.807 .0324021
577.594 .0324285
578.381 .0324477
579.167 .0324608
579.952 .0324734
580.738 .0324865
581.522 .0325015
582.307 .0325191
583.091 .0325386
583.874 .0325567
584.657 .0325706
585.440 .0325835
586.222 .0325932
587.004 .0325996
587.785 .0326056
588.566 .0326110
589.346 .0326147
590.126 .0326188
590.906 .0326231
591.685 .0326274
592.464 .0326299
593.242 .0326311
594.020 .0326294
594.797 .0326264
595.575 .0326221
596.351 .0326160
597.128 .0326100
597.904 .0326046
598.679 .0325976
599.454 .0325889
600.229 .0325785
601.004 .0325662
601.778 .0325521
602.551 .0325367
603.325 .0325204
604.097 .0325031
604.870 .0324852
605.642 .0324663
606.414 .0324468
607.185 .0324270
607.956 .0324067
608.727 .0323868
609.497 .0323672
610.267 .0323480
611.037 .0323294
611.806 .0323116
612.575 .0322946
613.344 .0322777
614.112 .0322607
614.880 .0322437
615.647 .0322266
616.414 .0322094
617.181 .0321930
617.948 .0321779
618.714 .0321641
619.480 .0321508
620.245 .0321376
621.011 .0321237
621.775 .0321080
622.540 .0320900
623.304 .0320685
624.068 .0320447
624.832 .0320189
625.595 .0319907
626.358 .0319617
627.120 .0319320
627.883 .0319016
628.645 .0318708
629.406 .0318389
630.168 .0318056
630.929 .0317711
631.689 .0317351
632.450 .0316968
633.210 .0316576
633.970 .0316177
634.729 .0315768
635.489 .0315358
636.248 .0314953
637.006 .0314553
637.765 .0314159
638.523 .0313778
639.280 .0313409
640.038 .0313057
640.795 .0312724
641.552 .0312400
642.309 .0312094
643.065 .0311800
643.821 .0311509
644.577 .0311223
645.332 .0310943
646.088 .0310660
646.843 .0310373
647.597 .0310087
648.352 .0309806
649.106 .0309540
649.860 .0309279
650.613 .0309028
651.367 .0308795
652.120 .0308572
652.872 .0308351
653.625 .0308123
654.377 .0307896
655.129 .0307664
655.881 .0307421
656.632 .0307175
657.384 .0306931
658.135 .0306695
658.885 .0306472
659.636 .0306262
660.386 .0306066
661.136 .0305880
661.885 .0305695
662.635 .0305512
663.384 .0305325
664.133 .0305130
664.881 .0304930
665.630 .0304722
666.378 .0304522
667.126 .0304317
667.874 .0304109
668.621 .0303906
669.368 .0303706
670.115 .0303507
670.862 .0303303
671.608 .0303106
672.354 .0302921
673.100 .0302749
673.846 .0302598
674.591 .0302467
675.337 .0302360
676.082 .0302274
676.826 .0302195
677.571 .0302124
678.315 .0302058
679.059 .0301992
679.803 .0301922
680.547 .0301855
681.290 .0301789
682.033 .0301722
682.776 .0301654
683.518 .0301588
684.261 .0301512
685.003 .0301425
685.745 .0301323
686.487 .0301205
687.228 .0301071
687.969 .0300919
688.710 .0300752
689.451 .0300584
690.192 .0300409
690.932 .0300232
691.672 .0300050
692.412 .0299870
693.152 .0299682
693.891 .0299491
694.630 .0299301
695.369 .0299108
696.108 .0298919
696.846 .0298734
697.585 .0298546
698.323 .0298363
699.061 .0298177
699.798 .0297988
700.536 .0297801
701.273 .0297617
702.010 .0297429
702.746 .0297247
703.483 .0297075
704.219 .0296913
704.955 .0296758
705.691 .0296616
706.427 .0296470
707.162 .0296319
707.897 .0296160
708.632 .0295988
709.367 .0295805
710.101 .0295615
710.835 .0295416
711.569 .0295216
712.303 .0295012
713.037 .0294804
713.770 .0294587
714.503 .0294366
715.236 .0294130
715.969 .0293874
716.702 .0293604
717.434 .0293326
718.166 .0293041
718.898 .0292759
719.629 .0292480
720.361 .0292210
721.092 .0291947
721.823 .0291684
722.554 .0291420
723.284 .0291158
724.014 .0290889
724.744 .0290620
725.474 .0290349
726.204 .0290082
726.933 .0289815
727.662 .0289554
728.391 .0289295
729.120 .0289036
729.849 .0288774
730.577 .0288513
731.305 .0288251
732.033 .0287999
732.760 .0287747
733.488 .0287502
734.215 .0287261
734.942 .0287023
735.669 .0286782
736.395 .0286537
737.122 .0286282
737.848 .0286018
738.573 .0285743
739.299 .0285461
740.024 .0285177
740.750 .0284900
741.474 .0284632
742.199 .0284377
742.924 .0284134
743.648 .0283902
744.372 .0283678
745.096 .0283464
745.819 .0283254
746.543 .0283050
747.266 .0282851
747.989 .0282659
748.711 .0282479
749.434 .0282310
750.156 .0282154
750.878 .0282017
751.599 .0281902
752.321 .0281805
753.042 .0281724
753.763 .0281659
754.484 .0281605
755.205 .0281552
755.925 .0281499
756.645 .0281433
757.365 .0281355
758.085 .0281264
758.804 .0281162
759.523 .0281051
760.242 .0280939
760.961 .0280831
761.679 .0280729
762.397 .0280632
763.115 .0280541
763.833 .0280447
764.551 .0280349
765.268 .0280241
765.985 .0280124
766.702 .0279997
767.418 .0279869
768.134 .0279745
768.850 .0279630
769.566 .0279530
770.282 .0279446
770.997 .0279378
771.712 .0279323
772.427 .0279272
773.142 .0279220
773.856 .0279165
774.570 .0279101
775.284 .0279021
775.998 .0278928
776.711 .0278825
777.424 .0278714
778.137 .0278598
778.849 .0278471
779.562 .0278341
780.274 .0278210
780.986 .0278078
781.697 .0277954
782.409 .0277840
783.120 .0277741
783.831 .0277658
784.541 .0277597
785.252 .0277556
785.962 .0277534
786.671 .0277532
787.381 .0277542
788.090 .0277564
788.799 .0277596
789.508 .0277630
790.217 .0277669
790.925 .0277718
791.633 .0277766
792.341 .0277808
793.048 .0277841
793.755 .0277859
794.462 .0277858
795.169 .0277839
795.875 .0277807
796.581 .0277761
797.287 .0277704
797.993 .0277644
798.698 .0277582
799.403 .0277524
800.108 .0277469
800.812 .0277414
801.517 .0277362
802.221 .0277312
802.924 .0277264
803.628 .0277224
804.331 .0277200
805.034 .0277191
805.736 .0277196
806.439 .0277211
807.141 .0277234
807.843 .0277260
808.544 .0277283
809.245 .0277294
809.946 .0277290
810.647 .0277269
811.347 .0277236
812.047 .0277190
812.747 .0277143
813.447 .0277095
814.146 .0277049
814.845 .0277008
815.543 .0276970
816.242 .0276927
816.940 .0276877
817.638 .0276818
818.335 .0276747
819.032 .0276663
819.729 .0276570
820.426 .0276471
821.122 .0276373
821.818 .0276280
822.514 .0276188
823.209 .0276098
823.905 .0276010
824.599 .0275911
825.294 .0275793
825.988 .0275646
826.682 .0275466
827.376 .0275257
828.069 .0275021
828.762 .0274766
829.455 .0274501
830.147 .0274241
830.840 .0273994
831.531 .0273756
832.223 .0273535
832.914 .0273326
833.605 .0273127
834.296 .0272935
834.986 .0272747
835.676 .0272569
836.366 .0272399
837.055 .0272247
837.744 .0272112
838.433 .0271994
839.121 .0271895
839.809 .0271807
840.497 .0271731
841.185 .0271661
841.872 .0271588
842.559 .0271511
843.245 .0271428
843.932 .0271332
844.617 .0271217
845.303 .0271080
845.988 .0270924
846.673 .0270754
847.358 .0270569
848.042 .0270380
848.726 .0270192
849.410 .0270013
850.093 .0269841
850.776 .0269679
851.459 .0269528
852.141 .0269383
852.823 .0269239
853.505 .0269096
854.186 .0268950
854.867 .0268802
855.548 .0268655
856.228 .0268514
856.908 .0268378
857.588 .0268250
858.267 .0268123
858.946 .0267991
859.625 .0267852
860.303 .0267698
860.981 .0267528
861.659 .0267346
862.336 .0267146
863.013 .0266932
863.690 .0266708
864.366 .0266479
865.042 .0266245
865.718 .0266008
866.393 .0265768
867.068 .0265528
867.743 .0265289
868.417 .0265053
869.091 .0264823
869.765 .0264605
870.438 .0264397
871.111 .0264200
871.783 .0264016
872.456 .0263840
873.127 .0263672
873.799 .0263512
874.470 .0263356
875.141 .0263203
875.811 .0263052
876.481 .0262902
877.151 .0262752
877.820 .0262603
878.489 .0262454
879.158 .0262308
879.826 .0262164
880.494 .0262024
881.162 .0261885
881.829 .0261753
882.496 .0261621
883.163 .0261482
883.829 .0261343
884.495 .0261197
885.160 .0261048
885.825 .0260892
886.490 .0260735
887.154 .0260582
887.818 .0260436
888.482 .0260299
889.145 .0260172
889.808 .0260058
890.471 .0259954
891.133 .0259850
891.795 .0259752
892.456 .0259655
893.117 .0259561
893.778 .0259473
894.439 .0259398
895.099 .0259329
895.758 .0259272
896.417 .0259225
897.076 .0259192
897.735 .0259166
898.393 .0259141
899.051 .0259109
899.708 .0259070
900.365 .0259025
901.022 .0258972
901.678 .0258912
902.334 .0258858
902.990 .0258801
903.645 .0258744
904.300 .0258686
904.954 .0258623
905.608 .0258552
906.262 .0258473
906.915 .0258381
907.568 .0258280
908.221 .0258171
908.873 .0258061
909.525 .0257954
910.176 .0257856
910.828 .0257768
911.478 .0257685
912.129 .0257603
912.778 .0257518
913.428 .0257426
914.077 .0257333
914.726 .0257233
915.375 .0257131
916.023 .0257034
916.670 .0256949
917.318 .0256878
917.964 .0256820
918.611 .0256771
919.257 .0256730
919.903 .0256690
920.548 .0256646
921.193 .0256596
921.838 .0256545
922.482 .0256496
923.126 .0256453
923.770 .0256421
924.413 .0256397
925.056 .0256377
925.698 .0256367
926.340 .0256358
926.982 .0256347
927.623 .0256329
928.264 .0256307
928.904 .0256280
929.544 .0256256
930.184 .0256234
930.823 .0256215
931.462 .0256202
932.101 .0256193
932.739 .0256177
933.377 .0256153
934.014 .0256117
934.651 .0256065
935.288 .0256002
935.924 .0255928
936.560 .0255845
937.196 .0255759
937.831 .0255677
938.466 .0255601
939.100 .0255532
939.734 .0255468
940.368 .0255401
941.001 .0255332
941.634 .0255256
942.266 .0255173
942.899 .0255087
943.530 .0254996
944.162 .0254910
944.793 .0254827
945.423 .0254747
946.053 .0254667
946.683 .0254591
947.313 .0254511
947.942 .0254419
948.571 .0254313
949.199 .0254186
949.827 .0254040
950.455 .0253878
951.082 .0253710
951.709 .0253542
952.335 .0253387
952.961 .0253247
953.587 .0253124
954.212 .0253021
954.837 .0252929
955.462 .0252847
956.086 .0252774
956.710 .0252705
957.334 .0252639
957.957 .0252578
958.579 .0252527
959.202 .0252485
959.824 .0252451
960.445 .0252429
961.067 .0252414
961.688 .0252398
962.308 .0252375
962.928 .0252342
963.548 .0252299
964.168 .0252241
964.787 .0252167
965.406 .0252084
966.024 .0251998
966.642 .0251912
967.260 .0251827
967.877 .0251749
968.494 .0251678
969.110 .0251612
969.727 .0251548
970.342 .0251489
970.958 .0251435
971.573 .0251389
972.188 .0251353
972.802 .0251331
973.416 .0251322
974.030 .0251328
974.643 .0251345
975.256 .0251375
975.869 .0251412
976.481 .0251449
977.093 .0251487
977.705 .0251527
978.316 .0251564
978.927 .0251603
979.538 .0251641
980.148 .0251678
980.758 .0251716
981.367 .0251749
981.977 .0251778
982.586 .0251801
983.194 .0251819
983.802 .0251825
984.410 .0251815
985.018 .0251789
985.625 .0251750
986.232 .0251693
986.838 .0251618
987.445 .0251525
988.050 .0251423
988.656 .0251305
989.261 .0251178
989.866 .0251045
990.471 .0250910
991.075 .0250778
991.679 .0250652
992.282 .0250529
992.886 .0250415
993.489 .0250306
994.091 .0250200
994.694 .0250103
995.296 .0250021
995.897 .0249942
996.499 .0249880
997.100 .0249837
997.701 .0249818
998.301 .0249821
998.901 .0249852
999.501 .0249905
1000.101 .0249975
1000.700 .0250052
1001.299 .0250123
1001.898 .0250177
1002.496 .0250217
1003.094 .0250233
1003.692 .0250234
1004.289 .0250226
1004.887 .0250214
1005.484 .0250201
1006.080 .0250192
1006.677 .0250184
1007.273 .0250169
1007.868 .0250137
1008.464 .0250095
1009.059 .0250033
1009.654 .0249952
1010.249 .0249856
1010.843 .0249757
1011.437 .0249660
1012.031 .0249573
1012.625 .0249499
1013.218 .0249433
1013.811 .0249378
1014.404 .0249331
1014.997 .0249285
1015.589 .0249236
1016.181 .0249187
1016.773 .0249138
1017.365 .0249097
1017.956 .0249065
1018.547 .0249035
1019.138 .0249010
1019.728 .0248988
1020.319 .0248967
1020.909 .0248945
1021.499 .0248915
1022.088 .0248884
1022.678 .0248842
1023.267 .0248799
1023.856 .0248747
1024.445 .0248695
1025.033 .0248635
1025.621 .0248561
1026.209 .0248476
1026.797 .0248371
1027.385 .0248246
1027.972 .0248110
1028.560 .0247962
1029.147 .0247813
1029.734 .0247667
1030.320 .0247527
1030.907 .0247390
1031.493 .0247268
1032.079 .0247156
1032.665 .0247055
1033.250 .0246962
1033.836 .0246877
1034.421 .0246790
1035.006 .0246708
1035.591 .0246630
1036.176 .0246550
1036.761 .0246473
1037.345 .0246401
1037.929 .0246326
1038.514 .0246249
1039.097 .0246171
1039.681 .0246087
1040.265 .0246002
1040.848 .0245912
1041.432 .0245812
1042.015 .0245696
1042.598 .0245572
1043.181 .0245443
1043.764 .0245304
1044.346 .0245168
1044.929 .0245034
1045.511 .0244910
1046.094 .0244804
1046.676 .0244704
1047.258 .0244612
1047.840 .0244522
1048.422 .0244436
1049.003 .0244341
1049.585 .0244236
1050.166 .0244119
1050.748 .0243998
1051.329 .0243871
1051.910 .0243741
1052.491 .0243615
1053.072 .0243491
1053.653 .0243362
1054.234 .0243228
1054.815 .0243089
1055.396 .0242941
1055.976 .0242779
1056.557 .0242623
1057.138 .0242463
1057.718 .0242313
1058.298 .0242171
1058.879 .0242040
1059.459 .0241924
1060.039 .0241821
1060.620 .0241719
1061.200 .0241619
1061.780 .0241524
1062.360 .0241419
1062.940 .0241312
1063.520 .0241203
1064.101 .0241091
1064.681 .0240971
1065.261 .0240833
1065.841 .0240685
1066.421 .0240516
1067.001 .0240329
1067.581 .0240118
1068.161 .0239895
1068.741 .0239678
1069.321 .0239456
1069.901 .0239250
1070.482 .0239068
1071.062 .0238907
1071.642 .0238767
1072.222 .0238649
1072.803 .0238531
1073.383 .0238427
1073.963 .0238330
1074.544 .0238239
1075.124 .0238161
1075.705 .0238099
1076.286 .0238055
1076.866 .0238032
1077.447 .0238032
1078.028 .0238051
1078.609 .0238072
1079.190 .0238110
1079.771 .0238137
1080.352 .0238144
1080.934 .0238125
1081.515 .0238086
1082.097 .0238029
1082.679 .0237979
1083.260 .0237919
1083.842 .0237867
1084.424 .0237813
1085.007 .0237765
1085.589 .0237712
1086.172 .0237645
1086.754 .0237555
1087.337 .0237453
1087.920 .0237329
1088.503 .0237207
1089.087 .0237100
1089.670 .0237030
1090.254 .0236990
1090.838 .0236993
1091.422 .0237020
1092.006 .0237060
1092.590 .0237097
1093.175 .0237128
1093.760 .0237115
1094.345 .0237082
1094.930 .0237013
1095.516 .0236912
1096.102 .0236789
1096.688 .0236685
1097.274 .0236590
1097.860 .0236505
1098.447 .0236425
1099.034 .0236336
1099.622 .0236229
1100.209 .0236105
1100.797 .0235936
1101.385 .0235737
1101.973 .0235532
1102.562 .0235340
1103.151 .0235158
1103.740 .0235024
1104.330 .0234955
1104.920 .0234945
1105.510 .0234999
1106.101 .0235105
1106.691 .0235228
1107.283 .0235368
1107.874 .0235501
1108.466 .0235595
1109.058 .0235652
1109.651 .0235661
1110.244 .0235627
1110.837 .0235568
1111.431 .0235495
1112.025 .0235385
1112.620 .0235256
1113.215 .0235128
1113.810 .0234995
1114.406 .0234840
1115.002 .0234668
1115.599 .0234475
1116.196 .0234277
1116.793 .0234062
1117.391 .0233842
1117.989 .0233648
1118.588 .0233525
1119.187 .0233440
1119.787 .0233410
1120.387 .0233449
1120.988 .0233579
1121.589 .0233793
1122.190 .0234080
1122.793 .0234423
1123.395 .0234827
1123.998 .0235263
1124.602 .0235757
1125.206 .0236294
1125.811 .0236875
1126.416 .0237493
1127.022 .0238140
1127.628 .0238778
1128.235 .0239382
1128.843 .0239917
1129.451 .0240400
1130.059 .0240793
1130.669 .0241099
1131.278 .0241294
1131.889 .0241398
1132.500 .0241427
1133.112 .0241373
1133.724 .0241234
1134.337 .0241087
1134.950 .0240879
1135.564 .0240688
1136.179 .0240526
1136.795 .0240483
1137.411 .0240559
1138.028 .0240777
1138.645 .0241174
1139.263 .0241748
1139.882 .0242453
1140.502 .0243402
1141.122 .0244567
1141.743 .0246090
1142.365 .0247890
1142.987 .0247292
1143.611 .0251745
1144.235 .0254644
1144.859 .0258869
1145.485 .0260765
