Measurement Sequence started on: 10-20-44-796
Integration time: 35
Scans to Average: 2 
>>>>>Begin Spectral Data<<<<<
432.953 .0549581
433.882 .0428286
434.810 .0373189
435.737 .0350833
436.662 .0360949
437.586 .0366386
438.509 .0356740
439.431 .0353130
440.351 .0351894
441.269 .0351284
442.187 .0350313
443.103 .0349553
444.018 .0348607
444.932 .0347509
445.844 .0346375
446.756 .0345427
447.666 .0344437
448.575 .0343578
449.482 .0342735
450.388 .0341888
451.294 .0341050
452.198 .0340205
453.100 .0339317
454.002 .0338590
454.902 .0337925
455.801 .0337347
456.699 .0337034
457.596 .0337032
458.492 .0337306
459.387 .0337726
460.280 .0338188
461.172 .0338680
462.064 .0339034
462.954 .0339233
463.843 .0339208
464.730 .0339101
465.617 .0338955
466.503 .0338759
467.387 .0338552
468.271 .0338323
469.153 .0338052
470.035 .0337731
470.915 .0337280
471.794 .0336716
472.673 .0336003
473.550 .0335231
474.426 .0334462
475.301 .0333762
476.175 .0333168
477.048 .0332719
477.920 .0332442
478.791 .0332258
479.661 .0332114
480.530 .0331979
481.398 .0331848
482.266 .0331690
483.132 .0331554
483.997 .0331429
484.861 .0331321
485.724 .0331320
486.587 .0331400
487.448 .0331547
488.308 .0331720
489.168 .0331868
490.026 .0331985
490.884 .0332050
491.741 .0332036
492.597 .0331892
493.452 .0331704
494.306 .0331468
495.159 .0331164
496.011 .0330829
496.862 .0330481
497.713 .0330082
498.562 .0329653
499.411 .0329191
500.259 .0328666
501.106 .0328126
501.952 .0327555
502.798 .0326921
503.642 .0326247
504.486 .0325511
505.329 .0324651
506.171 .0323720
507.012 .0322775
507.852 .0321753
508.692 .0320721
509.531 .0319632
510.369 .0318485
511.206 .0317271
512.043 .0315951
512.878 .0314478
513.713 .0312796
514.547 .0310919
515.381 .0308780
516.213 .0306471
517.045 .0304147
517.876 .0301854
518.706 .0299684
519.536 .0297703
520.365 .0295962
521.193 .0294341
522.020 .0292790
522.847 .0291213
523.673 .0289579
524.498 .0287775
525.323 .0285840
526.146 .0283889
526.969 .0281980
527.792 .0280348
528.614 .0278936
529.435 .0277825
530.255 .0276988
531.075 .0276161
531.894 .0275301
532.712 .0274297
533.530 .0273090
534.347 .0271644
535.163 .0270035
535.979 .0268558
536.794 .0267208
537.608 .0266140
538.422 .0265428
539.235 .0265044
540.048 .0264935
540.860 .0264926
541.671 .0264906
542.481 .0264937
543.292 .0264946
544.101 .0264989
544.910 .0265182
545.718 .0265574
546.526 .0266171
547.333 .0266921
548.139 .0267810
548.945 .0268780
549.750 .0269617
550.555 .0270375
551.359 .0271041
552.162 .0271646
552.965 .0272300
553.768 .0272889
554.569 .0273607
555.371 .0274380
556.171 .0275172
556.972 .0275950
557.771 .0276646
558.570 .0277269
559.369 .0277756
560.167 .0278166
560.964 .0278558
561.761 .0278916
562.558 .0279381
563.354 .0279949
564.149 .0280631
564.944 .0281444
565.738 .0282416
566.532 .0283458
567.325 .0284619
568.118 .0285775
568.910 .0286924
569.702 .0288014
570.494 .0289051
571.285 .0290004
572.075 .0290853
572.865 .0291645
573.654 .0292364
574.443 .0293037
575.232 .0293707
576.020 .0294336
576.807 .0294998
577.594 .0295659
578.381 .0296350
579.167 .0297016
579.952 .0297668
580.738 .0298290
581.522 .0298876
582.307 .0299426
583.091 .0299964
583.874 .0300510
584.657 .0301072
585.440 .0301649
586.222 .0302238
587.004 .0302832
587.785 .0303415
588.566 .0303954
589.346 .0304429
590.126 .0304827
590.906 .0305139
591.685 .0305375
592.464 .0305535
593.242 .0305640
594.020 .0305696
594.797 .0305726
595.575 .0305723
596.351 .0305699
597.128 .0305647
597.904 .0305582
598.679 .0305504
599.454 .0305405
600.229 .0305293
601.004 .0305178
601.778 .0305048
602.551 .0304902
603.325 .0304742
604.097 .0304575
604.870 .0304385
605.642 .0304183
606.414 .0303982
607.185 .0303793
607.956 .0303623
608.727 .0303478
609.497 .0303356
610.267 .0303251
611.037 .0303152
611.806 .0303041
612.575 .0302918
613.344 .0302772
614.112 .0302602
614.880 .0302401
615.647 .0302190
616.414 .0301972
617.181 .0301756
617.948 .0301541
618.714 .0301336
619.480 .0301128
620.245 .0300911
621.011 .0300687
621.775 .0300455
622.540 .0300206
623.304 .0299953
624.068 .0299698
624.832 .0299450
625.595 .0299214
626.358 .0298992
627.120 .0298779
627.883 .0298584
628.645 .0298393
629.406 .0298202
630.168 .0298019
630.929 .0297846
631.689 .0297675
632.450 .0297505
633.210 .0297342
633.970 .0297172
634.729 .0296998
635.489 .0296821
636.248 .0296630
637.006 .0296421
637.765 .0296193
638.523 .0295945
639.280 .0295689
640.038 .0295425
640.795 .0295161
641.552 .0294906
642.309 .0294659
643.065 .0294415
643.821 .0294171
644.577 .0293931
645.332 .0293704
646.088 .0293481
646.843 .0293260
647.597 .0293047
648.352 .0292850
649.106 .0292667
649.860 .0292499
650.613 .0292349
651.367 .0292213
652.120 .0292078
652.872 .0291945
653.625 .0291813
654.377 .0291678
655.129 .0291549
655.881 .0291408
656.632 .0291258
657.384 .0291100
658.135 .0290929
658.885 .0290747
659.636 .0290556
660.386 .0290366
661.136 .0290177
661.885 .0289997
662.635 .0289832
663.384 .0289685
664.133 .0289558
664.881 .0289446
665.630 .0289344
666.378 .0289247
667.126 .0289148
667.874 .0289037
668.621 .0288915
669.368 .0288788
670.115 .0288663
670.862 .0288538
671.608 .0288421
672.354 .0288324
673.100 .0288238
673.846 .0288162
674.591 .0288083
675.337 .0288008
676.082 .0287923
676.826 .0287825
677.571 .0287712
678.315 .0287597
679.059 .0287495
679.803 .0287403
680.547 .0287330
681.290 .0287288
682.033 .0287261
682.776 .0287238
683.518 .0287205
684.261 .0287155
685.003 .0287073
685.745 .0286959
686.487 .0286809
687.228 .0286632
687.969 .0286441
688.710 .0286242
689.451 .0286045
690.192 .0285861
690.932 .0285683
691.672 .0285491
692.412 .0285294
693.152 .0285079
693.891 .0284849
694.630 .0284608
695.369 .0284364
696.108 .0284125
696.846 .0283900
697.585 .0283691
698.323 .0283498
699.061 .0283326
699.798 .0283170
700.536 .0283016
701.273 .0282869
702.010 .0282724
702.746 .0282577
703.483 .0282436
704.219 .0282303
704.955 .0282177
705.691 .0282060
706.427 .0281945
707.162 .0281831
707.897 .0281717
708.632 .0281602
709.367 .0281476
710.101 .0281339
710.835 .0281205
711.569 .0281060
712.303 .0280909
713.037 .0280755
713.770 .0280600
714.503 .0280443
715.236 .0280283
715.969 .0280111
716.702 .0279926
717.434 .0279731
718.166 .0279519
718.898 .0279289
719.629 .0279051
720.361 .0278808
721.092 .0278566
721.823 .0278330
722.554 .0278098
723.284 .0277863
724.014 .0277625
724.744 .0277378
725.474 .0277113
726.204 .0276828
726.933 .0276527
727.662 .0276216
728.391 .0275906
729.120 .0275607
729.849 .0275326
730.577 .0275074
731.305 .0274844
732.033 .0274628
732.760 .0274421
733.488 .0274216
734.215 .0274013
734.942 .0273805
735.669 .0273596
736.395 .0273390
737.122 .0273194
737.848 .0273012
738.573 .0272840
739.299 .0272680
740.024 .0272529
740.750 .0272378
741.474 .0272220
742.199 .0272049
742.924 .0271865
743.648 .0271671
744.372 .0271467
745.096 .0271260
745.819 .0271053
746.543 .0270847
747.266 .0270651
747.989 .0270461
748.711 .0270283
749.434 .0270119
750.156 .0269960
750.878 .0269811
751.599 .0269670
752.321 .0269535
753.042 .0269406
753.763 .0269288
754.484 .0269192
755.205 .0269109
755.925 .0269044
756.645 .0268991
757.365 .0268939
758.085 .0268887
758.804 .0268823
759.523 .0268741
760.242 .0268642
760.961 .0268521
761.679 .0268390
762.397 .0268254
763.115 .0268120
763.833 .0267986
764.551 .0267853
765.268 .0267716
765.985 .0267568
766.702 .0267397
767.418 .0267201
768.134 .0266987
768.850 .0266766
769.566 .0266538
770.282 .0266312
770.997 .0266105
771.712 .0265921
772.427 .0265760
773.142 .0265620
773.856 .0265493
774.570 .0265368
775.284 .0265244
775.998 .0265113
776.711 .0264972
777.424 .0264829
778.137 .0264688
778.849 .0264550
779.562 .0264423
780.274 .0264306
780.986 .0264200
781.697 .0264110
782.409 .0264035
783.120 .0263965
783.831 .0263899
784.541 .0263833
785.252 .0263772
785.962 .0263702
786.671 .0263629
787.381 .0263552
788.090 .0263470
788.799 .0263383
789.508 .0263293
790.217 .0263201
790.925 .0263109
791.633 .0263010
792.341 .0262907
793.048 .0262793
793.755 .0262674
794.462 .0262539
795.169 .0262397
795.875 .0262254
796.581 .0262117
797.287 .0261983
797.993 .0261862
798.698 .0261757
799.403 .0261668
800.108 .0261588
800.812 .0261521
801.517 .0261459
802.221 .0261401
802.924 .0261339
803.628 .0261276
804.331 .0261210
805.034 .0261147
805.736 .0261081
806.439 .0261018
807.141 .0260958
807.843 .0260896
808.544 .0260821
809.245 .0260738
809.946 .0260643
810.647 .0260539
811.347 .0260423
812.047 .0260306
812.747 .0260192
813.447 .0260087
814.146 .0259993
814.845 .0259915
815.543 .0259855
816.242 .0259804
816.940 .0259756
817.638 .0259705
818.335 .0259654
819.032 .0259602
819.729 .0259549
820.426 .0259502
821.122 .0259461
821.818 .0259423
822.514 .0259387
823.209 .0259350
823.905 .0259314
824.599 .0259268
825.294 .0259210
825.988 .0259136
826.682 .0259051
827.376 .0258960
828.069 .0258868
828.762 .0258776
829.455 .0258683
830.147 .0258588
830.840 .0258485
831.531 .0258376
832.223 .0258259
832.914 .0258132
833.605 .0257999
834.296 .0257863
834.986 .0257724
835.676 .0257585
836.366 .0257449
837.055 .0257315
837.744 .0257179
838.433 .0257043
839.121 .0256902
839.809 .0256762
840.497 .0256635
841.185 .0256524
841.872 .0256432
842.559 .0256359
843.245 .0256300
843.932 .0256256
844.617 .0256225
845.303 .0256204
845.988 .0256185
846.673 .0256171
847.358 .0256163
848.042 .0256158
848.726 .0256153
849.410 .0256148
850.093 .0256142
850.776 .0256132
851.459 .0256104
852.141 .0256058
852.823 .0255995
853.505 .0255922
854.186 .0255841
854.867 .0255762
855.548 .0255680
856.228 .0255602
856.908 .0255519
857.588 .0255433
858.267 .0255338
858.946 .0255228
859.625 .0255102
860.303 .0254965
860.981 .0254826
861.659 .0254688
862.336 .0254554
863.013 .0254438
863.690 .0254331
864.366 .0254234
865.042 .0254131
865.718 .0254016
866.393 .0253884
867.068 .0253733
867.743 .0253568
868.417 .0253391
869.091 .0253212
869.765 .0253035
870.438 .0252867
871.111 .0252715
871.783 .0252577
872.456 .0252446
873.127 .0252324
873.799 .0252210
874.470 .0252093
875.141 .0251978
875.811 .0251868
876.481 .0251763
877.151 .0251672
877.820 .0251591
878.489 .0251518
879.158 .0251449
879.826 .0251390
880.494 .0251335
881.162 .0251280
881.829 .0251220
882.496 .0251153
883.163 .0251081
883.829 .0251008
884.495 .0250931
885.160 .0250846
885.825 .0250761
886.490 .0250675
887.154 .0250586
887.818 .0250491
888.482 .0250393
889.145 .0250294
889.808 .0250189
890.471 .0250078
891.133 .0249960
891.795 .0249828
892.456 .0249693
893.117 .0249547
893.778 .0249393
894.439 .0249227
895.099 .0249055
895.758 .0248877
896.417 .0248700
897.076 .0248528
897.735 .0248358
898.393 .0248195
899.051 .0248042
899.708 .0247890
900.365 .0247743
901.022 .0247603
901.678 .0247468
902.334 .0247337
902.990 .0247215
903.645 .0247096
904.300 .0246986
904.954 .0246888
905.608 .0246795
906.262 .0246705
906.915 .0246619
907.568 .0246533
908.221 .0246442
908.873 .0246355
909.525 .0246267
910.176 .0246178
910.828 .0246087
911.478 .0245998
912.129 .0245907
912.778 .0245813
913.428 .0245715
914.077 .0245612
914.726 .0245506
915.375 .0245402
916.023 .0245298
916.670 .0245201
917.318 .0245108
917.964 .0245012
918.611 .0244906
919.257 .0244792
919.903 .0244660
920.548 .0244509
921.193 .0244344
921.838 .0244169
922.482 .0243985
923.126 .0243803
923.770 .0243621
924.413 .0243443
925.056 .0243270
925.698 .0243097
926.340 .0242920
926.982 .0242752
927.623 .0242582
928.264 .0242420
928.904 .0242274
929.544 .0242144
930.184 .0242027
930.823 .0241920
931.462 .0241823
932.101 .0241730
932.739 .0241635
933.377 .0241534
934.014 .0241423
934.651 .0241312
935.288 .0241192
935.924 .0241069
936.560 .0240954
937.196 .0240844
937.831 .0240735
938.466 .0240624
939.100 .0240507
939.734 .0240374
940.368 .0240229
941.001 .0240067
941.634 .0239897
942.266 .0239720
942.899 .0239540
943.530 .0239361
944.162 .0239184
944.793 .0239013
945.423 .0238838
946.053 .0238662
946.683 .0238485
947.313 .0238297
947.942 .0238103
948.571 .0237898
949.199 .0237693
949.827 .0237484
950.455 .0237277
951.082 .0237080
951.709 .0236886
952.335 .0236696
952.961 .0236508
953.587 .0236323
954.212 .0236137
954.837 .0235955
955.462 .0235769
956.086 .0235590
956.710 .0235419
957.334 .0235250
957.957 .0235093
958.579 .0234946
959.202 .0234806
959.824 .0234665
960.445 .0234531
961.067 .0234402
961.688 .0234281
962.308 .0234180
962.928 .0234091
963.548 .0234021
964.168 .0233965
964.787 .0233914
965.406 .0233868
966.024 .0233830
966.642 .0233790
967.260 .0233752
967.877 .0233723
968.494 .0233695
969.110 .0233669
969.727 .0233640
970.342 .0233609
970.958 .0233569
971.573 .0233515
972.188 .0233439
972.802 .0233337
973.416 .0233222
974.030 .0233095
974.643 .0232963
975.256 .0232841
975.869 .0232734
976.481 .0232638
977.093 .0232554
977.705 .0232481
978.316 .0232412
978.927 .0232344
979.538 .0232273
980.148 .0232194
980.758 .0232109
981.367 .0232027
981.977 .0231956
982.586 .0231895
983.194 .0231862
983.802 .0231844
984.410 .0231837
985.018 .0231839
985.625 .0231841
986.232 .0231830
986.838 .0231812
987.445 .0231780
988.050 .0231732
988.656 .0231675
989.261 .0231618
989.866 .0231557
990.471 .0231517
991.075 .0231497
991.679 .0231490
992.282 .0231493
992.886 .0231513
993.489 .0231530
994.091 .0231548
994.694 .0231566
995.296 .0231581
995.897 .0231598
996.499 .0231613
997.100 .0231627
997.701 .0231652
998.301 .0231695
998.901 .0231752
999.501 .0231825
1000.101 .0231918
1000.700 .0232020
1001.299 .0232122
1001.898 .0232229
1002.496 .0232338
1003.094 .0232445
1003.692 .0232544
1004.289 .0232633
1004.887 .0232711
1005.484 .0232780
1006.080 .0232837
1006.677 .0232895
1007.273 .0232953
1007.868 .0233010
1008.464 .0233064
1009.059 .0233112
1009.654 .0233158
1010.249 .0233194
1010.843 .0233214
1011.437 .0233228
1012.031 .0233226
1012.625 .0233214
1013.218 .0233195
1013.811 .0233178
1014.404 .0233179
1014.997 .0233194
1015.589 .0233222
1016.181 .0233274
1016.773 .0233340
1017.365 .0233419
1017.956 .0233501
1018.547 .0233587
1019.138 .0233673
1019.728 .0233753
1020.319 .0233836
1020.909 .0233922
1021.499 .0234007
1022.088 .0234100
1022.678 .0234189
1023.267 .0234280
1023.856 .0234364
1024.445 .0234427
1025.033 .0234471
1025.621 .0234499
1026.209 .0234500
1026.797 .0234475
1027.385 .0234417
1027.972 .0234343
1028.560 .0234248
1029.147 .0234139
1029.734 .0234023
1030.320 .0233909
1030.907 .0233805
1031.493 .0233721
1032.079 .0233651
1032.665 .0233608
1033.250 .0233582
1033.836 .0233580
1034.421 .0233592
1035.006 .0233615
1035.591 .0233646
1036.176 .0233689
1036.761 .0233740
1037.345 .0233808
1037.929 .0233881
1038.514 .0233973
1039.097 .0234081
1039.681 .0234201
1040.265 .0234321
1040.848 .0234435
1041.432 .0234528
1042.015 .0234592
1042.598 .0234620
1043.181 .0234614
1043.764 .0234589
1044.346 .0234568
1044.929 .0234555
1045.511 .0234564
1046.094 .0234596
1046.676 .0234653
1047.258 .0234719
1047.840 .0234793
1048.422 .0234858
1049.003 .0234911
1049.585 .0234961
1050.166 .0234997
1050.748 .0235035
1051.329 .0235077
1051.910 .0235134
1052.491 .0235187
1053.072 .0235245
1053.653 .0235296
1054.234 .0235328
1054.815 .0235342
1055.396 .0235342
1055.976 .0235315
1056.557 .0235277
1057.138 .0235237
1057.718 .0235185
1058.298 .0235122
1058.879 .0235065
1059.459 .0234986
1060.039 .0234903
1060.620 .0234805
1061.200 .0234708
1061.780 .0234603
1062.360 .0234525
1062.940 .0234467
1063.520 .0234413
1064.101 .0234396
1064.681 .0234395
1065.261 .0234389
1065.841 .0234394
1066.421 .0234384
1067.001 .0234357
1067.581 .0234305
1068.161 .0234227
1068.741 .0234104
1069.321 .0233950
1069.901 .0233781
1070.482 .0233594
1071.062 .0233409
1071.642 .0233256
1072.222 .0233131
1072.803 .0233055
1073.383 .0233041
1073.963 .0233051
1074.544 .0233079
1075.124 .0233113
1075.705 .0233127
1076.286 .0233116
1076.866 .0233096
1077.447 .0233083
1078.028 .0233090
1078.609 .0233143
1079.190 .0233247
1079.771 .0233396
1080.352 .0233598
1080.934 .0233814
1081.515 .0234018
1082.097 .0234208
1082.679 .0234357
1083.260 .0234451
1083.842 .0234504
1084.424 .0234525
1085.007 .0234542
1085.589 .0234585
1086.172 .0234664
1086.754 .0234769
1087.337 .0234930
1087.920 .0235131
1088.503 .0235331
1089.087 .0235532
1089.670 .0235709
1090.254 .0235856
1090.838 .0235980
1091.422 .0236049
1092.006 .0236075
1092.590 .0236073
1093.175 .0236070
1093.760 .0236027
1094.345 .0235946
1094.930 .0235826
1095.516 .0235639
1096.102 .0235410
1096.688 .0235155
1097.274 .0234865
1097.860 .0234567
1098.447 .0234275
1099.034 .0234006
1099.622 .0233770
1100.209 .0233568
1100.797 .0233393
1101.385 .0233243
1101.973 .0233096
1102.562 .0232926
1103.151 .0232727
1103.740 .0232539
1104.330 .0232376
1104.920 .0232249
1105.510 .0232174
1106.101 .0232156
1106.691 .0232202
1107.283 .0232309
1107.874 .0232441
1108.466 .0232584
1109.058 .0232714
1109.651 .0232805
1110.244 .0232834
1110.837 .0232812
1111.431 .0232739
1112.025 .0232647
1112.620 .0232560
1113.215 .0232489
1113.810 .0232457
1114.406 .0232499
1115.002 .0232572
1115.599 .0232649
1116.196 .0232702
1116.793 .0232705
1117.391 .0232599
1117.989 .0232407
1118.588 .0232157
1119.187 .0231870
1119.787 .0231611
1120.387 .0231415
1120.988 .0231327
1121.589 .0231378
1122.190 .0231538
1122.793 .0231770
1123.395 .0232005
1123.998 .0232209
1124.602 .0232335
1125.206 .0232385
1125.811 .0232410
1126.416 .0232442
1127.022 .0232503
1127.628 .0232669
1128.235 .0232979
1128.843 .0233380
1129.451 .0233848
1130.059 .0234321
1130.669 .0234744
1131.278 .0235059
1131.889 .0235256
1132.500 .0235364
1133.112 .0235422
1133.724 .0235508
1134.337 .0235611
1134.950 .0235777
1135.564 .0236083
1136.179 .0236492
1136.795 .0237020
1137.411 .0237656
1138.028 .0238359
1138.645 .0239165
1139.263 .0240076
1139.882 .0241062
1140.502 .0242147
1141.122 .0243398
1141.743 .0244985
1142.365 .0246635
1142.987 .0247014
1143.611 .0249107
1144.235 .0252222
1144.859 .0259360
1145.485 .0255670
