Measurement Sequence started on: 10-20-44-796
Integration time: 35
Scans to Average: 2 
>>>>>Begin Spectral Data<<<<<
432.953 .0400343
433.882 .0364843
434.810 .0355064
435.737 .0390326
436.662 .0362971
437.586 .0375202
438.509 .0375222
439.431 .0376421
440.351 .0377762
441.269 .0378298
442.187 .0379662
443.103 .0380747
444.018 .0381819
444.932 .0383132
445.844 .0384177
446.756 .0385001
447.666 .0385642
448.575 .0385968
449.482 .0386251
450.388 .0386401
451.294 .0386454
452.198 .0386422
453.100 .0386208
454.002 .0385940
454.902 .0385697
455.801 .0385423
456.699 .0385106
457.596 .0384758
458.492 .0384326
459.387 .0383675
460.280 .0383041
461.172 .0382272
462.064 .0381373
462.954 .0380332
463.843 .0379256
464.730 .0378122
465.617 .0377025
466.503 .0376042
467.387 .0375149
468.271 .0374374
469.153 .0373663
470.035 .0372944
470.915 .0372257
471.794 .0371542
472.673 .0370819
473.550 .0370068
474.426 .0369382
475.301 .0368742
476.175 .0368217
477.048 .0367803
477.920 .0367503
478.791 .0367273
479.661 .0367092
480.530 .0366937
481.398 .0366767
482.266 .0366626
483.132 .0366526
483.997 .0366480
484.861 .0366490
485.724 .0366541
486.587 .0366626
487.448 .0366676
488.308 .0366687
489.168 .0366644
490.026 .0366537
490.884 .0366359
491.741 .0366131
492.597 .0365873
493.452 .0365605
494.306 .0365349
495.159 .0365081
496.011 .0364804
496.862 .0364480
497.713 .0364058
498.562 .0363515
499.411 .0362862
500.259 .0362129
501.106 .0361323
501.952 .0360511
502.798 .0359709
503.642 .0358941
504.486 .0358195
505.329 .0357489
506.171 .0356798
507.012 .0356098
507.852 .0355350
508.692 .0354560
509.531 .0353684
510.369 .0352749
511.206 .0351753
512.043 .0350711
512.878 .0349611
513.713 .0348481
514.547 .0347331
515.381 .0346171
516.213 .0344972
517.045 .0343725
517.876 .0342388
518.706 .0340967
519.536 .0339369
520.365 .0337629
521.193 .0335805
522.020 .0333945
522.847 .0332026
523.673 .0330145
524.498 .0328317
525.323 .0326502
526.146 .0324815
526.969 .0323213
527.792 .0321666
528.614 .0320145
529.435 .0318649
530.255 .0317178
531.075 .0315758
531.894 .0314448
532.712 .0313202
533.530 .0312129
534.347 .0311228
535.163 .0310385
535.979 .0309689
536.794 .0309190
537.608 .0308824
538.422 .0308531
539.235 .0308357
540.048 .0308155
540.860 .0307993
541.671 .0307876
542.481 .0307705
543.292 .0307541
544.101 .0307388
544.910 .0307203
545.718 .0306962
546.526 .0306740
547.333 .0306550
548.139 .0306336
548.945 .0306249
549.750 .0306110
550.555 .0305953
551.359 .0305839
552.162 .0305772
552.965 .0305719
553.768 .0305775
554.569 .0305960
555.371 .0306226
556.171 .0306557
556.972 .0306994
557.771 .0307451
558.570 .0307985
559.369 .0308547
560.167 .0309143
560.964 .0309728
561.761 .0310364
562.558 .0310977
563.354 .0311609
564.149 .0312253
564.944 .0312901
565.738 .0313498
566.532 .0314116
567.325 .0314721
568.118 .0315289
568.910 .0315859
569.702 .0316456
570.494 .0317059
571.285 .0317687
572.075 .0318299
572.865 .0318917
573.654 .0319509
574.443 .0320123
575.232 .0320724
576.020 .0321318
576.807 .0321951
577.594 .0322577
578.381 .0323197
579.167 .0323823
579.952 .0324439
580.738 .0325035
581.522 .0325590
582.307 .0326109
583.091 .0326562
583.874 .0326954
584.657 .0327311
585.440 .0327622
586.222 .0327903
587.004 .0328167
587.785 .0328395
588.566 .0328583
589.346 .0328746
590.126 .0328872
590.906 .0328959
591.685 .0329032
592.464 .0329085
593.242 .0329132
594.020 .0329180
594.797 .0329237
595.575 .0329300
596.351 .0329371
597.128 .0329440
597.904 .0329488
598.679 .0329501
599.454 .0329472
600.229 .0329399
601.004 .0329287
601.778 .0329133
602.551 .0328951
603.325 .0328744
604.097 .0328520
604.870 .0328275
605.642 .0328019
606.414 .0327748
607.185 .0327457
607.956 .0327154
608.727 .0326830
609.497 .0326501
610.267 .0326171
611.037 .0325842
611.806 .0325531
612.575 .0325241
613.344 .0324975
614.112 .0324729
614.880 .0324508
615.647 .0324305
616.414 .0324106
617.181 .0323918
617.948 .0323734
618.714 .0323551
619.480 .0323369
620.245 .0323190
621.011 .0323005
621.775 .0322818
622.540 .0322623
623.304 .0322417
624.068 .0322206
624.832 .0321984
625.595 .0321753
626.358 .0321508
627.120 .0321263
627.883 .0321007
628.645 .0320748
629.406 .0320494
630.168 .0320236
630.929 .0319975
631.689 .0319717
632.450 .0319452
633.210 .0319189
633.970 .0318925
634.729 .0318666
635.489 .0318400
636.248 .0318139
637.006 .0317872
637.765 .0317601
638.523 .0317329
639.280 .0317051
640.038 .0316757
640.795 .0316465
641.552 .0316168
642.309 .0315877
643.065 .0315594
643.821 .0315325
644.577 .0315058
645.332 .0314804
646.088 .0314554
646.843 .0314301
647.597 .0314043
648.352 .0313792
649.106 .0313540
649.860 .0313301
650.613 .0313070
651.367 .0312851
652.120 .0312649
652.872 .0312467
653.625 .0312286
654.377 .0312112
655.129 .0311940
655.881 .0311764
656.632 .0311581
657.384 .0311399
658.135 .0311216
658.885 .0311032
659.636 .0310858
660.386 .0310691
661.136 .0310529
661.885 .0310374
662.635 .0310222
663.384 .0310075
664.133 .0309929
664.881 .0309782
665.630 .0309636
666.378 .0309496
667.126 .0309367
667.874 .0309239
668.621 .0309119
669.368 .0309013
670.115 .0308908
670.862 .0308804
671.608 .0308706
672.354 .0308613
673.100 .0308520
673.846 .0308431
674.591 .0308342
675.337 .0308253
676.082 .0308160
676.826 .0308063
677.571 .0307960
678.315 .0307853
679.059 .0307739
679.803 .0307610
680.547 .0307475
681.290 .0307332
682.033 .0307170
682.776 .0306999
683.518 .0306819
684.261 .0306627
685.003 .0306426
685.745 .0306221
686.487 .0306015
687.228 .0305811
687.969 .0305606
688.710 .0305399
689.451 .0305187
690.192 .0304972
690.932 .0304746
691.672 .0304514
692.412 .0304279
693.152 .0304037
693.891 .0303793
694.630 .0303551
695.369 .0303308
696.108 .0303067
696.846 .0302823
697.585 .0302574
698.323 .0302319
699.061 .0302053
699.798 .0301775
700.536 .0301491
701.273 .0301203
702.010 .0300917
702.746 .0300632
703.483 .0300364
704.219 .0300111
704.955 .0299877
705.691 .0299660
706.427 .0299460
707.162 .0299269
707.897 .0299083
708.632 .0298895
709.367 .0298704
710.101 .0298500
710.835 .0298285
711.569 .0298058
712.303 .0297829
713.037 .0297601
713.770 .0297378
714.503 .0297156
715.236 .0296942
715.969 .0296725
716.702 .0296502
717.434 .0296269
718.166 .0296026
718.898 .0295766
719.629 .0295496
720.361 .0295223
721.092 .0294957
721.823 .0294703
722.554 .0294471
723.284 .0294260
724.014 .0294064
724.744 .0293871
725.474 .0293675
726.204 .0293469
726.933 .0293259
727.662 .0293033
728.391 .0292802
729.120 .0292572
729.849 .0292349
730.577 .0292135
731.305 .0291930
732.033 .0291737
732.760 .0291555
733.488 .0291371
734.215 .0291185
734.942 .0290995
735.669 .0290798
736.395 .0290599
737.122 .0290398
737.848 .0290196
738.573 .0289994
739.299 .0289794
740.024 .0289597
740.750 .0289404
741.474 .0289213
742.199 .0289027
742.924 .0288839
743.648 .0288657
744.372 .0288474
745.096 .0288291
745.819 .0288110
746.543 .0287929
747.266 .0287749
747.989 .0287571
748.711 .0287389
749.434 .0287213
750.156 .0287045
750.878 .0286891
751.599 .0286752
752.321 .0286628
753.042 .0286520
753.763 .0286424
754.484 .0286332
755.205 .0286239
755.925 .0286142
756.645 .0286040
757.365 .0285930
758.085 .0285812
758.804 .0285691
759.523 .0285571
760.242 .0285451
760.961 .0285333
761.679 .0285212
762.397 .0285083
763.115 .0284943
763.833 .0284785
764.551 .0284610
765.268 .0284418
765.985 .0284213
766.702 .0284001
767.418 .0283787
768.134 .0283574
768.850 .0283369
769.566 .0283172
770.282 .0282982
770.997 .0282796
771.712 .0282615
772.427 .0282441
773.142 .0282275
773.856 .0282116
774.570 .0281969
775.284 .0281832
775.998 .0281707
776.711 .0281592
777.424 .0281487
778.137 .0281388
778.849 .0281293
779.562 .0281205
780.274 .0281119
780.986 .0281036
781.697 .0280958
782.409 .0280888
783.120 .0280828
783.831 .0280773
784.541 .0280721
785.252 .0280677
785.962 .0280639
786.671 .0280596
787.381 .0280547
788.090 .0280493
788.799 .0280429
789.508 .0280346
790.217 .0280248
790.925 .0280136
791.633 .0280010
792.341 .0279874
793.048 .0279725
793.755 .0279566
794.462 .0279402
795.169 .0279231
795.875 .0279054
796.581 .0278881
797.287 .0278705
797.993 .0278531
798.698 .0278366
799.403 .0278213
800.108 .0278075
800.812 .0277950
801.517 .0277842
802.221 .0277744
802.924 .0277655
803.628 .0277573
804.331 .0277493
805.034 .0277420
805.736 .0277346
806.439 .0277269
807.141 .0277186
807.843 .0277099
808.544 .0277001
809.245 .0276895
809.946 .0276777
810.647 .0276651
811.347 .0276517
812.047 .0276379
812.747 .0276242
813.447 .0276104
814.146 .0275967
814.845 .0275836
815.543 .0275706
816.242 .0275582
816.940 .0275458
817.638 .0275338
818.335 .0275221
819.032 .0275108
819.729 .0274995
820.426 .0274882
821.122 .0274764
821.818 .0274640
822.514 .0274508
823.209 .0274366
823.905 .0274214
824.599 .0274047
825.294 .0273873
825.988 .0273690
826.682 .0273499
827.376 .0273305
828.069 .0273114
828.762 .0272923
829.455 .0272734
830.147 .0272548
830.840 .0272367
831.531 .0272190
832.223 .0272018
832.914 .0271850
833.605 .0271693
834.296 .0271546
834.986 .0271412
835.676 .0271290
836.366 .0271187
837.055 .0271087
837.744 .0270991
838.433 .0270895
839.121 .0270792
839.809 .0270677
840.497 .0270549
841.185 .0270409
841.872 .0270264
842.559 .0270115
843.245 .0269966
843.932 .0269823
844.617 .0269693
845.303 .0269563
845.988 .0269435
846.673 .0269304
847.358 .0269172
848.042 .0269035
848.726 .0268900
849.410 .0268766
850.093 .0268638
850.776 .0268525
851.459 .0268421
852.141 .0268327
852.823 .0268240
853.505 .0268148
854.186 .0268048
854.867 .0267937
855.548 .0267811
856.228 .0267669
856.908 .0267521
857.588 .0267370
858.267 .0267214
858.946 .0267059
859.625 .0266908
860.303 .0266762
860.981 .0266619
861.659 .0266478
862.336 .0266327
863.013 .0266170
863.690 .0266008
864.366 .0265841
865.042 .0265672
865.718 .0265504
866.393 .0265343
867.068 .0265188
867.743 .0265043
868.417 .0264911
869.091 .0264787
869.765 .0264671
870.438 .0264555
871.111 .0264436
871.783 .0264313
872.456 .0264189
873.127 .0264060
873.799 .0263933
874.470 .0263805
875.141 .0263678
875.811 .0263552
876.481 .0263435
877.151 .0263328
877.820 .0263226
878.489 .0263128
879.158 .0263033
879.826 .0262936
880.494 .0262836
881.162 .0262731
881.829 .0262621
882.496 .0262502
883.163 .0262376
883.829 .0262242
884.495 .0262108
885.160 .0261980
885.825 .0261861
886.490 .0261757
887.154 .0261666
887.818 .0261587
888.482 .0261519
889.145 .0261459
889.808 .0261407
890.471 .0261351
891.133 .0261296
891.795 .0261239
892.456 .0261184
893.117 .0261128
893.778 .0261076
894.439 .0261033
895.099 .0260991
895.758 .0260947
896.417 .0260901
897.076 .0260850
897.735 .0260790
898.393 .0260722
899.051 .0260643
899.708 .0260549
900.365 .0260447
901.022 .0260337
901.678 .0260226
902.334 .0260112
902.990 .0259999
903.645 .0259880
904.300 .0259765
904.954 .0259650
905.608 .0259530
906.262 .0259412
906.915 .0259300
907.568 .0259184
908.221 .0259070
908.873 .0258960
909.525 .0258852
910.176 .0258744
910.828 .0258636
911.478 .0258523
912.129 .0258409
912.778 .0258292
913.428 .0258171
914.077 .0258050
914.726 .0257932
915.375 .0257815
916.023 .0257697
916.670 .0257588
917.318 .0257482
917.964 .0257376
918.611 .0257270
919.257 .0257164
919.903 .0257055
920.548 .0256942
921.193 .0256831
921.838 .0256725
922.482 .0256624
923.126 .0256529
923.770 .0256437
924.413 .0256355
925.056 .0256279
925.698 .0256205
926.340 .0256134
926.982 .0256066
927.623 .0255995
928.264 .0255917
928.904 .0255834
929.544 .0255748
930.184 .0255657
930.823 .0255559
931.462 .0255461
932.101 .0255362
932.739 .0255258
933.377 .0255151
934.014 .0255035
934.651 .0254909
935.288 .0254769
935.924 .0254617
936.560 .0254459
937.196 .0254299
937.831 .0254139
938.466 .0253982
939.100 .0253837
939.734 .0253703
940.368 .0253571
941.001 .0253444
941.634 .0253319
942.266 .0253193
942.899 .0253060
943.530 .0252925
944.162 .0252787
944.793 .0252649
945.423 .0252506
946.053 .0252358
946.683 .0252204
947.313 .0252046
947.942 .0251876
948.571 .0251695
949.199 .0251502
949.827 .0251297
950.455 .0251082
951.082 .0250866
951.709 .0250646
952.335 .0250434
952.961 .0250229
953.587 .0250038
954.212 .0249858
954.837 .0249691
955.462 .0249537
956.086 .0249398
956.710 .0249278
957.334 .0249177
957.957 .0249090
958.579 .0249024
959.202 .0248974
959.824 .0248937
960.445 .0248907
961.067 .0248882
961.688 .0248860
962.308 .0248838
962.928 .0248808
963.548 .0248766
964.168 .0248709
964.787 .0248640
965.406 .0248558
966.024 .0248463
966.642 .0248356
967.260 .0248240
967.877 .0248114
968.494 .0247977
969.110 .0247831
969.727 .0247678
970.342 .0247524
970.958 .0247369
971.573 .0247221
972.188 .0247075
972.802 .0246939
973.416 .0246815
974.030 .0246703
974.643 .0246599
975.256 .0246508
975.869 .0246422
976.481 .0246344
977.093 .0246275
977.705 .0246213
978.316 .0246162
978.927 .0246121
979.538 .0246089
980.148 .0246061
980.758 .0246036
981.367 .0246016
981.977 .0245998
982.586 .0245988
983.194 .0245982
983.802 .0245982
984.410 .0245979
985.018 .0245972
985.625 .0245960
986.232 .0245939
986.838 .0245911
987.445 .0245874
988.050 .0245831
988.656 .0245782
989.261 .0245727
989.866 .0245661
990.471 .0245591
991.075 .0245515
991.679 .0245429
992.282 .0245332
992.886 .0245226
993.489 .0245118
994.091 .0245013
994.694 .0244916
995.296 .0244830
995.897 .0244757
996.499 .0244700
997.100 .0244654
997.701 .0244620
998.301 .0244598
998.901 .0244590
999.501 .0244602
1000.101 .0244629
1000.700 .0244666
1001.299 .0244715
1001.898 .0244773
1002.496 .0244838
1003.094 .0244900
1003.692 .0244959
1004.289 .0245015
1004.887 .0245065
1005.484 .0245109
1006.080 .0245144
1006.677 .0245176
1007.273 .0245200
1007.868 .0245217
1008.464 .0245228
1009.059 .0245224
1009.654 .0245209
1010.249 .0245188
1010.843 .0245165
1011.437 .0245137
1012.031 .0245106
1012.625 .0245077
1013.218 .0245051
1013.811 .0245030
1014.404 .0245010
1014.997 .0244999
1015.589 .0245001
1016.181 .0245014
1016.773 .0245027
1017.365 .0245050
1017.956 .0245079
1018.547 .0245110
1019.138 .0245138
1019.728 .0245169
1020.319 .0245198
1020.909 .0245226
1021.499 .0245240
1022.088 .0245243
1022.678 .0245234
1023.267 .0245217
1023.856 .0245176
1024.445 .0245121
1025.033 .0245054
1025.621 .0244979
1026.209 .0244903
1026.797 .0244833
1027.385 .0244766
1027.972 .0244704
1028.560 .0244645
1029.147 .0244589
1029.734 .0244532
1030.320 .0244476
1030.907 .0244419
1031.493 .0244376
1032.079 .0244344
1032.665 .0244322
1033.250 .0244310
1033.836 .0244313
1034.421 .0244325
1035.006 .0244337
1035.591 .0244339
1036.176 .0244334
1036.761 .0244320
1037.345 .0244300
1037.929 .0244267
1038.514 .0244230
1039.097 .0244191
1039.681 .0244157
1040.265 .0244126
1040.848 .0244098
1041.432 .0244071
1042.015 .0244046
1042.598 .0244021
1043.181 .0244001
1043.764 .0243982
1044.346 .0243965
1044.929 .0243957
1045.511 .0243959
1046.094 .0243961
1046.676 .0243967
1047.258 .0243969
1047.840 .0243972
1048.422 .0243967
1049.003 .0243958
1049.585 .0243932
1050.166 .0243893
1050.748 .0243856
1051.329 .0243813
1051.910 .0243765
1052.491 .0243720
1053.072 .0243662
1053.653 .0243599
1054.234 .0243531
1054.815 .0243446
1055.396 .0243348
1055.976 .0243257
1056.557 .0243161
1057.138 .0243071
1057.718 .0242985
1058.298 .0242919
1058.879 .0242859
1059.459 .0242811
1060.039 .0242759
1060.620 .0242690
1061.200 .0242613
1061.780 .0242528
1062.360 .0242426
1062.940 .0242331
1063.520 .0242235
1064.101 .0242150
1064.681 .0242065
1065.261 .0241982
1065.841 .0241882
1066.421 .0241785
1067.001 .0241667
1067.581 .0241543
1068.161 .0241405
1068.741 .0241275
1069.321 .0241152
1069.901 .0241047
1070.482 .0240957
1071.062 .0240876
1071.642 .0240806
1072.222 .0240744
1072.803 .0240668
1073.383 .0240595
1073.963 .0240513
1074.544 .0240436
1075.124 .0240349
1075.705 .0240262
1076.286 .0240167
1076.866 .0240092
1077.447 .0240025
1078.028 .0239962
1078.609 .0239905
1079.190 .0239861
1079.771 .0239827
1080.352 .0239790
1080.934 .0239753
1081.515 .0239728
1082.097 .0239714
1082.679 .0239723
1083.260 .0239744
1083.842 .0239793
1084.424 .0239871
1085.007 .0239962
1085.589 .0240050
1086.172 .0240124
1086.754 .0240179
1087.337 .0240220
1087.920 .0240245
1088.503 .0240271
1089.087 .0240307
1089.670 .0240358
1090.254 .0240427
1090.838 .0240505
1091.422 .0240576
1092.006 .0240602
1092.590 .0240585
1093.175 .0240515
1093.760 .0240396
1094.345 .0240241
1094.930 .0240078
1095.516 .0239928
1096.102 .0239814
1096.688 .0239728
1097.274 .0239676
1097.860 .0239648
1098.447 .0239617
1099.034 .0239553
1099.622 .0239453
1100.209 .0239331
1100.797 .0239193
1101.385 .0239037
1101.973 .0238923
1102.562 .0238837
1103.151 .0238801
1103.740 .0238795
1104.330 .0238815
1104.920 .0238862
1105.510 .0238899
1106.101 .0238908
1106.691 .0238890
1107.283 .0238863
1107.874 .0238849
1108.466 .0238830
1109.058 .0238838
1109.651 .0238869
1110.244 .0238925
1110.837 .0239000
1111.431 .0239085
1112.025 .0239179
1112.620 .0239282
1113.215 .0239378
1113.810 .0239461
1114.406 .0239537
1115.002 .0239600
1115.599 .0239659
1116.196 .0239741
1116.793 .0239822
1117.391 .0239901
1117.989 .0239958
1118.588 .0240030
1119.187 .0240130
1119.787 .0240239
1120.387 .0240319
1120.988 .0240381
1121.589 .0240450
1122.190 .0240483
1122.793 .0240460
1123.395 .0240413
1123.998 .0240362
1124.602 .0240309
1125.206 .0240258
1125.811 .0240249
1126.416 .0240311
1127.022 .0240495
1127.628 .0240744
1128.235 .0241029
1128.843 .0241358
1129.451 .0241639
1130.059 .0241872
1130.669 .0242075
1131.278 .0242251
1131.889 .0242390
1132.500 .0242530
1133.112 .0242760
1133.724 .0243102
1134.337 .0243584
1134.950 .0244210
1135.564 .0244959
1136.179 .0245818
1136.795 .0246710
1137.411 .0247599
1138.028 .0248476
1138.645 .0249381
1139.263 .0250335
1139.882 .0251329
1140.502 .0252497
1141.122 .0253766
1141.743 .0255117
1142.365 .0256704
1142.987 .0258196
1143.611 .0262069
1144.235 .0261169
1144.859 .0261030
1145.485 .0267025
