Measurement Sequence started on: 10-20-44-796
Integration time: 35
Scans to Average: 2 
>>>>>Begin Spectral Data<<<<<
432.953 .0421803
433.882 .0320829
434.810 .0313876
435.737 .0321281
436.662 .0316704
437.586 .0318759
438.509 .0314329
439.431 .0313694
440.351 .0313316
441.269 .0312868
442.187 .0312662
443.103 .0312750
444.018 .0312653
444.932 .0312762
445.844 .0312877
446.756 .0313023
447.666 .0313219
448.575 .0313375
449.482 .0313532
450.388 .0313672
451.294 .0313835
452.198 .0313974
453.100 .0314081
454.002 .0314243
454.902 .0314356
455.801 .0314473
456.699 .0314630
457.596 .0314773
458.492 .0314908
459.387 .0315000
460.280 .0315089
461.172 .0315033
462.064 .0314909
462.954 .0314636
463.843 .0314228
464.730 .0313759
465.617 .0313258
466.503 .0312746
467.387 .0312249
468.271 .0311768
469.153 .0311325
470.035 .0310920
470.915 .0310548
471.794 .0310153
472.673 .0309751
473.550 .0309339
474.426 .0308937
475.301 .0308582
476.175 .0308302
477.048 .0308092
477.920 .0307967
478.791 .0307896
479.661 .0307871
480.530 .0307865
481.398 .0307822
482.266 .0307778
483.132 .0307720
483.997 .0307629
484.861 .0307527
485.724 .0307441
486.587 .0307398
487.448 .0307371
488.308 .0307353
489.168 .0307341
490.026 .0307314
490.884 .0307298
491.741 .0307233
492.597 .0307140
493.452 .0307037
494.306 .0306873
495.159 .0306659
496.011 .0306422
496.862 .0306154
497.713 .0305833
498.562 .0305445
499.411 .0305029
500.259 .0304554
501.106 .0304009
501.952 .0303440
502.798 .0302811
503.642 .0302169
504.486 .0301473
505.329 .0300713
506.171 .0299927
507.012 .0299141
507.852 .0298330
508.692 .0297481
509.531 .0296631
510.369 .0295787
511.206 .0294892
512.043 .0293994
512.878 .0293041
513.713 .0292009
514.547 .0290890
515.381 .0289700
516.213 .0288415
517.045 .0287107
517.876 .0285726
518.706 .0284287
519.536 .0282816
520.365 .0281333
521.193 .0279770
522.020 .0278155
522.847 .0276498
523.673 .0274794
524.498 .0272984
525.323 .0271139
526.146 .0269312
526.969 .0267593
527.792 .0265906
528.614 .0264294
529.435 .0262753
530.255 .0261280
531.075 .0259793
531.894 .0258288
532.712 .0256787
533.530 .0255276
534.347 .0253752
535.163 .0252264
535.979 .0250946
536.794 .0249915
537.608 .0249116
538.422 .0248638
539.235 .0248474
540.048 .0248548
540.860 .0248812
541.671 .0249218
542.481 .0249765
543.292 .0250398
544.101 .0251110
544.910 .0251864
545.718 .0252677
546.526 .0253568
547.333 .0254486
548.139 .0255405
548.945 .0256335
549.750 .0257161
550.555 .0257913
551.359 .0258628
552.162 .0259285
552.965 .0259903
553.768 .0260504
554.569 .0261108
555.371 .0261720
556.171 .0262297
556.972 .0262885
557.771 .0263438
558.570 .0264027
559.369 .0264600
560.167 .0265165
560.964 .0265758
561.761 .0266370
562.558 .0266988
563.354 .0267618
564.149 .0268231
564.944 .0268855
565.738 .0269453
566.532 .0270029
567.325 .0270599
568.118 .0271177
568.910 .0271775
569.702 .0272391
570.494 .0273023
571.285 .0273677
572.075 .0274309
572.865 .0274949
573.654 .0275583
574.443 .0276223
575.232 .0276891
576.020 .0277595
576.807 .0278354
577.594 .0279153
578.381 .0279989
579.167 .0280845
579.952 .0281709
580.738 .0282558
581.522 .0283354
582.307 .0284105
583.091 .0284812
583.874 .0285480
584.657 .0286083
585.440 .0286651
586.222 .0287171
587.004 .0287632
587.785 .0288037
588.566 .0288387
589.346 .0288686
590.126 .0288940
590.906 .0289159
591.685 .0289343
592.464 .0289494
593.242 .0289621
594.020 .0289720
594.797 .0289794
595.575 .0289835
596.351 .0289852
597.128 .0289838
597.904 .0289815
598.679 .0289793
599.454 .0289780
600.229 .0289787
601.004 .0289811
601.778 .0289847
602.551 .0289878
603.325 .0289900
604.097 .0289904
604.870 .0289875
605.642 .0289833
606.414 .0289776
607.185 .0289709
607.956 .0289656
608.727 .0289619
609.497 .0289590
610.267 .0289569
611.037 .0289546
611.806 .0289504
612.575 .0289438
613.344 .0289354
614.112 .0289247
614.880 .0289127
615.647 .0289006
616.414 .0288887
617.181 .0288772
617.948 .0288675
618.714 .0288576
619.480 .0288474
620.245 .0288370
621.011 .0288252
621.775 .0288125
622.540 .0287997
623.304 .0287875
624.068 .0287763
624.832 .0287665
625.595 .0287582
626.358 .0287504
627.120 .0287432
627.883 .0287357
628.645 .0287272
629.406 .0287175
630.168 .0287064
630.929 .0286945
631.689 .0286822
632.450 .0286701
633.210 .0286584
633.970 .0286469
634.729 .0286350
635.489 .0286221
636.248 .0286079
637.006 .0285920
637.765 .0285750
638.523 .0285565
639.280 .0285373
640.038 .0285182
640.795 .0285000
641.552 .0284830
642.309 .0284679
643.065 .0284543
643.821 .0284414
644.577 .0284290
645.332 .0284167
646.088 .0284037
646.843 .0283903
647.597 .0283762
648.352 .0283623
649.106 .0283487
649.860 .0283358
650.613 .0283239
651.367 .0283134
652.120 .0283040
652.872 .0282948
653.625 .0282854
654.377 .0282761
655.129 .0282662
655.881 .0282562
656.632 .0282461
657.384 .0282363
658.135 .0282271
658.885 .0282182
659.636 .0282090
660.386 .0281995
661.136 .0281892
661.885 .0281774
662.635 .0281645
663.384 .0281506
664.133 .0281354
664.881 .0281196
665.630 .0281039
666.378 .0280886
667.126 .0280736
667.874 .0280588
668.621 .0280442
669.368 .0280297
670.115 .0280160
670.862 .0280018
671.608 .0279880
672.354 .0279754
673.100 .0279635
673.846 .0279524
674.591 .0279420
675.337 .0279321
676.082 .0279223
676.826 .0279130
677.571 .0279034
678.315 .0278934
679.059 .0278836
679.803 .0278733
680.547 .0278629
681.290 .0278518
682.033 .0278401
682.776 .0278271
683.518 .0278135
684.261 .0277989
685.003 .0277835
685.745 .0277680
686.487 .0277529
687.228 .0277391
687.969 .0277263
688.710 .0277140
689.451 .0277023
690.192 .0276909
690.932 .0276792
691.672 .0276665
692.412 .0276531
693.152 .0276386
693.891 .0276238
694.630 .0276088
695.369 .0275936
696.108 .0275792
696.846 .0275658
697.585 .0275527
698.323 .0275400
699.061 .0275273
699.798 .0275141
700.536 .0275003
701.273 .0274863
702.010 .0274714
702.746 .0274562
703.483 .0274405
704.219 .0274250
704.955 .0274100
705.691 .0273960
706.427 .0273827
707.162 .0273698
707.897 .0273575
708.632 .0273455
709.367 .0273331
710.101 .0273204
710.835 .0273078
711.569 .0272949
712.303 .0272817
713.037 .0272684
713.770 .0272552
714.503 .0272418
715.236 .0272286
715.969 .0272153
716.702 .0272015
717.434 .0271876
718.166 .0271737
718.898 .0271595
719.629 .0271459
720.361 .0271329
721.092 .0271197
721.823 .0271064
722.554 .0270930
723.284 .0270784
724.014 .0270626
724.744 .0270453
725.474 .0270265
726.204 .0270066
726.933 .0269864
727.662 .0269656
728.391 .0269455
729.120 .0269262
729.849 .0269073
730.577 .0268884
731.305 .0268700
732.033 .0268512
732.760 .0268315
733.488 .0268110
734.215 .0267905
734.942 .0267700
735.669 .0267501
736.395 .0267306
737.122 .0267122
737.848 .0266948
738.573 .0266776
739.299 .0266602
740.024 .0266424
740.750 .0266239
741.474 .0266049
742.199 .0265854
742.924 .0265658
743.648 .0265466
744.372 .0265280
745.096 .0265105
745.819 .0264940
746.543 .0264780
747.266 .0264624
747.989 .0264475
748.711 .0264334
749.434 .0264202
750.156 .0264082
750.878 .0263983
751.599 .0263907
752.321 .0263854
753.042 .0263822
753.763 .0263805
754.484 .0263800
755.205 .0263802
755.925 .0263797
756.645 .0263786
757.365 .0263764
758.085 .0263732
758.804 .0263688
759.523 .0263627
760.242 .0263549
760.961 .0263451
761.679 .0263331
762.397 .0263187
763.115 .0263016
763.833 .0262823
764.551 .0262609
765.268 .0262375
765.985 .0262127
766.702 .0261869
767.418 .0261603
768.134 .0261337
768.850 .0261068
769.566 .0260804
770.282 .0260542
770.997 .0260287
771.712 .0260041
772.427 .0259807
773.142 .0259590
773.856 .0259384
774.570 .0259191
775.284 .0259012
775.998 .0258831
776.711 .0258655
777.424 .0258483
778.137 .0258312
778.849 .0258142
779.562 .0257976
780.274 .0257817
780.986 .0257667
781.697 .0257522
782.409 .0257383
783.120 .0257247
783.831 .0257119
784.541 .0256988
785.252 .0256858
785.962 .0256737
786.671 .0256621
787.381 .0256506
788.090 .0256399
788.799 .0256295
789.508 .0256189
790.217 .0256076
790.925 .0255956
791.633 .0255828
792.341 .0255689
793.048 .0255540
793.755 .0255384
794.462 .0255224
795.169 .0255059
795.875 .0254893
796.581 .0254731
797.287 .0254575
797.993 .0254422
798.698 .0254277
799.403 .0254140
800.108 .0254010
800.812 .0253885
801.517 .0253766
802.221 .0253654
802.924 .0253543
803.628 .0253432
804.331 .0253323
805.034 .0253217
805.736 .0253115
806.439 .0253018
807.141 .0252930
807.843 .0252850
808.544 .0252776
809.245 .0252702
809.946 .0252625
810.647 .0252546
811.347 .0252457
812.047 .0252360
812.747 .0252259
813.447 .0252157
814.146 .0252060
814.845 .0251973
815.543 .0251895
816.242 .0251826
816.940 .0251762
817.638 .0251697
818.335 .0251624
819.032 .0251543
819.729 .0251449
820.426 .0251341
821.122 .0251222
821.818 .0251094
822.514 .0250960
823.209 .0250825
823.905 .0250692
824.599 .0250555
825.294 .0250416
825.988 .0250272
826.682 .0250120
827.376 .0249962
828.069 .0249801
828.762 .0249636
829.455 .0249470
830.147 .0249313
830.840 .0249166
831.531 .0249026
832.223 .0248904
832.914 .0248790
833.605 .0248681
834.296 .0248578
834.986 .0248479
835.676 .0248377
836.366 .0248281
837.055 .0248184
837.744 .0248083
838.433 .0247979
839.121 .0247877
839.809 .0247772
840.497 .0247670
841.185 .0247573
841.872 .0247475
842.559 .0247380
843.245 .0247287
843.932 .0247190
844.617 .0247093
845.303 .0246992
845.988 .0246883
846.673 .0246766
847.358 .0246644
848.042 .0246520
848.726 .0246398
849.410 .0246282
850.093 .0246171
850.776 .0246065
851.459 .0245963
852.141 .0245858
852.823 .0245750
853.505 .0245636
854.186 .0245514
854.867 .0245385
855.548 .0245249
856.228 .0245112
856.908 .0244980
857.588 .0244854
858.267 .0244737
858.946 .0244626
859.625 .0244521
860.303 .0244418
860.981 .0244315
861.659 .0244205
862.336 .0244088
863.013 .0243962
863.690 .0243826
864.366 .0243677
865.042 .0243518
865.718 .0243355
866.393 .0243193
867.068 .0243033
867.743 .0242877
868.417 .0242726
869.091 .0242579
869.765 .0242433
870.438 .0242288
871.111 .0242141
871.783 .0241998
872.456 .0241856
873.127 .0241722
873.799 .0241595
874.470 .0241477
875.141 .0241371
875.811 .0241279
876.481 .0241191
877.151 .0241103
877.820 .0241012
878.489 .0240914
879.158 .0240805
879.826 .0240690
880.494 .0240565
881.162 .0240435
881.829 .0240303
882.496 .0240165
883.163 .0240017
883.829 .0239866
884.495 .0239706
885.160 .0239541
885.825 .0239372
886.490 .0239206
887.154 .0239045
887.818 .0238895
888.482 .0238762
889.145 .0238637
889.808 .0238523
890.471 .0238412
891.133 .0238299
891.795 .0238184
892.456 .0238065
893.117 .0237948
893.778 .0237834
894.439 .0237733
895.099 .0237644
895.758 .0237563
896.417 .0237494
897.076 .0237428
897.735 .0237359
898.393 .0237280
899.051 .0237193
899.708 .0237097
900.365 .0236994
901.022 .0236889
901.678 .0236787
902.334 .0236693
902.990 .0236604
903.645 .0236517
904.300 .0236429
904.954 .0236333
905.608 .0236223
906.262 .0236100
906.915 .0235971
907.568 .0235839
908.221 .0235710
908.873 .0235588
909.525 .0235480
910.176 .0235389
910.828 .0235309
911.478 .0235240
912.129 .0235177
912.778 .0235115
913.428 .0235047
914.077 .0234976
914.726 .0234906
915.375 .0234835
916.023 .0234772
916.670 .0234721
917.318 .0234680
917.964 .0234649
918.611 .0234624
919.257 .0234598
919.903 .0234569
920.548 .0234531
921.193 .0234482
921.838 .0234429
922.482 .0234376
923.126 .0234326
923.770 .0234285
924.413 .0234254
925.056 .0234230
925.698 .0234209
926.340 .0234189
926.982 .0234165
927.623 .0234129
928.264 .0234081
928.904 .0234018
929.544 .0233940
930.184 .0233849
930.823 .0233745
931.462 .0233631
932.101 .0233506
932.739 .0233368
933.377 .0233218
934.014 .0233057
934.651 .0232890
935.288 .0232721
935.924 .0232551
936.560 .0232388
937.196 .0232236
937.831 .0232092
938.466 .0231965
939.100 .0231850
939.734 .0231746
940.368 .0231647
941.001 .0231555
941.634 .0231466
942.266 .0231378
942.899 .0231293
943.530 .0231203
944.162 .0231109
944.793 .0231009
945.423 .0230896
946.053 .0230769
946.683 .0230630
947.313 .0230479
947.942 .0230313
948.571 .0230136
949.199 .0229945
949.827 .0229742
950.455 .0229532
951.082 .0229324
951.709 .0229117
952.335 .0228920
952.961 .0228735
953.587 .0228563
954.212 .0228407
954.837 .0228268
955.462 .0228140
956.086 .0228029
956.710 .0227933
957.334 .0227850
957.957 .0227775
958.579 .0227710
959.202 .0227649
959.824 .0227592
960.445 .0227539
961.067 .0227486
961.688 .0227432
962.308 .0227385
962.928 .0227338
963.548 .0227291
964.168 .0227246
964.787 .0227203
965.406 .0227157
966.024 .0227109
966.642 .0227056
967.260 .0226995
967.877 .0226933
968.494 .0226869
969.110 .0226802
969.727 .0226741
970.342 .0226686
970.958 .0226636
971.573 .0226594
972.188 .0226562
972.802 .0226535
973.416 .0226513
974.030 .0226495
974.643 .0226476
975.256 .0226458
975.869 .0226438
976.481 .0226420
977.093 .0226409
977.705 .0226408
978.316 .0226413
978.927 .0226432
979.538 .0226459
980.148 .0226488
980.758 .0226517
981.367 .0226542
981.977 .0226561
982.586 .0226570
983.194 .0226567
983.802 .0226550
984.410 .0226521
985.018 .0226490
985.625 .0226444
986.232 .0226399
986.838 .0226353
987.445 .0226301
988.050 .0226244
988.656 .0226183
989.261 .0226117
989.866 .0226040
990.471 .0225961
991.075 .0225879
991.679 .0225794
992.282 .0225710
992.886 .0225628
993.489 .0225558
994.091 .0225500
994.694 .0225454
995.296 .0225414
995.897 .0225387
996.499 .0225367
997.100 .0225353
997.701 .0225348
998.301 .0225353
998.901 .0225372
999.501 .0225401
1000.101 .0225439
1000.700 .0225480
1001.299 .0225518
1001.898 .0225551
1002.496 .0225568
1003.094 .0225576
1003.692 .0225567
1004.289 .0225548
1004.887 .0225530
1005.484 .0225516
1006.080 .0225510
1006.677 .0225507
1007.273 .0225512
1007.868 .0225512
1008.464 .0225505
1009.059 .0225484
1009.654 .0225450
1010.249 .0225412
1010.843 .0225371
1011.437 .0225335
1012.031 .0225306
1012.625 .0225294
1013.218 .0225297
1013.811 .0225307
1014.404 .0225325
1014.997 .0225337
1015.589 .0225339
1016.181 .0225324
1016.773 .0225297
1017.365 .0225260
1017.956 .0225208
1018.547 .0225157
1019.138 .0225104
1019.728 .0225060
1020.319 .0225019
1020.909 .0224984
1021.499 .0224954
1022.088 .0224928
1022.678 .0224899
1023.267 .0224864
1023.856 .0224824
1024.445 .0224788
1025.033 .0224745
1025.621 .0224703
1026.209 .0224663
1026.797 .0224624
1027.385 .0224581
1027.972 .0224549
1028.560 .0224512
1029.147 .0224481
1029.734 .0224454
1030.320 .0224438
1030.907 .0224426
1031.493 .0224428
1032.079 .0224450
1032.665 .0224493
1033.250 .0224553
1033.836 .0224621
1034.421 .0224679
1035.006 .0224740
1035.591 .0224785
1036.176 .0224817
1036.761 .0224834
1037.345 .0224843
1037.929 .0224847
1038.514 .0224847
1039.097 .0224846
1039.681 .0224840
1040.265 .0224829
1040.848 .0224812
1041.432 .0224777
1042.015 .0224723
1042.598 .0224647
1043.181 .0224569
1043.764 .0224494
1044.346 .0224429
1044.929 .0224375
1045.511 .0224341
1046.094 .0224320
1046.676 .0224304
1047.258 .0224286
1047.840 .0224262
1048.422 .0224229
1049.003 .0224185
1049.585 .0224133
1050.166 .0224074
1050.748 .0224020
1051.329 .0223979
1051.910 .0223947
1052.491 .0223926
1053.072 .0223903
1053.653 .0223874
1054.234 .0223847
1054.815 .0223812
1055.396 .0223770
1055.976 .0223728
1056.557 .0223689
1057.138 .0223645
1057.718 .0223588
1058.298 .0223530
1058.879 .0223459
1059.459 .0223374
1060.039 .0223270
1060.620 .0223130
1061.200 .0222971
1061.780 .0222788
1062.360 .0222573
1062.940 .0222346
1063.520 .0222111
1064.101 .0221873
1064.681 .0221623
1065.261 .0221384
1065.841 .0221150
1066.421 .0220939
1067.001 .0220754
1067.581 .0220591
1068.161 .0220452
1068.741 .0220349
1069.321 .0220269
1069.901 .0220224
1070.482 .0220210
1071.062 .0220217
1071.642 .0220230
1072.222 .0220257
1072.803 .0220277
1073.383 .0220293
1073.963 .0220298
1074.544 .0220300
1075.124 .0220284
1075.705 .0220265
1076.286 .0220232
1076.866 .0220194
1077.447 .0220143
1078.028 .0220076
1078.609 .0219964
1079.190 .0219822
1079.771 .0219634
1080.352 .0219416
1080.934 .0219177
1081.515 .0218953
1082.097 .0218745
1082.679 .0218581
1083.260 .0218444
1083.842 .0218360
1084.424 .0218295
1085.007 .0218247
1085.589 .0218184
1086.172 .0218114
1086.754 .0218034
1087.337 .0217953
1087.920 .0217878
1088.503 .0217850
1089.087 .0217856
1089.670 .0217919
1090.254 .0218003
1090.838 .0218117
1091.422 .0218236
1092.006 .0218347
1092.590 .0218446
1093.175 .0218538
1093.760 .0218612
1094.345 .0218692
1094.930 .0218776
1095.516 .0218887
1096.102 .0219022
1096.688 .0219176
1097.274 .0219348
1097.860 .0219515
1098.447 .0219683
1099.034 .0219825
1099.622 .0219930
1100.209 .0220016
1100.797 .0220053
1101.385 .0220035
1101.973 .0219987
1102.562 .0219887
1103.151 .0219763
1103.740 .0219614
1104.330 .0219475
1104.920 .0219339
1105.510 .0219230
1106.101 .0219139
1106.691 .0219040
1107.283 .0218946
1107.874 .0218862
1108.466 .0218737
1109.058 .0218626
1109.651 .0218510
1110.244 .0218413
1110.837 .0218332
1111.431 .0218279
1112.025 .0218240
1112.620 .0218204
1113.215 .0218168
1113.810 .0218095
1114.406 .0217991
1115.002 .0217853
1115.599 .0217661
1116.196 .0217422
1116.793 .0217157
1117.391 .0216879
1117.989 .0216588
1118.588 .0216321
1119.187 .0216063
1119.787 .0215823
1120.387 .0215612
1120.988 .0215427
1121.589 .0215304
1122.190 .0215195
1122.793 .0215138
1123.395 .0215110
1123.998 .0215141
1124.602 .0215208
1125.206 .0215318
1125.811 .0215471
1126.416 .0215677
1127.022 .0215909
1127.628 .0216145
1128.235 .0216401
1128.843 .0216698
1129.451 .0216992
1130.059 .0217310
1130.669 .0217636
1131.278 .0218005
1131.889 .0218366
1132.500 .0218763
1133.112 .0219133
1133.724 .0219507
1134.337 .0219887
1134.950 .0220242
1135.564 .0220603
1136.179 .0220994
1136.795 .0221408
1137.411 .0221880
1138.028 .0222424
1138.645 .0223032
1139.263 .0223683
1139.882 .0224374
1140.502 .0225106
1141.122 .0225949
1141.743 .0226848
1142.365 .0227873
1142.987 .0227710
1143.611 .0229270
1144.235 .0232647
1144.859 .0232742
1145.485 .0234912
