Measurement Sequence started on: 10-20-44-796
Integration time: 35
Scans to Average: 2 
>>>>>Begin Spectral Data<<<<<
432.953 .0270233
433.882 .0274100
434.810 .0298750
435.737 .0311342
436.662 .0316109
437.586 .0309833
438.509 .0312130
439.431 .0312979
440.351 .0312400
441.269 .0311256
442.187 .0310063
443.103 .0308787
444.018 .0307971
444.932 .0306979
445.844 .0306077
446.756 .0305101
447.666 .0304089
448.575 .0303046
449.482 .0302133
450.388 .0301380
451.294 .0300869
452.198 .0300511
453.100 .0300318
454.002 .0300264
454.902 .0300297
455.801 .0300277
456.699 .0300175
457.596 .0299987
458.492 .0299785
459.387 .0299468
460.280 .0299105
461.172 .0298662
462.064 .0298255
462.954 .0297885
463.843 .0297534
464.730 .0297249
465.617 .0297018
466.503 .0296780
467.387 .0296582
468.271 .0296371
469.153 .0296174
470.035 .0295951
470.915 .0295747
471.794 .0295527
472.673 .0295304
473.550 .0295088
474.426 .0294891
475.301 .0294727
476.175 .0294613
477.048 .0294494
477.920 .0294391
478.791 .0294312
479.661 .0294251
480.530 .0294161
481.398 .0294087
482.266 .0294016
483.132 .0293981
483.997 .0293946
484.861 .0293937
485.724 .0293962
486.587 .0294038
487.448 .0294105
488.308 .0294154
489.168 .0294191
490.026 .0294194
490.884 .0294119
491.741 .0293993
492.597 .0293810
493.452 .0293563
494.306 .0293244
495.159 .0292892
496.011 .0292476
496.862 .0292023
497.713 .0291506
498.562 .0290926
499.411 .0290315
500.259 .0289674
501.106 .0288986
501.952 .0288292
502.798 .0287603
503.642 .0286916
504.486 .0286231
505.329 .0285585
506.171 .0284951
507.012 .0284322
507.852 .0283692
508.692 .0283036
509.531 .0282330
510.369 .0281590
511.206 .0280801
512.043 .0279941
512.878 .0279013
513.713 .0278021
514.547 .0276960
515.381 .0275854
516.213 .0274726
517.045 .0273553
517.876 .0272329
518.706 .0271042
519.536 .0269674
520.365 .0268222
521.193 .0266664
522.020 .0265033
522.847 .0263324
523.673 .0261538
524.498 .0259691
525.323 .0257797
526.146 .0255947
526.969 .0254162
527.792 .0252380
528.614 .0250628
529.435 .0248869
530.255 .0247132
531.075 .0245365
531.894 .0243622
532.712 .0241985
533.530 .0240412
534.347 .0238926
535.163 .0237579
535.979 .0236490
536.794 .0235692
537.608 .0235183
538.422 .0235029
539.235 .0235150
540.048 .0235489
540.860 .0235964
541.671 .0236523
542.481 .0237149
543.292 .0237775
544.101 .0238388
544.910 .0238990
545.718 .0239651
546.526 .0240353
547.333 .0241123
548.139 .0241990
548.945 .0242902
549.750 .0243771
550.555 .0244604
551.359 .0245389
552.162 .0246118
552.965 .0246791
553.768 .0247453
554.569 .0248138
555.371 .0248832
556.171 .0249484
556.972 .0250158
557.771 .0250815
558.570 .0251491
559.369 .0252110
560.167 .0252715
560.964 .0253322
561.761 .0253931
562.558 .0254554
563.354 .0255225
564.149 .0255918
564.944 .0256654
565.738 .0257376
566.532 .0258128
567.325 .0258866
568.118 .0259588
568.910 .0260318
569.702 .0261087
570.494 .0261882
571.285 .0262720
572.075 .0263584
572.865 .0264501
573.654 .0265410
574.443 .0266324
575.232 .0267212
576.020 .0268082
576.807 .0268919
577.594 .0269721
578.381 .0270480
579.167 .0271227
579.952 .0271956
580.738 .0272690
581.522 .0273421
582.307 .0274149
583.091 .0274844
583.874 .0275518
584.657 .0276166
585.440 .0276783
586.222 .0277346
587.004 .0277878
587.785 .0278371
588.566 .0278836
589.346 .0279268
590.126 .0279664
590.906 .0280017
591.685 .0280334
592.464 .0280606
593.242 .0280829
594.020 .0281008
594.797 .0281154
595.575 .0281272
596.351 .0281365
597.128 .0281428
597.904 .0281461
598.679 .0281468
599.454 .0281448
600.229 .0281399
601.004 .0281327
601.778 .0281242
602.551 .0281150
603.325 .0281057
604.097 .0280967
604.870 .0280881
605.642 .0280797
606.414 .0280722
607.185 .0280644
607.956 .0280574
608.727 .0280500
609.497 .0280432
610.267 .0280368
611.037 .0280305
611.806 .0280243
612.575 .0280187
613.344 .0280129
614.112 .0280065
614.880 .0279989
615.647 .0279912
616.414 .0279830
617.181 .0279754
617.948 .0279680
618.714 .0279608
619.480 .0279536
620.245 .0279454
621.011 .0279349
621.775 .0279232
622.540 .0279095
623.304 .0278940
624.068 .0278780
624.832 .0278616
625.595 .0278461
626.358 .0278321
627.120 .0278194
627.883 .0278078
628.645 .0277961
629.406 .0277841
630.168 .0277707
630.929 .0277566
631.689 .0277419
632.450 .0277264
633.210 .0277119
633.970 .0276988
634.729 .0276878
635.489 .0276784
636.248 .0276711
637.006 .0276648
637.765 .0276585
638.523 .0276508
639.280 .0276413
640.038 .0276303
640.795 .0276184
641.552 .0276059
642.309 .0275933
643.065 .0275815
643.821 .0275702
644.577 .0275598
645.332 .0275500
646.088 .0275401
646.843 .0275304
647.597 .0275197
648.352 .0275083
649.106 .0274964
649.860 .0274841
650.613 .0274720
651.367 .0274601
652.120 .0274491
652.872 .0274380
653.625 .0274272
654.377 .0274168
655.129 .0274061
655.881 .0273956
656.632 .0273851
657.384 .0273744
658.135 .0273637
658.885 .0273531
659.636 .0273422
660.386 .0273307
661.136 .0273191
661.885 .0273070
662.635 .0272941
663.384 .0272809
664.133 .0272678
664.881 .0272548
665.630 .0272426
666.378 .0272319
667.126 .0272219
667.874 .0272134
668.621 .0272059
669.368 .0271985
670.115 .0271911
670.862 .0271839
671.608 .0271768
672.354 .0271694
673.100 .0271623
673.846 .0271558
674.591 .0271494
675.337 .0271444
676.082 .0271396
676.826 .0271355
677.571 .0271320
678.315 .0271287
679.059 .0271248
679.803 .0271206
680.547 .0271159
681.290 .0271104
682.033 .0271037
682.776 .0270960
683.518 .0270867
684.261 .0270762
685.003 .0270651
685.745 .0270536
686.487 .0270417
687.228 .0270301
687.969 .0270180
688.710 .0270064
689.451 .0269944
690.192 .0269817
690.932 .0269680
691.672 .0269536
692.412 .0269383
693.152 .0269223
693.891 .0269061
694.630 .0268907
695.369 .0268759
696.108 .0268619
696.846 .0268483
697.585 .0268349
698.323 .0268212
699.061 .0268069
699.798 .0267918
700.536 .0267762
701.273 .0267599
702.010 .0267438
702.746 .0267276
703.483 .0267122
704.219 .0266973
704.955 .0266828
705.691 .0266683
706.427 .0266539
707.162 .0266389
707.897 .0266238
708.632 .0266088
709.367 .0265943
710.101 .0265797
710.835 .0265654
711.569 .0265511
712.303 .0265362
713.037 .0265212
713.770 .0265061
714.503 .0264905
715.236 .0264752
715.969 .0264598
716.702 .0264446
717.434 .0264298
718.166 .0264153
718.898 .0264008
719.629 .0263862
720.361 .0263715
721.092 .0263566
721.823 .0263414
722.554 .0263264
723.284 .0263111
724.014 .0262958
724.744 .0262802
725.474 .0262639
726.204 .0262466
726.933 .0262283
727.662 .0262089
728.391 .0261889
729.120 .0261677
729.849 .0261464
730.577 .0261256
731.305 .0261051
732.033 .0260854
732.760 .0260663
733.488 .0260478
734.215 .0260297
734.942 .0260120
735.669 .0259944
736.395 .0259767
737.122 .0259595
737.848 .0259421
738.573 .0259248
739.299 .0259079
740.024 .0258914
740.750 .0258752
741.474 .0258597
742.199 .0258443
742.924 .0258286
743.648 .0258132
744.372 .0257976
745.096 .0257814
745.819 .0257647
746.543 .0257474
747.266 .0257304
747.989 .0257138
748.711 .0256985
749.434 .0256846
750.156 .0256734
750.878 .0256644
751.599 .0256580
752.321 .0256535
753.042 .0256502
753.763 .0256477
754.484 .0256455
755.205 .0256431
755.925 .0256402
756.645 .0256367
757.365 .0256327
758.085 .0256278
758.804 .0256221
759.523 .0256146
760.242 .0256057
760.961 .0255953
761.679 .0255829
762.397 .0255684
763.115 .0255523
763.833 .0255346
764.551 .0255155
765.268 .0254953
765.985 .0254740
766.702 .0254519
767.418 .0254293
768.134 .0254062
768.850 .0253832
769.566 .0253611
770.282 .0253399
770.997 .0253197
771.712 .0253011
772.427 .0252837
773.142 .0252670
773.856 .0252511
774.570 .0252353
775.284 .0252192
775.998 .0252023
776.711 .0251848
777.424 .0251670
778.137 .0251496
778.849 .0251325
779.562 .0251163
780.274 .0251008
780.986 .0250856
781.697 .0250703
782.409 .0250549
783.120 .0250395
783.831 .0250239
784.541 .0250081
785.252 .0249926
785.962 .0249781
786.671 .0249650
787.381 .0249528
788.090 .0249422
788.799 .0249328
789.508 .0249239
790.217 .0249152
790.925 .0249061
791.633 .0248965
792.341 .0248864
793.048 .0248753
793.755 .0248633
794.462 .0248501
795.169 .0248359
795.875 .0248209
796.581 .0248056
797.287 .0247899
797.993 .0247737
798.698 .0247577
799.403 .0247419
800.108 .0247259
800.812 .0247102
801.517 .0246944
802.221 .0246787
802.924 .0246631
803.628 .0246473
804.331 .0246323
805.034 .0246187
805.736 .0246067
806.439 .0245967
807.141 .0245885
807.843 .0245821
808.544 .0245764
809.245 .0245712
809.946 .0245657
810.647 .0245597
811.347 .0245530
812.047 .0245457
812.747 .0245382
813.447 .0245307
814.146 .0245231
814.845 .0245156
815.543 .0245082
816.242 .0245000
816.940 .0244911
817.638 .0244813
818.335 .0244705
819.032 .0244589
819.729 .0244467
820.426 .0244343
821.122 .0244212
821.818 .0244074
822.514 .0243929
823.209 .0243775
823.905 .0243618
824.599 .0243453
825.294 .0243286
825.988 .0243121
826.682 .0242959
827.376 .0242799
828.069 .0242644
828.762 .0242492
829.455 .0242336
830.147 .0242172
830.840 .0242004
831.531 .0241830
832.223 .0241656
832.914 .0241487
833.605 .0241328
834.296 .0241182
834.986 .0241049
835.676 .0240928
836.366 .0240816
837.055 .0240708
837.744 .0240604
838.433 .0240496
839.121 .0240389
839.809 .0240281
840.497 .0240176
841.185 .0240075
841.872 .0239984
842.559 .0239904
843.245 .0239833
843.932 .0239771
844.617 .0239721
845.303 .0239672
845.988 .0239624
846.673 .0239568
847.358 .0239501
848.042 .0239423
848.726 .0239335
849.410 .0239234
850.093 .0239130
850.776 .0239027
851.459 .0238925
852.141 .0238823
852.823 .0238730
853.505 .0238644
854.186 .0238556
854.867 .0238467
855.548 .0238367
856.228 .0238258
856.908 .0238146
857.588 .0238032
858.267 .0237924
858.946 .0237826
859.625 .0237737
860.303 .0237656
860.981 .0237583
861.659 .0237514
862.336 .0237439
863.013 .0237356
863.690 .0237264
864.366 .0237157
865.042 .0237039
865.718 .0236912
866.393 .0236784
867.068 .0236660
867.743 .0236542
868.417 .0236430
869.091 .0236324
869.765 .0236223
870.438 .0236126
871.111 .0236030
871.783 .0235936
872.456 .0235838
873.127 .0235736
873.799 .0235637
874.470 .0235537
875.141 .0235439
875.811 .0235348
876.481 .0235260
877.151 .0235176
877.820 .0235088
878.489 .0234994
879.158 .0234889
879.826 .0234777
880.494 .0234653
881.162 .0234517
881.829 .0234379
882.496 .0234239
883.163 .0234098
883.829 .0233966
884.495 .0233845
885.160 .0233735
885.825 .0233642
886.490 .0233562
887.154 .0233495
887.818 .0233435
888.482 .0233381
889.145 .0233329
889.808 .0233285
890.471 .0233243
891.133 .0233202
891.795 .0233162
892.456 .0233126
893.117 .0233085
893.778 .0233042
894.439 .0232991
895.099 .0232931
895.758 .0232861
896.417 .0232777
897.076 .0232677
897.735 .0232570
898.393 .0232454
899.051 .0232334
899.708 .0232211
900.365 .0232086
901.022 .0231957
901.678 .0231827
902.334 .0231691
902.990 .0231554
903.645 .0231415
904.300 .0231279
904.954 .0231148
905.608 .0231026
906.262 .0230916
906.915 .0230815
907.568 .0230724
908.221 .0230638
908.873 .0230551
909.525 .0230463
910.176 .0230372
910.828 .0230281
911.478 .0230191
912.129 .0230100
912.778 .0230011
913.428 .0229922
914.077 .0229830
914.726 .0229733
915.375 .0229628
916.023 .0229515
916.670 .0229399
917.318 .0229275
917.964 .0229146
918.611 .0229012
919.257 .0228880
919.903 .0228746
920.548 .0228608
921.193 .0228471
921.838 .0228336
922.482 .0228205
923.126 .0228083
923.770 .0227970
924.413 .0227872
925.056 .0227787
925.698 .0227716
926.340 .0227655
926.982 .0227606
927.623 .0227563
928.264 .0227522
928.904 .0227479
929.544 .0227434
930.184 .0227383
930.823 .0227327
931.462 .0227265
932.101 .0227198
932.739 .0227124
933.377 .0227040
934.014 .0226946
934.651 .0226841
935.288 .0226725
935.924 .0226598
936.560 .0226459
937.196 .0226311
937.831 .0226151
938.466 .0225981
939.100 .0225803
939.734 .0225621
940.368 .0225433
941.001 .0225243
941.634 .0225051
942.266 .0224864
942.899 .0224679
943.530 .0224499
944.162 .0224325
944.793 .0224164
945.423 .0224007
946.053 .0223855
946.683 .0223709
947.313 .0223568
947.942 .0223425
948.571 .0223283
949.199 .0223134
949.827 .0222985
950.455 .0222832
951.082 .0222676
951.709 .0222518
952.335 .0222361
952.961 .0222201
953.587 .0222035
954.212 .0221861
954.837 .0221680
955.462 .0221488
956.086 .0221295
956.710 .0221101
957.334 .0220907
957.957 .0220719
958.579 .0220542
959.202 .0220375
959.824 .0220222
960.445 .0220077
961.067 .0219945
961.688 .0219825
962.308 .0219717
962.928 .0219623
963.548 .0219547
964.168 .0219489
964.787 .0219450
965.406 .0219424
966.024 .0219410
966.642 .0219399
967.260 .0219393
967.877 .0219385
968.494 .0219369
969.110 .0219345
969.727 .0219313
970.342 .0219274
970.958 .0219232
971.573 .0219183
972.188 .0219131
972.802 .0219073
973.416 .0219009
974.030 .0218938
974.643 .0218860
975.256 .0218780
975.869 .0218700
976.481 .0218622
977.093 .0218550
977.705 .0218489
978.316 .0218441
978.927 .0218410
979.538 .0218393
980.148 .0218385
980.758 .0218383
981.367 .0218388
981.977 .0218403
982.586 .0218427
983.194 .0218459
983.802 .0218498
984.410 .0218544
985.018 .0218593
985.625 .0218642
986.232 .0218690
986.838 .0218733
987.445 .0218769
988.050 .0218793
988.656 .0218805
989.261 .0218806
989.866 .0218798
990.471 .0218785
991.075 .0218771
991.679 .0218753
992.282 .0218731
992.886 .0218709
993.489 .0218692
994.091 .0218676
994.694 .0218664
995.296 .0218652
995.897 .0218637
996.499 .0218620
997.100 .0218595
997.701 .0218565
998.301 .0218532
998.901 .0218497
999.501 .0218460
1000.101 .0218422
1000.700 .0218386
1001.299 .0218348
1001.898 .0218311
1002.496 .0218274
1003.094 .0218233
1003.692 .0218188
1004.289 .0218142
1004.887 .0218101
1005.484 .0218070
1006.080 .0218054
1006.677 .0218057
1007.273 .0218075
1007.868 .0218112
1008.464 .0218163
1009.059 .0218226
1009.654 .0218294
1010.249 .0218364
1010.843 .0218435
1011.437 .0218508
1012.031 .0218579
1012.625 .0218651
1013.218 .0218725
1013.811 .0218806
1014.404 .0218887
1014.997 .0218964
1015.589 .0219034
1016.181 .0219096
1016.773 .0219144
1017.365 .0219179
1017.956 .0219198
1018.547 .0219211
1019.138 .0219215
1019.728 .0219223
1020.319 .0219239
1020.909 .0219263
1021.499 .0219293
1022.088 .0219329
1022.678 .0219363
1023.267 .0219394
1023.856 .0219417
1024.445 .0219432
1025.033 .0219439
1025.621 .0219445
1026.209 .0219447
1026.797 .0219453
1027.385 .0219466
1027.972 .0219485
1028.560 .0219503
1029.147 .0219520
1029.734 .0219526
1030.320 .0219520
1030.907 .0219504
1031.493 .0219479
1032.079 .0219446
1032.665 .0219420
1033.250 .0219398
1033.836 .0219386
1034.421 .0219388
1035.006 .0219405
1035.591 .0219430
1036.176 .0219460
1036.761 .0219482
1037.345 .0219500
1037.929 .0219516
1038.514 .0219531
1039.097 .0219548
1039.681 .0219582
1040.265 .0219632
1040.848 .0219695
1041.432 .0219772
1042.015 .0219864
1042.598 .0219947
1043.181 .0220033
1043.764 .0220104
1044.346 .0220155
1044.929 .0220192
1045.511 .0220211
1046.094 .0220214
1046.676 .0220215
1047.258 .0220207
1047.840 .0220189
1048.422 .0220163
1049.003 .0220139
1049.585 .0220102
1050.166 .0220058
1050.748 .0220011
1051.329 .0219956
1051.910 .0219891
1052.491 .0219830
1053.072 .0219765
1053.653 .0219705
1054.234 .0219652
1054.815 .0219599
1055.396 .0219549
1055.976 .0219497
1056.557 .0219443
1057.138 .0219400
1057.718 .0219365
1058.298 .0219342
1058.879 .0219326
1059.459 .0219325
1060.039 .0219336
1060.620 .0219349
1061.200 .0219365
1061.780 .0219375
1062.360 .0219367
1062.940 .0219349
1063.520 .0219313
1064.101 .0219271
1064.681 .0219232
1065.261 .0219188
1065.841 .0219149
1066.421 .0219121
1067.001 .0219093
1067.581 .0219067
1068.161 .0219033
1068.741 .0219006
1069.321 .0218969
1069.901 .0218924
1070.482 .0218869
1071.062 .0218804
1071.642 .0218747
1072.222 .0218700
1072.803 .0218655
1073.383 .0218625
1073.963 .0218604
1074.544 .0218590
1075.124 .0218587
1075.705 .0218582
1076.286 .0218567
1076.866 .0218545
1077.447 .0218505
1078.028 .0218444
1078.609 .0218355
1079.190 .0218251
1079.771 .0218135
1080.352 .0218017
1080.934 .0217901
1081.515 .0217792
1082.097 .0217703
1082.679 .0217629
1083.260 .0217572
1083.842 .0217531
1084.424 .0217481
1085.007 .0217439
1085.589 .0217395
1086.172 .0217340
1086.754 .0217275
1087.337 .0217211
1087.920 .0217155
1088.503 .0217122
1089.087 .0217112
1089.670 .0217118
1090.254 .0217139
1090.838 .0217172
1091.422 .0217180
1092.006 .0217154
1092.590 .0217105
1093.175 .0217022
1093.760 .0216894
1094.345 .0216754
1094.930 .0216597
1095.516 .0216452
1096.102 .0216329
1096.688 .0216231
1097.274 .0216153
1097.860 .0216085
1098.447 .0216006
1099.034 .0215911
1099.622 .0215791
1100.209 .0215671
1100.797 .0215528
1101.385 .0215388
1101.973 .0215262
1102.562 .0215153
1103.151 .0215055
1103.740 .0214978
1104.330 .0214907
1104.920 .0214825
1105.510 .0214712
1106.101 .0214579
1106.691 .0214398
1107.283 .0214198
1107.874 .0213979
1108.466 .0213745
1109.058 .0213527
1109.651 .0213348
1110.244 .0213193
1110.837 .0213088
1111.431 .0213032
1112.025 .0213006
1112.620 .0212993
1113.215 .0212997
1113.810 .0213012
1114.406 .0213059
1115.002 .0213118
1115.599 .0213191
1116.196 .0213282
1116.793 .0213387
1117.391 .0213491
1117.989 .0213593
1118.588 .0213686
1119.187 .0213739
1119.787 .0213744
1120.387 .0213691
1120.988 .0213594
1121.589 .0213467
1122.190 .0213308
1122.793 .0213133
1123.395 .0212956
1123.998 .0212775
1124.602 .0212606
1125.206 .0212491
1125.811 .0212436
1126.416 .0212428
1127.022 .0212485
1127.628 .0212577
1128.235 .0212708
1128.843 .0212847
1129.451 .0212982
1130.059 .0213100
1130.669 .0213229
1131.278 .0213354
1131.889 .0213465
1132.500 .0213638
1133.112 .0213855
1133.724 .0214130
1134.337 .0214451
1134.950 .0214762
1135.564 .0215058
1136.179 .0215322
1136.795 .0215560
1137.411 .0215794
1138.028 .0216045
1138.645 .0216379
1139.263 .0216788
1139.882 .0217278
1140.502 .0217843
1141.122 .0218481
1141.743 .0219336
1142.365 .0220365
1142.987 .0220155
1143.611 .0221190
1144.235 .0222013
1144.859 .0227124
1145.485 .0229598
