Measurement Sequence started on: 10-20-44-796
Integration time: 35
Scans to Average: 2 
>>>>>Begin Spectral Data<<<<<
432.953 .0421333
433.882 .0328747
434.810 .0343562
435.737 .0295308
436.662 .0312853
437.586 .0324662
438.509 .0321909
439.431 .0323043
440.351 .0324272
441.269 .0326895
442.187 .0328814
443.103 .0330210
444.018 .0331685
444.932 .0332737
445.844 .0333185
446.756 .0333042
447.666 .0332369
448.575 .0331154
449.482 .0329671
450.388 .0327941
451.294 .0326031
452.198 .0324133
453.100 .0322378
454.002 .0320812
454.902 .0319405
455.801 .0318155
456.699 .0316976
457.596 .0315906
458.492 .0314944
459.387 .0314086
460.280 .0313387
461.172 .0312813
462.064 .0312431
462.954 .0312177
463.843 .0312056
464.730 .0311989
465.617 .0312001
466.503 .0312045
467.387 .0312017
468.271 .0311978
469.153 .0311873
470.035 .0311764
470.915 .0311633
471.794 .0311439
472.673 .0311194
473.550 .0310871
474.426 .0310492
475.301 .0310020
476.175 .0309531
477.048 .0309039
477.920 .0308536
478.791 .0308133
479.661 .0307819
480.530 .0307613
481.398 .0307506
482.266 .0307434
483.132 .0307382
483.997 .0307288
484.861 .0307135
485.724 .0306900
486.587 .0306667
487.448 .0306424
488.308 .0306168
489.168 .0305963
490.026 .0305827
490.884 .0305737
491.741 .0305667
492.597 .0305642
493.452 .0305582
494.306 .0305511
495.159 .0305401
496.011 .0305201
496.862 .0305018
497.713 .0304735
498.562 .0304380
499.411 .0303926
500.259 .0303431
501.106 .0302908
501.952 .0302319
502.798 .0301807
503.642 .0301285
504.486 .0300802
505.329 .0300348
506.171 .0299894
507.012 .0299467
507.852 .0298994
508.692 .0298450
509.531 .0297800
510.369 .0297064
511.206 .0296220
512.043 .0295292
512.878 .0294326
513.713 .0293331
514.547 .0292274
515.381 .0291127
516.213 .0289979
517.045 .0288717
517.876 .0287391
518.706 .0285932
519.536 .0284404
520.365 .0282827
521.193 .0281086
522.020 .0279296
522.847 .0277446
523.673 .0275619
524.498 .0273792
525.323 .0271960
526.146 .0270286
526.969 .0268740
527.792 .0267349
528.614 .0266024
529.435 .0264762
530.255 .0263507
531.075 .0262181
531.894 .0260785
532.712 .0259317
533.530 .0257765
534.347 .0256215
535.163 .0254723
535.979 .0253351
536.794 .0252148
537.608 .0251122
538.422 .0250263
539.235 .0249603
540.048 .0249003
540.860 .0248447
541.671 .0247946
542.481 .0247558
543.292 .0247225
544.101 .0247017
544.910 .0246957
545.718 .0247062
546.526 .0247337
547.333 .0247789
548.139 .0248396
548.945 .0249195
549.750 .0250079
550.555 .0251068
551.359 .0252085
552.162 .0253170
552.965 .0254269
553.768 .0255395
554.569 .0256489
555.371 .0257563
556.171 .0258609
556.972 .0259603
557.771 .0260526
558.570 .0261420
559.369 .0262212
560.167 .0262946
560.964 .0263517
561.761 .0263978
562.558 .0264348
563.354 .0264706
564.149 .0265025
564.944 .0265373
565.738 .0265804
566.532 .0266301
567.325 .0266862
568.118 .0267478
568.910 .0268083
569.702 .0268714
570.494 .0269353
571.285 .0270002
572.075 .0270679
572.865 .0271411
573.654 .0272182
574.443 .0273010
575.232 .0273895
576.020 .0274792
576.807 .0275695
577.594 .0276597
578.381 .0277461
579.167 .0278277
579.952 .0279063
580.738 .0279809
581.522 .0280540
582.307 .0281254
583.091 .0281947
583.874 .0282613
584.657 .0283254
585.440 .0283863
586.222 .0284461
587.004 .0285035
587.785 .0285569
588.566 .0286060
589.346 .0286508
590.126 .0286895
590.906 .0287215
591.685 .0287480
592.464 .0287691
593.242 .0287856
594.020 .0287984
594.797 .0288085
595.575 .0288178
596.351 .0288257
597.128 .0288313
597.904 .0288346
598.679 .0288351
599.454 .0288309
600.229 .0288223
601.004 .0288114
601.778 .0287986
602.551 .0287844
603.325 .0287711
604.097 .0287587
604.870 .0287479
605.642 .0287386
606.414 .0287298
607.185 .0287215
607.956 .0287144
608.727 .0287075
609.497 .0287001
610.267 .0286936
611.037 .0286886
611.806 .0286834
612.575 .0286796
613.344 .0286763
614.112 .0286726
614.880 .0286684
615.647 .0286631
616.414 .0286568
617.181 .0286497
617.948 .0286414
618.714 .0286313
619.480 .0286199
620.245 .0286071
621.011 .0285921
621.775 .0285749
622.540 .0285570
623.304 .0285383
624.068 .0285194
624.832 .0284999
625.595 .0284800
626.358 .0284597
627.120 .0284388
627.883 .0284168
628.645 .0283954
629.406 .0283730
630.168 .0283515
630.929 .0283311
631.689 .0283128
632.450 .0282968
633.210 .0282831
633.970 .0282703
634.729 .0282577
635.489 .0282444
636.248 .0282296
637.006 .0282115
637.765 .0281923
638.523 .0281710
639.280 .0281486
640.038 .0281259
640.795 .0281040
641.552 .0280832
642.309 .0280648
643.065 .0280483
643.821 .0280332
644.577 .0280201
645.332 .0280088
646.088 .0279985
646.843 .0279900
647.597 .0279824
648.352 .0279757
649.106 .0279700
649.860 .0279648
650.613 .0279598
651.367 .0279557
652.120 .0279521
652.872 .0279479
653.625 .0279424
654.377 .0279350
655.129 .0279247
655.881 .0279112
656.632 .0278946
657.384 .0278742
658.135 .0278508
658.885 .0278245
659.636 .0277955
660.386 .0277665
661.136 .0277380
661.885 .0277110
662.635 .0276865
663.384 .0276656
664.133 .0276486
664.881 .0276350
665.630 .0276250
666.378 .0276178
667.126 .0276124
667.874 .0276077
668.621 .0276019
669.368 .0275955
670.115 .0275886
670.862 .0275808
671.608 .0275732
672.354 .0275663
673.100 .0275592
673.846 .0275518
674.591 .0275439
675.337 .0275346
676.082 .0275236
676.826 .0275106
677.571 .0274953
678.315 .0274778
679.059 .0274593
679.803 .0274404
680.547 .0274219
681.290 .0274046
682.033 .0273884
682.776 .0273731
683.518 .0273583
684.261 .0273436
685.003 .0273289
685.745 .0273144
686.487 .0273000
687.228 .0272849
687.969 .0272696
688.710 .0272541
689.451 .0272377
690.192 .0272207
690.932 .0272028
691.672 .0271845
692.412 .0271657
693.152 .0271467
693.891 .0271284
694.630 .0271112
695.369 .0270955
696.108 .0270814
696.846 .0270681
697.585 .0270555
698.323 .0270425
699.061 .0270291
699.798 .0270150
700.536 .0270001
701.273 .0269844
702.010 .0269690
702.746 .0269550
703.483 .0269430
704.219 .0269330
704.955 .0269251
705.691 .0269186
706.427 .0269124
707.162 .0269053
707.897 .0268965
708.632 .0268858
709.367 .0268738
710.101 .0268602
710.835 .0268461
711.569 .0268327
712.303 .0268202
713.037 .0268095
713.770 .0268004
714.503 .0267918
715.236 .0267830
715.969 .0267738
716.702 .0267639
717.434 .0267523
718.166 .0267398
718.898 .0267268
719.629 .0267138
720.361 .0267013
721.092 .0266894
721.823 .0266781
722.554 .0266678
723.284 .0266581
724.014 .0266475
724.744 .0266362
725.474 .0266240
726.204 .0266107
726.933 .0265960
727.662 .0265798
728.391 .0265625
729.120 .0265436
729.849 .0265236
730.577 .0265023
731.305 .0264801
732.033 .0264574
732.760 .0264348
733.488 .0264128
734.215 .0263911
734.942 .0263703
735.669 .0263504
736.395 .0263311
737.122 .0263128
737.848 .0262944
738.573 .0262766
739.299 .0262586
740.024 .0262415
740.750 .0262246
741.474 .0262082
742.199 .0261929
742.924 .0261786
743.648 .0261646
744.372 .0261509
745.096 .0261370
745.819 .0261229
746.543 .0261080
747.266 .0260930
747.989 .0260774
748.711 .0260625
749.434 .0260485
750.156 .0260359
750.878 .0260244
751.599 .0260155
752.321 .0260078
753.042 .0260014
753.763 .0259957
754.484 .0259909
755.205 .0259863
755.925 .0259818
756.645 .0259773
757.365 .0259729
758.085 .0259683
758.804 .0259637
759.523 .0259578
760.242 .0259509
760.961 .0259419
761.679 .0259305
762.397 .0259159
763.115 .0258984
763.833 .0258776
764.551 .0258544
765.268 .0258288
765.985 .0258018
766.702 .0257739
767.418 .0257463
768.134 .0257190
768.850 .0256925
769.566 .0256671
770.282 .0256427
770.997 .0256198
771.712 .0255989
772.427 .0255794
773.142 .0255617
773.856 .0255456
774.570 .0255312
775.284 .0255179
775.998 .0255056
776.711 .0254940
777.424 .0254831
778.137 .0254729
778.849 .0254621
779.562 .0254506
780.274 .0254389
780.986 .0254264
781.697 .0254125
782.409 .0253976
783.120 .0253811
783.831 .0253636
784.541 .0253450
785.252 .0253261
785.962 .0253070
786.671 .0252890
787.381 .0252727
788.090 .0252582
788.799 .0252457
789.508 .0252349
790.217 .0252254
790.925 .0252168
791.633 .0252082
792.341 .0251990
793.048 .0251888
793.755 .0251780
794.462 .0251652
795.169 .0251512
795.875 .0251364
796.581 .0251216
797.287 .0251068
797.993 .0250921
798.698 .0250774
799.403 .0250623
800.108 .0250465
800.812 .0250293
801.517 .0250109
802.221 .0249920
802.924 .0249723
803.628 .0249525
804.331 .0249341
805.034 .0249172
805.736 .0249023
806.439 .0248901
807.141 .0248801
807.843 .0248712
808.544 .0248624
809.245 .0248535
809.946 .0248438
810.647 .0248332
811.347 .0248223
812.047 .0248108
812.747 .0248002
813.447 .0247901
814.146 .0247804
814.845 .0247719
815.543 .0247645
816.242 .0247576
816.940 .0247504
817.638 .0247426
818.335 .0247344
819.032 .0247250
819.729 .0247154
820.426 .0247055
821.122 .0246953
821.818 .0246848
822.514 .0246738
823.209 .0246624
823.905 .0246510
824.599 .0246393
825.294 .0246272
825.988 .0246144
826.682 .0246017
827.376 .0245885
828.069 .0245744
828.762 .0245606
829.455 .0245472
830.147 .0245341
830.840 .0245222
831.531 .0245114
832.223 .0245022
832.914 .0244948
833.605 .0244888
834.296 .0244840
834.986 .0244800
835.676 .0244763
836.366 .0244726
837.055 .0244687
837.744 .0244646
838.433 .0244601
839.121 .0244555
839.809 .0244514
840.497 .0244474
841.185 .0244437
841.872 .0244395
842.559 .0244355
843.245 .0244312
843.932 .0244263
844.617 .0244206
845.303 .0244147
845.988 .0244082
846.673 .0244013
847.358 .0243937
848.042 .0243856
848.726 .0243768
849.410 .0243676
850.093 .0243571
850.776 .0243467
851.459 .0243357
852.141 .0243246
852.823 .0243131
853.505 .0243019
854.186 .0242904
854.867 .0242792
855.548 .0242682
856.228 .0242576
856.908 .0242474
857.588 .0242385
858.267 .0242304
858.946 .0242242
859.625 .0242195
860.303 .0242160
860.981 .0242135
861.659 .0242113
862.336 .0242080
863.013 .0242037
863.690 .0241985
864.366 .0241919
865.042 .0241847
865.718 .0241774
866.393 .0241707
867.068 .0241649
867.743 .0241603
868.417 .0241566
869.091 .0241529
869.765 .0241489
870.438 .0241434
871.111 .0241361
871.783 .0241278
872.456 .0241184
873.127 .0241097
873.799 .0241015
874.470 .0240947
875.141 .0240889
875.811 .0240846
876.481 .0240811
877.151 .0240775
877.820 .0240732
878.489 .0240679
879.158 .0240613
879.826 .0240542
880.494 .0240465
881.162 .0240396
881.829 .0240337
882.496 .0240285
883.163 .0240232
883.829 .0240182
884.495 .0240119
885.160 .0240056
885.825 .0239988
886.490 .0239922
887.154 .0239857
887.818 .0239804
888.482 .0239763
889.145 .0239734
889.808 .0239716
890.471 .0239699
891.133 .0239669
891.795 .0239628
892.456 .0239569
893.117 .0239495
893.778 .0239418
894.439 .0239340
895.099 .0239265
895.758 .0239200
896.417 .0239140
897.076 .0239081
897.735 .0239022
898.393 .0238957
899.051 .0238876
899.708 .0238778
900.365 .0238663
901.022 .0238533
901.678 .0238399
902.334 .0238268
902.990 .0238141
903.645 .0238019
904.300 .0237910
904.954 .0237806
905.608 .0237717
906.262 .0237641
906.915 .0237573
907.568 .0237516
908.221 .0237469
908.873 .0237424
909.525 .0237378
910.176 .0237327
910.828 .0237271
911.478 .0237204
912.129 .0237123
912.778 .0237024
913.428 .0236919
914.077 .0236811
914.726 .0236706
915.375 .0236602
916.023 .0236503
916.670 .0236407
917.318 .0236309
917.964 .0236203
918.611 .0236086
919.257 .0235957
919.903 .0235813
920.548 .0235658
921.193 .0235501
921.838 .0235347
922.482 .0235202
923.126 .0235073
923.770 .0234960
924.413 .0234855
925.056 .0234755
925.698 .0234653
926.340 .0234542
926.982 .0234414
927.623 .0234269
928.264 .0234111
928.904 .0233946
929.544 .0233780
930.184 .0233616
930.823 .0233462
931.462 .0233325
932.101 .0233198
932.739 .0233075
933.377 .0232952
934.014 .0232822
934.651 .0232679
935.288 .0232524
935.924 .0232364
936.560 .0232199
937.196 .0232042
937.831 .0231896
938.466 .0231765
939.100 .0231646
939.734 .0231533
940.368 .0231418
941.001 .0231301
941.634 .0231167
942.266 .0231021
942.899 .0230858
943.530 .0230694
944.162 .0230527
944.793 .0230357
945.423 .0230193
946.053 .0230028
946.683 .0229856
947.313 .0229676
947.942 .0229474
948.571 .0229262
949.199 .0229032
949.827 .0228790
950.455 .0228538
951.082 .0228284
951.709 .0228026
952.335 .0227771
952.961 .0227516
953.587 .0227265
954.212 .0227005
954.837 .0226746
955.462 .0226485
956.086 .0226226
956.710 .0225980
957.334 .0225741
957.957 .0225517
958.579 .0225314
959.202 .0225122
959.824 .0224942
960.445 .0224769
961.067 .0224605
961.688 .0224445
962.308 .0224284
962.928 .0224131
963.548 .0223976
964.168 .0223832
964.787 .0223689
965.406 .0223552
966.024 .0223427
966.642 .0223310
967.260 .0223194
967.877 .0223085
968.494 .0222974
969.110 .0222863
969.727 .0222741
970.342 .0222623
970.958 .0222511
971.573 .0222405
972.188 .0222305
972.802 .0222224
973.416 .0222156
974.030 .0222100
974.643 .0222046
975.256 .0222003
975.869 .0221963
976.481 .0221922
977.093 .0221879
977.705 .0221842
978.316 .0221824
978.927 .0221821
979.538 .0221819
980.148 .0221828
980.758 .0221830
981.367 .0221813
981.977 .0221773
982.586 .0221722
983.194 .0221658
983.802 .0221591
984.410 .0221524
985.018 .0221469
985.625 .0221430
986.232 .0221407
986.838 .0221385
987.445 .0221365
988.050 .0221335
988.656 .0221279
989.261 .0221197
989.866 .0221101
990.471 .0220994
991.075 .0220890
991.679 .0220796
992.282 .0220720
992.886 .0220662
993.489 .0220620
994.091 .0220581
994.694 .0220546
995.296 .0220506
995.897 .0220447
996.499 .0220377
997.100 .0220305
997.701 .0220235
998.301 .0220177
998.901 .0220142
999.501 .0220131
1000.101 .0220143
1000.700 .0220170
1001.299 .0220195
1001.898 .0220216
1002.496 .0220228
1003.094 .0220224
1003.692 .0220210
1004.289 .0220196
1004.887 .0220188
1005.484 .0220188
1006.080 .0220204
1006.677 .0220227
1007.273 .0220252
1007.868 .0220273
1008.464 .0220278
1009.059 .0220264
1009.654 .0220230
1010.249 .0220177
1010.843 .0220118
1011.437 .0220061
1012.031 .0220015
1012.625 .0219993
1013.218 .0219997
1013.811 .0220022
1014.404 .0220068
1014.997 .0220128
1015.589 .0220189
1016.181 .0220255
1016.773 .0220321
1017.365 .0220385
1017.956 .0220451
1018.547 .0220524
1019.138 .0220605
1019.728 .0220707
1020.319 .0220838
1020.909 .0220989
1021.499 .0221156
1022.088 .0221325
1022.678 .0221472
1023.267 .0221594
1023.856 .0221673
1024.445 .0221707
1025.033 .0221702
1025.621 .0221671
1026.209 .0221621
1026.797 .0221565
1027.385 .0221519
1027.972 .0221487
1028.560 .0221465
1029.147 .0221446
1029.734 .0221416
1030.320 .0221373
1030.907 .0221311
1031.493 .0221235
1032.079 .0221154
1032.665 .0221081
1033.250 .0221014
1033.836 .0220970
1034.421 .0220949
1035.006 .0220953
1035.591 .0220980
1036.176 .0221021
1036.761 .0221071
1037.345 .0221123
1037.929 .0221167
1038.514 .0221207
1039.097 .0221248
1039.681 .0221294
1040.265 .0221336
1040.848 .0221391
1041.432 .0221455
1042.015 .0221534
1042.598 .0221626
1043.181 .0221732
1043.764 .0221847
1044.346 .0221975
1044.929 .0222094
1045.511 .0222207
1046.094 .0222312
1046.676 .0222408
1047.258 .0222498
1047.840 .0222596
1048.422 .0222694
1049.003 .0222808
1049.585 .0222926
1050.166 .0223047
1050.748 .0223156
1051.329 .0223259
1051.910 .0223340
1052.491 .0223418
1053.072 .0223494
1053.653 .0223564
1054.234 .0223635
1054.815 .0223721
1055.396 .0223805
1055.976 .0223891
1056.557 .0223971
1057.138 .0224038
1057.718 .0224083
1058.298 .0224118
1058.879 .0224124
1059.459 .0224138
1060.039 .0224162
1060.620 .0224190
1061.200 .0224235
1061.780 .0224294
1062.360 .0224345
1062.940 .0224394
1063.520 .0224430
1064.101 .0224439
1064.681 .0224416
1065.261 .0224370
1065.841 .0224292
1066.421 .0224211
1067.001 .0224137
1067.581 .0224058
1068.161 .0223977
1068.741 .0223920
1069.321 .0223839
1069.901 .0223736
1070.482 .0223622
1071.062 .0223472
1071.642 .0223312
1072.222 .0223145
1072.803 .0222980
1073.383 .0222841
1073.963 .0222747
1074.544 .0222692
1075.124 .0222656
1075.705 .0222664
1076.286 .0222685
1076.866 .0222700
1077.447 .0222717
1078.028 .0222735
1078.609 .0222748
1079.190 .0222772
1079.771 .0222815
1080.352 .0222873
1080.934 .0222953
1081.515 .0223042
1082.097 .0223141
1082.679 .0223234
1083.260 .0223313
1083.842 .0223388
1084.424 .0223448
1085.007 .0223520
1085.589 .0223571
1086.172 .0223614
1086.754 .0223645
1087.337 .0223657
1087.920 .0223643
1088.503 .0223599
1089.087 .0223550
1089.670 .0223502
1090.254 .0223457
1090.838 .0223453
1091.422 .0223487
1092.006 .0223570
1092.590 .0223689
1093.175 .0223837
1093.760 .0223981
1094.345 .0224112
1094.930 .0224201
1095.516 .0224269
1096.102 .0224303
1096.688 .0224334
1097.274 .0224371
1097.860 .0224448
1098.447 .0224537
1099.034 .0224640
1099.622 .0224741
1100.209 .0224830
1100.797 .0224876
1101.385 .0224865
1101.973 .0224788
1102.562 .0224657
1103.151 .0224485
1103.740 .0224281
1104.330 .0224070
1104.920 .0223894
1105.510 .0223737
1106.101 .0223610
1106.691 .0223496
1107.283 .0223384
1107.874 .0223232
1108.466 .0223070
1109.058 .0222873
1109.651 .0222646
1110.244 .0222421
1110.837 .0222197
1111.431 .0222002
1112.025 .0221831
1112.620 .0221693
1113.215 .0221584
1113.810 .0221496
1114.406 .0221443
1115.002 .0221380
1115.599 .0221332
1116.196 .0221289
1116.793 .0221250
1117.391 .0221211
1117.989 .0221191
1118.588 .0221184
1119.187 .0221195
1119.787 .0221249
1120.387 .0221333
1120.988 .0221449
1121.589 .0221585
1122.190 .0221764
1122.793 .0221943
1123.395 .0222107
1123.998 .0222284
1124.602 .0222471
1125.206 .0222670
1125.811 .0222905
1126.416 .0223152
1127.022 .0223456
1127.628 .0223819
1128.235 .0224216
1128.843 .0224638
1129.451 .0225099
1130.059 .0225562
1130.669 .0225981
1131.278 .0226379
1131.889 .0226784
1132.500 .0227146
1133.112 .0227482
1133.724 .0227830
1134.337 .0228172
1134.950 .0228528
1135.564 .0228927
1136.179 .0229326
1136.795 .0229801
1137.411 .0230318
1138.028 .0230853
1138.645 .0231440
1139.263 .0232117
1139.882 .0232837
1140.502 .0233544
1141.122 .0234400
1141.743 .0235385
1142.365 .0236561
1142.987 .0236405
1143.611 .0236960
1144.235 .0241135
1144.859 .0243158
1145.485 .0246793
