Measurement Sequence started on: 10-20-44-796
Integration time: 35
Scans to Average: 2 
>>>>>Begin Spectral Data<<<<<
432.953 .0393083
433.882 .0364699
434.810 .0334577
435.737 .0318670
436.662 .0319799
437.586 .0330918
438.509 .0328130
439.431 .0327374
440.351 .0327891
441.269 .0328864
442.187 .0329756
443.103 .0330572
444.018 .0331368
444.932 .0332244
445.844 .0333135
446.756 .0334018
447.666 .0334731
448.575 .0335170
449.482 .0335430
450.388 .0335589
451.294 .0335646
452.198 .0335727
453.100 .0335852
454.002 .0336028
454.902 .0336252
455.801 .0336454
456.699 .0336626
457.596 .0336777
458.492 .0336786
459.387 .0336636
460.280 .0336364
461.172 .0335987
462.064 .0335516
462.954 .0335090
463.843 .0334679
464.730 .0334324
465.617 .0334052
466.503 .0333802
467.387 .0333527
468.271 .0333208
469.153 .0332876
470.035 .0332469
470.915 .0332087
471.794 .0331712
472.673 .0331349
473.550 .0331083
474.426 .0330909
475.301 .0330805
476.175 .0330781
477.048 .0330774
477.920 .0330738
478.791 .0330643
479.661 .0330512
480.530 .0330297
481.398 .0330066
482.266 .0329833
483.132 .0329641
483.997 .0329475
484.861 .0329356
485.724 .0329297
486.587 .0329299
487.448 .0329318
488.308 .0329330
489.168 .0329305
490.026 .0329216
490.884 .0329026
491.741 .0328742
492.597 .0328353
493.452 .0327898
494.306 .0327371
495.159 .0326814
496.011 .0326264
496.862 .0325739
497.713 .0325218
498.562 .0324709
499.411 .0324213
500.259 .0323674
501.106 .0323094
501.952 .0322475
502.798 .0321789
503.642 .0321091
504.486 .0320390
505.329 .0319707
506.171 .0319085
507.012 .0318550
507.852 .0318075
508.692 .0317655
509.531 .0317244
510.369 .0316785
511.206 .0316257
512.043 .0315635
512.878 .0314858
513.713 .0313897
514.547 .0312778
515.381 .0311505
516.213 .0310118
517.045 .0308694
517.876 .0307235
518.706 .0305781
519.536 .0304369
520.365 .0302961
521.193 .0301531
522.020 .0300083
522.847 .0298562
523.673 .0296948
524.498 .0295168
525.323 .0293221
526.146 .0291140
526.969 .0288994
527.792 .0286888
528.614 .0284741
529.435 .0282730
530.255 .0280778
531.075 .0278865
531.894 .0276988
532.712 .0275128
533.530 .0273290
534.347 .0271501
535.163 .0269757
535.979 .0268164
536.794 .0266794
537.608 .0265739
538.422 .0264976
539.235 .0264625
540.048 .0264528
540.860 .0264658
541.671 .0264864
542.481 .0265208
543.292 .0265524
544.101 .0265880
544.910 .0266221
545.718 .0266563
546.526 .0266990
547.333 .0267463
548.139 .0267976
548.945 .0268560
549.750 .0269101
550.555 .0269635
551.359 .0270043
552.162 .0270452
552.965 .0270790
553.768 .0271118
554.569 .0271447
555.371 .0271754
556.171 .0272041
556.972 .0272318
557.771 .0272568
558.570 .0272832
559.369 .0273107
560.167 .0273434
560.964 .0273821
561.761 .0274324
562.558 .0274940
563.354 .0275694
564.149 .0276529
564.944 .0277430
565.738 .0278330
566.532 .0279237
567.325 .0280139
568.118 .0280988
568.910 .0281854
569.702 .0282719
570.494 .0283600
571.285 .0284505
572.075 .0285446
572.865 .0286432
573.654 .0287429
574.443 .0288401
575.232 .0289304
576.020 .0290089
576.807 .0290800
577.594 .0291423
578.381 .0292007
579.167 .0292570
579.952 .0293134
580.738 .0293712
581.522 .0294340
582.307 .0294957
583.091 .0295574
583.874 .0296144
584.657 .0296655
585.440 .0297087
586.222 .0297439
587.004 .0297723
587.785 .0297975
588.566 .0298201
589.346 .0298428
590.126 .0298638
590.906 .0298838
591.685 .0299011
592.464 .0299147
593.242 .0299252
594.020 .0299308
594.797 .0299325
595.575 .0299328
596.351 .0299318
597.128 .0299321
597.904 .0299335
598.679 .0299369
599.454 .0299417
600.229 .0299465
601.004 .0299507
601.778 .0299534
602.551 .0299550
603.325 .0299559
604.097 .0299569
604.870 .0299580
605.642 .0299591
606.414 .0299598
607.185 .0299602
607.956 .0299603
608.727 .0299592
609.497 .0299564
610.267 .0299517
611.037 .0299454
611.806 .0299374
612.575 .0299277
613.344 .0299157
614.112 .0299021
614.880 .0298863
615.647 .0298687
616.414 .0298491
617.181 .0298274
617.948 .0298050
618.714 .0297823
619.480 .0297591
620.245 .0297353
621.011 .0297105
621.775 .0296854
622.540 .0296594
623.304 .0296327
624.068 .0296054
624.832 .0295784
625.595 .0295518
626.358 .0295265
627.120 .0295018
627.883 .0294784
628.645 .0294551
629.406 .0294322
630.168 .0294090
630.929 .0293850
631.689 .0293615
632.450 .0293389
633.210 .0293179
633.970 .0292993
634.729 .0292817
635.489 .0292656
636.248 .0292496
637.006 .0292333
637.765 .0292148
638.523 .0291946
639.280 .0291730
640.038 .0291505
640.795 .0291283
641.552 .0291076
642.309 .0290888
643.065 .0290726
643.821 .0290583
644.577 .0290443
645.332 .0290303
646.088 .0290154
646.843 .0289987
647.597 .0289808
648.352 .0289623
649.106 .0289440
649.860 .0289260
650.613 .0289089
651.367 .0288931
652.120 .0288777
652.872 .0288628
653.625 .0288472
654.377 .0288310
655.129 .0288139
655.881 .0287960
656.632 .0287769
657.384 .0287578
658.135 .0287386
658.885 .0287190
659.636 .0286993
660.386 .0286800
661.136 .0286612
661.885 .0286434
662.635 .0286274
663.384 .0286138
664.133 .0286020
664.881 .0285924
665.630 .0285846
666.378 .0285785
667.126 .0285731
667.874 .0285679
668.621 .0285624
669.368 .0285567
670.115 .0285503
670.862 .0285436
671.608 .0285370
672.354 .0285309
673.100 .0285256
673.846 .0285202
674.591 .0285147
675.337 .0285093
676.082 .0285031
676.826 .0284957
677.571 .0284868
678.315 .0284762
679.059 .0284644
679.803 .0284515
680.547 .0284381
681.290 .0284242
682.033 .0284101
682.776 .0283961
683.518 .0283816
684.261 .0283674
685.003 .0283531
685.745 .0283382
686.487 .0283230
687.228 .0283071
687.969 .0282904
688.710 .0282726
689.451 .0282545
690.192 .0282357
690.932 .0282165
691.672 .0281971
692.412 .0281774
693.152 .0281581
693.891 .0281395
694.630 .0281219
695.369 .0281050
696.108 .0280894
696.846 .0280745
697.585 .0280592
698.323 .0280436
699.061 .0280272
699.798 .0280101
700.536 .0279918
701.273 .0279728
702.010 .0279537
702.746 .0279350
703.483 .0279173
704.219 .0279000
704.955 .0278837
705.691 .0278676
706.427 .0278512
707.162 .0278340
707.897 .0278160
708.632 .0277971
709.367 .0277774
710.101 .0277578
710.835 .0277384
711.569 .0277199
712.303 .0277023
713.037 .0276854
713.770 .0276700
714.503 .0276547
715.236 .0276396
715.969 .0276241
716.702 .0276087
717.434 .0275926
718.166 .0275757
718.898 .0275586
719.629 .0275412
720.361 .0275239
721.092 .0275067
721.823 .0274888
722.554 .0274706
723.284 .0274520
724.014 .0274322
724.744 .0274112
725.474 .0273895
726.204 .0273668
726.933 .0273439
727.662 .0273206
728.391 .0272973
729.120 .0272740
729.849 .0272516
730.577 .0272300
731.305 .0272087
732.033 .0271876
732.760 .0271665
733.488 .0271452
734.215 .0271241
734.942 .0271031
735.669 .0270826
736.395 .0270629
737.122 .0270444
737.848 .0270268
738.573 .0270099
739.299 .0269938
740.024 .0269785
740.750 .0269632
741.474 .0269478
742.199 .0269323
742.924 .0269168
743.648 .0269017
744.372 .0268873
745.096 .0268731
745.819 .0268591
746.543 .0268455
747.266 .0268319
747.989 .0268185
748.711 .0268055
749.434 .0267928
750.156 .0267806
750.878 .0267693
751.599 .0267590
752.321 .0267495
753.042 .0267412
753.763 .0267341
754.484 .0267274
755.205 .0267212
755.925 .0267153
756.645 .0267093
757.365 .0267034
758.085 .0266972
758.804 .0266907
759.523 .0266838
760.242 .0266764
760.961 .0266687
761.679 .0266602
762.397 .0266509
763.115 .0266400
763.833 .0266271
764.551 .0266125
765.268 .0265952
765.985 .0265759
766.702 .0265550
767.418 .0265325
768.134 .0265097
768.850 .0264868
769.566 .0264647
770.282 .0264438
770.997 .0264241
771.712 .0264056
772.427 .0263881
773.142 .0263713
773.856 .0263546
774.570 .0263383
775.284 .0263223
775.998 .0263067
776.711 .0262920
777.424 .0262786
778.137 .0262664
778.849 .0262552
779.562 .0262452
780.274 .0262352
780.986 .0262255
781.697 .0262158
782.409 .0262059
783.120 .0261967
783.831 .0261881
784.541 .0261806
785.252 .0261741
785.962 .0261690
786.671 .0261647
787.381 .0261612
788.090 .0261580
788.799 .0261543
789.508 .0261500
790.217 .0261449
790.925 .0261387
791.633 .0261318
792.341 .0261242
793.048 .0261163
793.755 .0261076
794.462 .0260985
795.169 .0260884
795.875 .0260774
796.581 .0260654
797.287 .0260526
797.993 .0260388
798.698 .0260251
799.403 .0260110
800.108 .0259974
800.812 .0259842
801.517 .0259718
802.221 .0259602
802.924 .0259493
803.628 .0259389
804.331 .0259294
805.034 .0259202
805.736 .0259119
806.439 .0259041
807.141 .0258973
807.843 .0258910
808.544 .0258849
809.245 .0258782
809.946 .0258713
810.647 .0258634
811.347 .0258551
812.047 .0258458
812.747 .0258365
813.447 .0258266
814.146 .0258166
814.845 .0258071
815.543 .0257978
816.242 .0257889
816.940 .0257803
817.638 .0257715
818.335 .0257627
819.032 .0257532
819.729 .0257435
820.426 .0257335
821.122 .0257238
821.818 .0257136
822.514 .0257030
823.209 .0256921
823.905 .0256811
824.599 .0256696
825.294 .0256578
825.988 .0256451
826.682 .0256314
827.376 .0256169
828.069 .0256012
828.762 .0255841
829.455 .0255663
830.147 .0255480
830.840 .0255293
831.531 .0255102
832.223 .0254916
832.914 .0254730
833.605 .0254549
834.296 .0254373
834.986 .0254197
835.676 .0254023
836.366 .0253853
837.055 .0253688
837.744 .0253531
838.433 .0253383
839.121 .0253246
839.809 .0253115
840.497 .0252990
841.185 .0252865
841.872 .0252732
842.559 .0252597
843.245 .0252457
843.932 .0252314
844.617 .0252169
845.303 .0252031
845.988 .0251900
846.673 .0251775
847.358 .0251659
848.042 .0251553
848.726 .0251450
849.410 .0251348
850.093 .0251245
850.776 .0251140
851.459 .0251033
852.141 .0250928
852.823 .0250821
853.505 .0250720
854.186 .0250617
854.867 .0250517
855.548 .0250415
856.228 .0250319
856.908 .0250220
857.588 .0250125
858.267 .0250035
858.946 .0249942
859.625 .0249848
860.303 .0249755
860.981 .0249662
861.659 .0249573
862.336 .0249479
863.013 .0249385
863.690 .0249289
864.366 .0249194
865.042 .0249093
865.718 .0248989
866.393 .0248884
867.068 .0248774
867.743 .0248661
868.417 .0248547
869.091 .0248432
869.765 .0248317
870.438 .0248202
871.111 .0248083
871.783 .0247958
872.456 .0247828
873.127 .0247687
873.799 .0247541
874.470 .0247388
875.141 .0247232
875.811 .0247078
876.481 .0246928
877.151 .0246787
877.820 .0246650
878.489 .0246521
879.158 .0246394
879.826 .0246266
880.494 .0246134
881.162 .0246003
881.829 .0245875
882.496 .0245751
883.163 .0245634
883.829 .0245523
884.495 .0245419
885.160 .0245327
885.825 .0245240
886.490 .0245157
887.154 .0245079
887.818 .0245010
888.482 .0244941
889.145 .0244878
889.808 .0244821
890.471 .0244771
891.133 .0244728
891.795 .0244688
892.456 .0244645
893.117 .0244600
893.778 .0244552
894.439 .0244497
895.099 .0244434
895.758 .0244366
896.417 .0244289
897.076 .0244206
897.735 .0244121
898.393 .0244035
899.051 .0243953
899.708 .0243881
900.365 .0243817
901.022 .0243761
901.678 .0243712
902.334 .0243668
902.990 .0243628
903.645 .0243588
904.300 .0243548
904.954 .0243504
905.608 .0243464
906.262 .0243425
906.915 .0243395
907.568 .0243374
908.221 .0243363
908.873 .0243357
909.525 .0243349
910.176 .0243330
910.828 .0243298
911.478 .0243248
912.129 .0243178
912.778 .0243090
913.428 .0242991
914.077 .0242884
914.726 .0242776
915.375 .0242667
916.023 .0242569
916.670 .0242477
917.318 .0242395
917.964 .0242317
918.611 .0242242
919.257 .0242170
919.903 .0242102
920.548 .0242038
921.193 .0241981
921.838 .0241933
922.482 .0241897
923.126 .0241870
923.770 .0241855
924.413 .0241841
925.056 .0241832
925.698 .0241823
926.340 .0241812
926.982 .0241792
927.623 .0241768
928.264 .0241738
928.904 .0241697
929.544 .0241643
930.184 .0241579
930.823 .0241501
931.462 .0241414
932.101 .0241314
932.739 .0241199
933.377 .0241071
934.014 .0240934
934.651 .0240784
935.288 .0240630
935.924 .0240477
936.560 .0240327
937.196 .0240183
937.831 .0240048
938.466 .0239922
939.100 .0239805
939.734 .0239696
940.368 .0239594
941.001 .0239493
941.634 .0239395
942.266 .0239298
942.899 .0239204
943.530 .0239116
944.162 .0239029
944.793 .0238943
945.423 .0238857
946.053 .0238761
946.683 .0238656
947.313 .0238540
947.942 .0238413
948.571 .0238271
949.199 .0238113
949.827 .0237941
950.455 .0237761
951.082 .0237577
951.709 .0237394
952.335 .0237214
952.961 .0237042
953.587 .0236879
954.212 .0236718
954.837 .0236564
955.462 .0236417
956.086 .0236276
956.710 .0236145
957.334 .0236020
957.957 .0235902
958.579 .0235790
959.202 .0235683
959.824 .0235579
960.445 .0235478
961.067 .0235383
961.688 .0235291
962.308 .0235204
962.928 .0235122
963.548 .0235042
964.168 .0234959
964.787 .0234873
965.406 .0234782
966.024 .0234683
966.642 .0234579
967.260 .0234469
967.877 .0234358
968.494 .0234244
969.110 .0234130
969.727 .0234020
970.342 .0233912
970.958 .0233808
971.573 .0233703
972.188 .0233605
972.802 .0233508
973.416 .0233418
974.030 .0233333
974.643 .0233254
975.256 .0233187
975.869 .0233123
976.481 .0233065
977.093 .0233017
977.705 .0232977
978.316 .0232939
978.927 .0232911
979.538 .0232892
980.148 .0232877
980.758 .0232866
981.367 .0232860
981.977 .0232855
982.586 .0232847
983.194 .0232837
983.802 .0232823
984.410 .0232802
985.018 .0232781
985.625 .0232756
986.232 .0232739
986.838 .0232731
987.445 .0232728
988.050 .0232728
988.656 .0232736
989.261 .0232742
989.866 .0232737
990.471 .0232730
991.075 .0232722
991.679 .0232708
992.282 .0232696
992.886 .0232686
993.489 .0232681
994.091 .0232681
994.694 .0232685
995.296 .0232681
995.897 .0232669
996.499 .0232646
997.100 .0232602
997.701 .0232546
998.301 .0232478
998.901 .0232405
999.501 .0232333
1000.101 .0232267
1000.700 .0232202
1001.299 .0232131
1001.898 .0232057
1002.496 .0231981
1003.094 .0231897
1003.692 .0231813
1004.289 .0231731
1004.887 .0231653
1005.484 .0231585
1006.080 .0231529
1006.677 .0231478
1007.273 .0231435
1007.868 .0231391
1008.464 .0231348
1009.059 .0231295
1009.654 .0231240
1010.249 .0231180
1010.843 .0231122
1011.437 .0231074
1012.031 .0231027
1012.625 .0230983
1013.218 .0230943
1013.811 .0230900
1014.404 .0230855
1014.997 .0230806
1015.589 .0230753
1016.181 .0230696
1016.773 .0230643
1017.365 .0230599
1017.956 .0230560
1018.547 .0230533
1019.138 .0230517
1019.728 .0230513
1020.319 .0230522
1020.909 .0230540
1021.499 .0230563
1022.088 .0230595
1022.678 .0230622
1023.267 .0230644
1023.856 .0230656
1024.445 .0230661
1025.033 .0230653
1025.621 .0230635
1026.209 .0230608
1026.797 .0230568
1027.385 .0230514
1027.972 .0230453
1028.560 .0230379
1029.147 .0230295
1029.734 .0230199
1030.320 .0230093
1030.907 .0229981
1031.493 .0229872
1032.079 .0229766
1032.665 .0229673
1033.250 .0229595
1033.836 .0229530
1034.421 .0229469
1035.006 .0229421
1035.591 .0229380
1036.176 .0229341
1036.761 .0229301
1037.345 .0229264
1037.929 .0229218
1038.514 .0229170
1039.097 .0229125
1039.681 .0229089
1040.265 .0229061
1040.848 .0229050
1041.432 .0229044
1042.015 .0229051
1042.598 .0229059
1043.181 .0229065
1043.764 .0229067
1044.346 .0229070
1044.929 .0229063
1045.511 .0229052
1046.094 .0229042
1046.676 .0229051
1047.258 .0229060
1047.840 .0229086
1048.422 .0229120
1049.003 .0229149
1049.585 .0229166
1050.166 .0229170
1050.748 .0229150
1051.329 .0229118
1051.910 .0229065
1052.491 .0228997
1053.072 .0228912
1053.653 .0228829
1054.234 .0228737
1054.815 .0228643
1055.396 .0228556
1055.976 .0228471
1056.557 .0228385
1057.138 .0228316
1057.718 .0228255
1058.298 .0228215
1058.879 .0228197
1059.459 .0228197
1060.039 .0228197
1060.620 .0228195
1061.200 .0228186
1061.780 .0228168
1062.360 .0228146
1062.940 .0228122
1063.520 .0228087
1064.101 .0228062
1064.681 .0228044
1065.261 .0228033
1065.841 .0228026
1066.421 .0228026
1067.001 .0228016
1067.581 .0227993
1068.161 .0227943
1068.741 .0227868
1069.321 .0227765
1069.901 .0227653
1070.482 .0227527
1071.062 .0227386
1071.642 .0227245
1072.222 .0227106
1072.803 .0226969
1073.383 .0226838
1073.963 .0226712
1074.544 .0226597
1075.124 .0226481
1075.705 .0226376
1076.286 .0226282
1076.866 .0226209
1077.447 .0226170
1078.028 .0226151
1078.609 .0226162
1079.190 .0226202
1079.771 .0226261
1080.352 .0226334
1080.934 .0226403
1081.515 .0226465
1082.097 .0226523
1082.679 .0226574
1083.260 .0226628
1083.842 .0226680
1084.424 .0226741
1085.007 .0226803
1085.589 .0226852
1086.172 .0226883
1086.754 .0226889
1087.337 .0226857
1087.920 .0226798
1088.503 .0226702
1089.087 .0226585
1089.670 .0226445
1090.254 .0226302
1090.838 .0226162
1091.422 .0226043
1092.006 .0225948
1092.590 .0225882
1093.175 .0225842
1093.760 .0225831
1094.345 .0225827
1094.930 .0225822
1095.516 .0225807
1096.102 .0225787
1096.688 .0225760
1097.274 .0225723
1097.860 .0225681
1098.447 .0225647
1099.034 .0225644
1099.622 .0225672
1100.209 .0225730
1100.797 .0225828
1101.385 .0225940
1101.973 .0226054
1102.562 .0226157
1103.151 .0226222
1103.740 .0226259
1104.330 .0226282
1104.920 .0226299
1105.510 .0226320
1106.101 .0226371
1106.691 .0226438
1107.283 .0226549
1107.874 .0226706
1108.466 .0226899
1109.058 .0227087
1109.651 .0227283
1110.244 .0227467
1110.837 .0227612
1111.431 .0227743
1112.025 .0227851
1112.620 .0227932
1113.215 .0228020
1113.810 .0228065
1114.406 .0228088
1115.002 .0228113
1115.599 .0228150
1116.196 .0228165
1116.793 .0228164
1117.391 .0228152
1117.989 .0228106
1118.588 .0228027
1119.187 .0227932
1119.787 .0227816
1120.387 .0227713
1120.988 .0227643
1121.589 .0227596
1122.190 .0227575
1122.793 .0227606
1123.395 .0227660
1123.998 .0227756
1124.602 .0227894
1125.206 .0228052
1125.811 .0228205
1126.416 .0228374
1127.022 .0228558
1127.628 .0228733
1128.235 .0228924
1128.843 .0229139
1129.451 .0229335
1130.059 .0229519
1130.669 .0229672
1131.278 .0229779
1131.889 .0229815
1132.500 .0229826
1133.112 .0229811
1133.724 .0229802
1134.337 .0229823
1134.950 .0229861
1135.564 .0229956
1136.179 .0230127
1136.795 .0230352
1137.411 .0230632
1138.028 .0230956
1138.645 .0231331
1139.263 .0231775
1139.882 .0232257
1140.502 .0232847
1141.122 .0233472
1141.743 .0234257
1142.365 .0235191
1142.987 .0235460
1143.611 .0237421
1144.235 .0236427
1144.859 .0240231
1145.485 .0242905
