Measurement Sequence started on: 10-20-44-796
Integration time: 35
Scans to Average: 2 
>>>>>Begin Spectral Data<<<<<
432.953 .0421917
433.882 .0427080
434.810 .0353093
435.737 .0335336
436.662 .0323049
437.586 .0331503
438.509 .0322279
439.431 .0315387
440.351 .0312102
441.269 .0310125
442.187 .0309082
443.103 .0308586
444.018 .0308978
444.932 .0309639
445.844 .0310520
446.756 .0311524
447.666 .0312635
448.575 .0313668
449.482 .0314356
450.388 .0314856
451.294 .0315179
452.198 .0315335
453.100 .0315421
454.002 .0315494
454.902 .0315581
455.801 .0315654
456.699 .0315721
457.596 .0315807
458.492 .0315868
459.387 .0315959
460.280 .0315949
461.172 .0315900
462.064 .0315897
462.954 .0315822
463.843 .0315748
464.730 .0315757
465.617 .0315834
466.503 .0315950
467.387 .0316060
468.271 .0316133
469.153 .0316145
470.035 .0316087
470.915 .0315989
471.794 .0315786
472.673 .0315531
473.550 .0315237
474.426 .0314896
475.301 .0314573
476.175 .0314243
477.048 .0313889
477.920 .0313576
478.791 .0313275
479.661 .0312953
480.530 .0312595
481.398 .0312253
482.266 .0311922
483.132 .0311598
483.997 .0311278
484.861 .0310957
485.724 .0310664
486.587 .0310414
487.448 .0310151
488.308 .0309891
489.168 .0309639
490.026 .0309360
490.884 .0309075
491.741 .0308788
492.597 .0308466
493.452 .0308113
494.306 .0307785
495.159 .0307457
496.011 .0307101
496.862 .0306744
497.713 .0306364
498.562 .0305968
499.411 .0305570
500.259 .0305115
501.106 .0304620
501.952 .0304147
502.798 .0303687
503.642 .0303212
504.486 .0302744
505.329 .0302259
506.171 .0301741
507.012 .0301214
507.852 .0300628
508.692 .0299969
509.531 .0299281
510.369 .0298570
511.206 .0297847
512.043 .0297129
512.878 .0296389
513.713 .0295584
514.547 .0294697
515.381 .0293714
516.213 .0292543
517.045 .0291209
517.876 .0289712
518.706 .0288070
519.536 .0286370
520.365 .0284595
521.193 .0282798
522.020 .0281058
522.847 .0279340
523.673 .0277598
524.498 .0275771
525.323 .0273865
526.146 .0271888
526.969 .0269872
527.792 .0267798
528.614 .0265728
529.435 .0263796
530.255 .0262048
531.075 .0260454
531.894 .0259060
532.712 .0257858
533.530 .0256781
534.347 .0255770
535.163 .0254761
535.979 .0253783
536.794 .0252898
537.608 .0252114
538.422 .0251532
539.235 .0251169
540.048 .0251034
540.860 .0251085
541.671 .0251336
542.481 .0251755
543.292 .0252215
544.101 .0252655
544.910 .0253084
545.718 .0253507
546.526 .0253924
547.333 .0254320
548.139 .0254782
548.945 .0255326
549.750 .0255909
550.555 .0256451
551.359 .0256938
552.162 .0257374
552.965 .0257721
553.768 .0257938
554.569 .0258104
555.371 .0258242
556.171 .0258405
556.972 .0258655
557.771 .0259024
558.570 .0259502
559.369 .0260062
560.167 .0260698
560.964 .0261379
561.761 .0262067
562.558 .0262782
563.354 .0263523
564.149 .0264310
564.944 .0265165
565.738 .0266035
566.532 .0266934
567.325 .0267866
568.118 .0268788
568.910 .0269712
569.702 .0270639
570.494 .0271582
571.285 .0272535
572.075 .0273531
572.865 .0274560
573.654 .0275583
574.443 .0276597
575.232 .0277574
576.020 .0278519
576.807 .0279411
577.594 .0280246
578.381 .0281036
579.167 .0281805
579.952 .0282550
580.738 .0283286
581.522 .0284024
582.307 .0284734
583.091 .0285417
583.874 .0286062
584.657 .0286649
585.440 .0287181
586.222 .0287645
587.004 .0288040
587.785 .0288369
588.566 .0288656
589.346 .0288881
590.126 .0289070
590.906 .0289244
591.685 .0289403
592.464 .0289548
593.242 .0289688
594.020 .0289819
594.797 .0289936
595.575 .0290044
596.351 .0290129
597.128 .0290187
597.904 .0290220
598.679 .0290225
599.454 .0290195
600.229 .0290155
601.004 .0290109
601.778 .0290058
602.551 .0290013
603.325 .0289973
604.097 .0289933
604.870 .0289890
605.642 .0289838
606.414 .0289772
607.185 .0289685
607.956 .0289584
608.727 .0289465
609.497 .0289336
610.267 .0289210
611.037 .0289087
611.806 .0288960
612.575 .0288840
613.344 .0288709
614.112 .0288567
614.880 .0288408
615.647 .0288235
616.414 .0288049
617.181 .0287859
617.948 .0287675
618.714 .0287502
619.480 .0287347
620.245 .0287216
621.011 .0287096
621.775 .0286988
622.540 .0286877
623.304 .0286758
624.068 .0286630
624.832 .0286500
625.595 .0286369
626.358 .0286250
627.120 .0286141
627.883 .0286045
628.645 .0285963
629.406 .0285882
630.168 .0285793
630.929 .0285690
631.689 .0285568
632.450 .0285420
633.210 .0285253
633.970 .0285073
634.729 .0284886
635.489 .0284697
636.248 .0284505
637.006 .0284311
637.765 .0284120
638.523 .0283921
639.280 .0283719
640.038 .0283517
640.795 .0283315
641.552 .0283112
642.309 .0282921
643.065 .0282743
643.821 .0282575
644.577 .0282416
645.332 .0282265
646.088 .0282116
646.843 .0281973
647.597 .0281827
648.352 .0281687
649.106 .0281559
649.860 .0281432
650.613 .0281309
651.367 .0281194
652.120 .0281085
652.872 .0280974
653.625 .0280862
654.377 .0280753
655.129 .0280637
655.881 .0280521
656.632 .0280404
657.384 .0280288
658.135 .0280179
658.885 .0280070
659.636 .0279958
660.386 .0279849
661.136 .0279735
661.885 .0279612
662.635 .0279493
663.384 .0279375
664.133 .0279259
664.881 .0279143
665.630 .0279034
666.378 .0278926
667.126 .0278813
667.874 .0278702
668.621 .0278578
669.368 .0278448
670.115 .0278308
670.862 .0278153
671.608 .0277998
672.354 .0277849
673.100 .0277707
673.846 .0277576
674.591 .0277459
675.337 .0277352
676.082 .0277246
676.826 .0277145
677.571 .0277045
678.315 .0276943
679.059 .0276842
679.803 .0276744
680.547 .0276645
681.290 .0276553
682.033 .0276458
682.776 .0276363
683.518 .0276267
684.261 .0276163
685.003 .0276044
685.745 .0275912
686.487 .0275769
687.228 .0275620
687.969 .0275463
688.710 .0275306
689.451 .0275145
690.192 .0274984
690.932 .0274817
691.672 .0274648
692.412 .0274471
693.152 .0274290
693.891 .0274107
694.630 .0273925
695.369 .0273744
696.108 .0273569
696.846 .0273399
697.585 .0273235
698.323 .0273070
699.061 .0272903
699.798 .0272726
700.536 .0272545
701.273 .0272359
702.010 .0272172
702.746 .0271983
703.483 .0271797
704.219 .0271613
704.955 .0271431
705.691 .0271250
706.427 .0271068
707.162 .0270890
707.897 .0270716
708.632 .0270550
709.367 .0270396
710.101 .0270255
710.835 .0270129
711.569 .0270010
712.303 .0269893
713.037 .0269775
713.770 .0269649
714.503 .0269511
715.236 .0269368
715.969 .0269226
716.702 .0269086
717.434 .0268959
718.166 .0268842
718.898 .0268736
719.629 .0268636
720.361 .0268537
721.092 .0268429
721.823 .0268309
722.554 .0268174
723.284 .0268026
724.014 .0267868
724.744 .0267708
725.474 .0267547
726.204 .0267391
726.933 .0267240
727.662 .0267088
728.391 .0266929
729.120 .0266763
729.849 .0266585
730.577 .0266398
731.305 .0266196
732.033 .0265986
732.760 .0265773
733.488 .0265563
734.215 .0265356
734.942 .0265155
735.669 .0264961
736.395 .0264779
737.122 .0264607
737.848 .0264439
738.573 .0264279
739.299 .0264122
740.024 .0263969
740.750 .0263818
741.474 .0263667
742.199 .0263523
742.924 .0263386
743.648 .0263261
744.372 .0263146
745.096 .0263042
745.819 .0262947
746.543 .0262853
747.266 .0262761
747.989 .0262669
748.711 .0262573
749.434 .0262473
750.156 .0262372
750.878 .0262272
751.599 .0262177
752.321 .0262089
753.042 .0262010
753.763 .0261946
754.484 .0261889
755.205 .0261838
755.925 .0261790
756.645 .0261740
757.365 .0261687
758.085 .0261624
758.804 .0261550
759.523 .0261464
760.242 .0261362
760.961 .0261244
761.679 .0261110
762.397 .0260962
763.115 .0260799
763.833 .0260617
764.551 .0260421
765.268 .0260210
765.985 .0259986
766.702 .0259753
767.418 .0259511
768.134 .0259267
768.850 .0259023
769.566 .0258777
770.282 .0258536
770.997 .0258304
771.712 .0258084
772.427 .0257878
773.142 .0257688
773.856 .0257512
774.570 .0257348
775.284 .0257192
775.998 .0257048
776.711 .0256908
777.424 .0256771
778.137 .0256632
778.849 .0256486
779.562 .0256337
780.274 .0256180
780.986 .0256021
781.697 .0255865
782.409 .0255715
783.120 .0255572
783.831 .0255438
784.541 .0255318
785.252 .0255207
785.962 .0255112
786.671 .0255025
787.381 .0254945
788.090 .0254873
788.799 .0254808
789.508 .0254749
790.217 .0254696
790.925 .0254648
791.633 .0254600
792.341 .0254548
793.048 .0254489
793.755 .0254418
794.462 .0254336
795.169 .0254238
795.875 .0254129
796.581 .0254004
797.287 .0253871
797.993 .0253729
798.698 .0253586
799.403 .0253441
800.108 .0253294
800.812 .0253143
801.517 .0252985
802.221 .0252825
802.924 .0252660
803.628 .0252493
804.331 .0252330
805.034 .0252170
805.736 .0252019
806.439 .0251872
807.141 .0251737
807.843 .0251612
808.544 .0251497
809.245 .0251391
809.946 .0251292
810.647 .0251201
811.347 .0251117
812.047 .0251040
812.747 .0250970
813.447 .0250904
814.146 .0250840
814.845 .0250777
815.543 .0250715
816.242 .0250656
816.940 .0250593
817.638 .0250529
818.335 .0250465
819.032 .0250392
819.729 .0250309
820.426 .0250213
821.122 .0250102
821.818 .0249973
822.514 .0249826
823.209 .0249668
823.905 .0249501
824.599 .0249329
825.294 .0249155
825.988 .0248980
826.682 .0248809
827.376 .0248639
828.069 .0248469
828.762 .0248302
829.455 .0248137
830.147 .0247971
830.840 .0247812
831.531 .0247661
832.223 .0247522
832.914 .0247389
833.605 .0247263
834.296 .0247138
834.986 .0247010
835.676 .0246876
836.366 .0246736
837.055 .0246595
837.744 .0246452
838.433 .0246310
839.121 .0246177
839.809 .0246053
840.497 .0245936
841.185 .0245827
841.872 .0245718
842.559 .0245610
843.245 .0245499
843.932 .0245384
844.617 .0245270
845.303 .0245164
845.988 .0245068
846.673 .0244983
847.358 .0244912
848.042 .0244857
848.726 .0244808
849.410 .0244761
850.093 .0244710
850.776 .0244646
851.459 .0244567
852.141 .0244473
852.823 .0244364
853.505 .0244247
854.186 .0244124
854.867 .0243999
855.548 .0243872
856.228 .0243749
856.908 .0243630
857.588 .0243510
858.267 .0243397
858.946 .0243284
859.625 .0243169
860.303 .0243058
860.981 .0242951
861.659 .0242850
862.336 .0242753
863.013 .0242662
863.690 .0242577
864.366 .0242497
865.042 .0242418
865.718 .0242339
866.393 .0242259
867.068 .0242177
867.743 .0242090
868.417 .0241993
869.091 .0241896
869.765 .0241794
870.438 .0241693
871.111 .0241595
871.783 .0241501
872.456 .0241411
873.127 .0241324
873.799 .0241240
874.470 .0241158
875.141 .0241076
875.811 .0240997
876.481 .0240916
877.151 .0240836
877.820 .0240753
878.489 .0240671
879.158 .0240588
879.826 .0240510
880.494 .0240429
881.162 .0240346
881.829 .0240262
882.496 .0240180
883.163 .0240096
883.829 .0240016
884.495 .0239941
885.160 .0239870
885.825 .0239802
886.490 .0239736
887.154 .0239673
887.818 .0239617
888.482 .0239565
889.145 .0239515
889.808 .0239471
890.471 .0239431
891.133 .0239394
891.795 .0239359
892.456 .0239329
893.117 .0239294
893.778 .0239256
894.439 .0239212
895.099 .0239160
895.758 .0239104
896.417 .0239045
897.076 .0238983
897.735 .0238923
898.393 .0238860
899.051 .0238794
899.708 .0238727
900.365 .0238663
901.022 .0238599
901.678 .0238536
902.334 .0238473
902.990 .0238411
903.645 .0238347
904.300 .0238283
904.954 .0238217
905.608 .0238148
906.262 .0238075
906.915 .0237998
907.568 .0237920
908.221 .0237844
908.873 .0237769
909.525 .0237698
910.176 .0237629
910.828 .0237562
911.478 .0237493
912.129 .0237418
912.778 .0237337
913.428 .0237251
914.077 .0237163
914.726 .0237072
915.375 .0236981
916.023 .0236896
916.670 .0236821
917.318 .0236752
917.964 .0236691
918.611 .0236634
919.257 .0236585
919.903 .0236538
920.548 .0236494
921.193 .0236456
921.838 .0236427
922.482 .0236407
923.126 .0236395
923.770 .0236387
924.413 .0236383
925.056 .0236375
925.698 .0236366
926.340 .0236349
926.982 .0236324
927.623 .0236286
928.264 .0236239
928.904 .0236181
929.544 .0236116
930.184 .0236038
930.823 .0235950
931.462 .0235849
932.101 .0235736
932.739 .0235607
933.377 .0235465
934.014 .0235311
934.651 .0235150
935.288 .0234983
935.924 .0234819
936.560 .0234654
937.196 .0234494
937.831 .0234339
938.466 .0234188
939.100 .0234040
939.734 .0233892
940.368 .0233745
941.001 .0233597
941.634 .0233452
942.266 .0233312
942.899 .0233170
943.530 .0233032
944.162 .0232898
944.793 .0232763
945.423 .0232624
946.053 .0232477
946.683 .0232321
947.313 .0232158
947.942 .0231984
948.571 .0231794
949.199 .0231594
949.827 .0231388
950.455 .0231174
951.082 .0230956
951.709 .0230739
952.335 .0230523
952.961 .0230309
953.587 .0230104
954.212 .0229903
954.837 .0229708
955.462 .0229523
956.086 .0229345
956.710 .0229180
957.334 .0229024
957.957 .0228874
958.579 .0228728
959.202 .0228589
959.824 .0228452
960.445 .0228310
961.067 .0228171
961.688 .0228035
962.308 .0227903
962.928 .0227779
963.548 .0227665
964.168 .0227557
964.787 .0227451
965.406 .0227346
966.024 .0227238
966.642 .0227126
967.260 .0227008
967.877 .0226891
968.494 .0226774
969.110 .0226664
969.727 .0226564
970.342 .0226473
970.958 .0226396
971.573 .0226330
972.188 .0226269
972.802 .0226213
973.416 .0226154
974.030 .0226093
974.643 .0226029
975.256 .0225961
975.869 .0225886
976.481 .0225806
977.093 .0225726
977.705 .0225652
978.316 .0225584
978.927 .0225523
979.538 .0225466
980.148 .0225413
980.758 .0225354
981.367 .0225289
981.977 .0225216
982.586 .0225136
983.194 .0225049
983.802 .0224966
984.410 .0224885
985.018 .0224813
985.625 .0224755
986.232 .0224713
986.838 .0224683
987.445 .0224660
988.050 .0224635
988.656 .0224607
989.261 .0224571
989.866 .0224528
990.471 .0224477
991.075 .0224424
991.679 .0224369
992.282 .0224312
992.886 .0224255
993.489 .0224194
994.091 .0224130
994.694 .0224061
995.296 .0223989
995.897 .0223910
996.499 .0223822
997.100 .0223730
997.701 .0223641
998.301 .0223553
998.901 .0223470
999.501 .0223394
1000.101 .0223328
1000.700 .0223273
1001.299 .0223231
1001.898 .0223199
1002.496 .0223178
1003.094 .0223166
1003.692 .0223160
1004.289 .0223152
1004.887 .0223147
1005.484 .0223134
1006.080 .0223124
1006.677 .0223119
1007.273 .0223111
1007.868 .0223105
1008.464 .0223102
1009.059 .0223102
1009.654 .0223106
1010.249 .0223112
1010.843 .0223120
1011.437 .0223129
1012.031 .0223142
1012.625 .0223159
1013.218 .0223180
1013.811 .0223209
1014.404 .0223243
1014.997 .0223283
1015.589 .0223324
1016.181 .0223363
1016.773 .0223400
1017.365 .0223441
1017.956 .0223473
1018.547 .0223498
1019.138 .0223507
1019.728 .0223502
1020.319 .0223481
1020.909 .0223438
1021.499 .0223374
1022.088 .0223299
1022.678 .0223210
1023.267 .0223118
1023.856 .0223023
1024.445 .0222940
1025.033 .0222865
1025.621 .0222803
1026.209 .0222748
1026.797 .0222697
1027.385 .0222645
1027.972 .0222601
1028.560 .0222559
1029.147 .0222533
1029.734 .0222519
1030.320 .0222527
1030.907 .0222554
1031.493 .0222600
1032.079 .0222660
1032.665 .0222734
1033.250 .0222807
1033.836 .0222881
1034.421 .0222939
1035.006 .0222986
1035.591 .0223022
1036.176 .0223050
1036.761 .0223070
1037.345 .0223093
1037.929 .0223114
1038.514 .0223138
1039.097 .0223161
1039.681 .0223197
1040.265 .0223232
1040.848 .0223275
1041.432 .0223324
1042.015 .0223370
1042.598 .0223420
1043.181 .0223476
1043.764 .0223526
1044.346 .0223577
1044.929 .0223625
1045.511 .0223667
1046.094 .0223707
1046.676 .0223749
1047.258 .0223787
1047.840 .0223817
1048.422 .0223847
1049.003 .0223865
1049.585 .0223863
1050.166 .0223860
1050.748 .0223844
1051.329 .0223823
1051.910 .0223801
1052.491 .0223777
1053.072 .0223753
1053.653 .0223736
1054.234 .0223719
1054.815 .0223690
1055.396 .0223650
1055.976 .0223593
1056.557 .0223513
1057.138 .0223422
1057.718 .0223325
1058.298 .0223214
1058.879 .0223102
1059.459 .0223000
1060.039 .0222892
1060.620 .0222783
1061.200 .0222678
1061.780 .0222574
1062.360 .0222465
1062.940 .0222361
1063.520 .0222267
1064.101 .0222189
1064.681 .0222145
1065.261 .0222131
1065.841 .0222138
1066.421 .0222178
1067.001 .0222233
1067.581 .0222288
1068.161 .0222335
1068.741 .0222372
1069.321 .0222375
1069.901 .0222362
1070.482 .0222328
1071.062 .0222275
1071.642 .0222213
1072.222 .0222156
1072.803 .0222083
1073.383 .0222009
1073.963 .0221931
1074.544 .0221846
1075.124 .0221748
1075.705 .0221650
1076.286 .0221538
1076.866 .0221440
1077.447 .0221352
1078.028 .0221290
1078.609 .0221265
1079.190 .0221287
1079.771 .0221334
1080.352 .0221407
1080.934 .0221499
1081.515 .0221597
1082.097 .0221678
1082.679 .0221756
1083.260 .0221800
1083.842 .0221821
1084.424 .0221807
1085.007 .0221769
1085.589 .0221718
1086.172 .0221658
1086.754 .0221589
1087.337 .0221535
1087.920 .0221505
1088.503 .0221495
1089.087 .0221502
1089.670 .0221539
1090.254 .0221605
1090.838 .0221670
1091.422 .0221736
1092.006 .0221794
1092.590 .0221845
1093.175 .0221903
1093.760 .0221962
1094.345 .0222037
1094.930 .0222141
1095.516 .0222267
1096.102 .0222416
1096.688 .0222569
1097.274 .0222725
1097.860 .0222842
1098.447 .0222919
1099.034 .0222939
1099.622 .0222892
1100.209 .0222781
1100.797 .0222648
1101.385 .0222492
1101.973 .0222336
1102.562 .0222185
1103.151 .0222064
1103.740 .0221962
1104.330 .0221887
1104.920 .0221822
1105.510 .0221758
1106.101 .0221694
1106.691 .0221623
1107.283 .0221526
1107.874 .0221436
1108.466 .0221329
1109.058 .0221235
1109.651 .0221157
1110.244 .0221116
1110.837 .0221117
1111.431 .0221158
1112.025 .0221245
1112.620 .0221363
1113.215 .0221493
1113.810 .0221620
1114.406 .0221739
1115.002 .0221836
1115.599 .0221896
1116.196 .0221909
1116.793 .0221895
1117.391 .0221868
1117.989 .0221829
1118.588 .0221818
1119.187 .0221820
1119.787 .0221829
1120.387 .0221833
1120.988 .0221796
1121.589 .0221743
1122.190 .0221654
1122.793 .0221534
1123.395 .0221387
1123.998 .0221248
1124.602 .0221154
1125.206 .0221128
1125.811 .0221191
1126.416 .0221364
1127.022 .0221617
1127.628 .0221935
1128.235 .0222278
1128.843 .0222649
1129.451 .0223038
1130.059 .0223453
1130.669 .0223864
1131.278 .0224309
1131.889 .0224761
1132.500 .0225238
1133.112 .0225721
1133.724 .0226227
1134.337 .0226727
1134.950 .0227182
1135.564 .0227543
1136.179 .0227839
1136.795 .0228047
1137.411 .0228197
1138.028 .0228274
1138.645 .0228319
1139.263 .0228376
1139.882 .0228428
1140.502 .0228487
1141.122 .0228494
1141.743 .0228487
1142.365 .0228467
1142.987 .0228893
1143.611 .0228980
1144.235 .0226946
1144.859 .0227292
1145.485 .0227953
