Measurement Sequence started on: 10-20-44-796
Integration time: 35
Scans to Average: 2 
>>>>>Begin Spectral Data<<<<<
432.953 .0232772
433.882 .0379094
434.810 .0314084
435.737 .0329904
436.662 .0317664
437.586 .0325249
438.509 .0328419
439.431 .0327852
440.351 .0329358
441.269 .0330167
442.187 .0330896
443.103 .0330908
444.018 .0330776
444.932 .0330304
445.844 .0329599
446.756 .0329026
447.666 .0328775
448.575 .0328891
449.482 .0329057
450.388 .0329431
451.294 .0329863
452.198 .0330312
453.100 .0330726
454.002 .0331071
454.902 .0331485
455.801 .0331934
456.699 .0332432
457.596 .0333048
458.492 .0333672
459.387 .0334172
460.280 .0334519
461.172 .0334555
462.064 .0334244
462.954 .0333639
463.843 .0332807
464.730 .0331873
465.617 .0330941
466.503 .0330048
467.387 .0329144
468.271 .0328230
469.153 .0327291
470.035 .0326259
470.915 .0325232
471.794 .0324131
472.673 .0323033
473.550 .0322057
474.426 .0321304
475.301 .0320750
476.175 .0320536
477.048 .0320620
477.920 .0320908
478.791 .0321336
479.661 .0321864
480.530 .0322390
481.398 .0322925
482.266 .0323471
483.132 .0323993
483.997 .0324525
484.861 .0325088
485.724 .0325635
486.587 .0326203
487.448 .0326768
488.308 .0327260
489.168 .0327634
490.026 .0327911
490.884 .0328045
491.741 .0328019
492.597 .0327867
493.452 .0327595
494.306 .0327230
495.159 .0326794
496.011 .0326340
496.862 .0325844
497.713 .0325355
498.562 .0324835
499.411 .0324289
500.259 .0323695
501.106 .0323058
501.952 .0322364
502.798 .0321639
503.642 .0320911
504.486 .0320187
505.329 .0319432
506.171 .0318697
507.012 .0317996
507.852 .0317324
508.692 .0316580
509.531 .0315761
510.369 .0314806
511.206 .0313739
512.043 .0312516
512.878 .0311163
513.713 .0309727
514.547 .0308286
515.381 .0306858
516.213 .0305436
517.045 .0304026
517.876 .0302604
518.706 .0301122
519.536 .0299601
520.365 .0297954
521.193 .0296192
522.020 .0294305
522.847 .0292472
523.673 .0290572
524.498 .0288661
525.323 .0286750
526.146 .0284856
526.969 .0282996
527.792 .0281090
528.614 .0279099
529.435 .0277178
530.255 .0275390
531.075 .0273739
531.894 .0272252
532.712 .0271042
533.530 .0270010
534.347 .0269169
535.163 .0268463
535.979 .0267914
536.794 .0267489
537.608 .0267324
538.422 .0267417
539.235 .0267792
540.048 .0268458
540.860 .0269329
541.671 .0270379
542.481 .0271485
543.292 .0272415
544.101 .0273096
544.910 .0273511
545.718 .0273623
546.526 .0273540
547.333 .0273323
548.139 .0273071
548.945 .0272889
549.750 .0272760
550.555 .0272702
551.359 .0272704
552.162 .0272768
552.965 .0272882
553.768 .0272983
554.569 .0273157
555.371 .0273282
556.171 .0273491
556.972 .0273787
557.771 .0274143
558.570 .0274598
559.369 .0275201
560.167 .0275882
560.964 .0276639
561.761 .0277457
562.558 .0278314
563.354 .0279133
564.149 .0279857
564.944 .0280461
565.738 .0280945
566.532 .0281328
567.325 .0281677
568.118 .0282018
568.910 .0282478
569.702 .0283082
570.494 .0283826
571.285 .0284708
572.075 .0285722
572.865 .0286796
573.654 .0287852
574.443 .0288860
575.232 .0289779
576.020 .0290579
576.807 .0291307
577.594 .0291976
578.381 .0292603
579.167 .0293196
579.952 .0293793
580.738 .0294383
581.522 .0294990
582.307 .0295594
583.091 .0296178
583.874 .0296748
584.657 .0297283
585.440 .0297761
586.222 .0298177
587.004 .0298538
587.785 .0298863
588.566 .0299160
589.346 .0299442
590.126 .0299708
590.906 .0299978
591.685 .0300243
592.464 .0300502
593.242 .0300732
594.020 .0300925
594.797 .0301070
595.575 .0301166
596.351 .0301210
597.128 .0301200
597.904 .0301153
598.679 .0301088
599.454 .0301003
600.229 .0300919
601.004 .0300836
601.778 .0300756
602.551 .0300656
603.325 .0300539
604.097 .0300393
604.870 .0300221
605.642 .0300026
606.414 .0299824
607.185 .0299617
607.956 .0299421
608.727 .0299232
609.497 .0299042
610.267 .0298855
611.037 .0298666
611.806 .0298454
612.575 .0298225
613.344 .0297973
614.112 .0297709
614.880 .0297440
615.647 .0297182
616.414 .0296937
617.181 .0296712
617.948 .0296503
618.714 .0296302
619.480 .0296105
620.245 .0295906
621.011 .0295692
621.775 .0295484
622.540 .0295286
623.304 .0295103
624.068 .0294943
624.832 .0294814
625.595 .0294712
626.358 .0294640
627.120 .0294587
627.883 .0294533
628.645 .0294482
629.406 .0294430
630.168 .0294358
630.929 .0294277
631.689 .0294185
632.450 .0294084
633.210 .0293979
633.970 .0293873
634.729 .0293760
635.489 .0293645
636.248 .0293533
637.006 .0293419
637.765 .0293293
638.523 .0293159
639.280 .0293015
640.038 .0292854
640.795 .0292688
641.552 .0292514
642.309 .0292337
643.065 .0292165
643.821 .0291994
644.577 .0291827
645.332 .0291659
646.088 .0291493
646.843 .0291322
647.597 .0291136
648.352 .0290942
649.106 .0290728
649.860 .0290499
650.613 .0290265
651.367 .0290027
652.120 .0289795
652.872 .0289577
653.625 .0289381
654.377 .0289206
655.129 .0289052
655.881 .0288915
656.632 .0288782
657.384 .0288653
658.135 .0288521
658.885 .0288380
659.636 .0288240
660.386 .0288105
661.136 .0287969
661.885 .0287839
662.635 .0287715
663.384 .0287591
664.133 .0287469
664.881 .0287340
665.630 .0287202
666.378 .0287056
667.126 .0286904
667.874 .0286747
668.621 .0286591
669.368 .0286446
670.115 .0286306
670.862 .0286174
671.608 .0286056
672.354 .0285938
673.100 .0285827
673.846 .0285723
674.591 .0285624
675.337 .0285531
676.082 .0285450
676.826 .0285375
677.571 .0285300
678.315 .0285228
679.059 .0285146
679.803 .0285051
680.547 .0284945
681.290 .0284822
682.033 .0284680
682.776 .0284524
683.518 .0284359
684.261 .0284179
685.003 .0284002
685.745 .0283821
686.487 .0283639
687.228 .0283458
687.969 .0283269
688.710 .0283077
689.451 .0282878
690.192 .0282676
690.932 .0282469
691.672 .0282255
692.412 .0282048
693.152 .0281841
693.891 .0281644
694.630 .0281457
695.369 .0281279
696.108 .0281105
696.846 .0280932
697.585 .0280757
698.323 .0280580
699.061 .0280399
699.798 .0280216
700.536 .0280025
701.273 .0279828
702.010 .0279630
702.746 .0279428
703.483 .0279222
704.219 .0279018
704.955 .0278806
705.691 .0278601
706.427 .0278401
707.162 .0278215
707.897 .0278047
708.632 .0277900
709.367 .0277772
710.101 .0277654
710.835 .0277539
711.569 .0277422
712.303 .0277292
713.037 .0277161
713.770 .0277019
714.503 .0276871
715.236 .0276727
715.969 .0276595
716.702 .0276477
717.434 .0276377
718.166 .0276281
718.898 .0276192
719.629 .0276101
720.361 .0276001
721.092 .0275888
721.823 .0275765
722.554 .0275628
723.284 .0275475
724.014 .0275300
724.744 .0275112
725.474 .0274907
726.204 .0274691
726.933 .0274464
727.662 .0274227
728.391 .0273978
729.120 .0273718
729.849 .0273451
730.577 .0273186
731.305 .0272914
732.033 .0272644
732.760 .0272374
733.488 .0272112
734.215 .0271859
734.942 .0271623
735.669 .0271409
736.395 .0271228
737.122 .0271072
737.848 .0270938
738.573 .0270825
739.299 .0270724
740.024 .0270622
740.750 .0270511
741.474 .0270392
742.199 .0270259
742.924 .0270106
743.648 .0269943
744.372 .0269772
745.096 .0269606
745.819 .0269437
746.543 .0269269
747.266 .0269103
747.989 .0268941
748.711 .0268787
749.434 .0268645
750.156 .0268524
750.878 .0268426
751.599 .0268354
752.321 .0268312
753.042 .0268298
753.763 .0268303
754.484 .0268318
755.205 .0268339
755.925 .0268357
756.645 .0268351
757.365 .0268319
758.085 .0268271
758.804 .0268195
759.523 .0268092
760.242 .0267963
760.961 .0267808
761.679 .0267631
762.397 .0267427
763.115 .0267195
763.833 .0266942
764.551 .0266677
765.268 .0266400
765.985 .0266123
766.702 .0265856
767.418 .0265602
768.134 .0265370
768.850 .0265169
769.566 .0264997
770.282 .0264848
770.997 .0264725
771.712 .0264622
772.427 .0264541
773.142 .0264470
773.856 .0264406
774.570 .0264354
775.284 .0264304
775.998 .0264257
776.711 .0264208
777.424 .0264163
778.137 .0264115
778.849 .0264066
779.562 .0264012
780.274 .0263951
780.986 .0263889
781.697 .0263820
782.409 .0263749
783.120 .0263677
783.831 .0263607
784.541 .0263534
785.252 .0263466
785.962 .0263401
786.671 .0263332
787.381 .0263269
788.090 .0263210
788.799 .0263157
789.508 .0263104
790.217 .0263052
790.925 .0262993
791.633 .0262927
792.341 .0262846
793.048 .0262741
793.755 .0262622
794.462 .0262483
795.169 .0262326
795.875 .0262158
796.581 .0261989
797.287 .0261824
797.993 .0261663
798.698 .0261516
799.403 .0261378
800.108 .0261247
800.812 .0261120
801.517 .0260993
802.221 .0260868
802.924 .0260744
803.628 .0260625
804.331 .0260513
805.034 .0260414
805.736 .0260323
806.439 .0260246
807.141 .0260181
807.843 .0260126
808.544 .0260074
809.245 .0260018
809.946 .0259957
810.647 .0259888
811.347 .0259811
812.047 .0259727
812.747 .0259636
813.447 .0259543
814.146 .0259440
814.845 .0259336
815.543 .0259231
816.242 .0259126
816.940 .0259021
817.638 .0258921
818.335 .0258820
819.032 .0258720
819.729 .0258622
820.426 .0258524
821.122 .0258422
821.818 .0258313
822.514 .0258193
823.209 .0258059
823.905 .0257918
824.599 .0257767
825.294 .0257609
825.988 .0257453
826.682 .0257293
827.376 .0257129
828.069 .0256962
828.762 .0256793
829.455 .0256615
830.147 .0256431
830.840 .0256250
831.531 .0256067
832.223 .0255892
832.914 .0255731
833.605 .0255588
834.296 .0255466
834.986 .0255364
835.676 .0255275
836.366 .0255194
837.055 .0255121
837.744 .0255047
838.433 .0254973
839.121 .0254902
839.809 .0254833
840.497 .0254765
841.185 .0254704
841.872 .0254648
842.559 .0254599
843.245 .0254553
843.932 .0254502
844.617 .0254443
845.303 .0254374
845.988 .0254289
846.673 .0254190
847.358 .0254084
848.042 .0253976
848.726 .0253865
849.410 .0253763
850.093 .0253667
850.776 .0253578
851.459 .0253496
852.141 .0253412
852.823 .0253320
853.505 .0253227
854.186 .0253122
854.867 .0253017
855.548 .0252914
856.228 .0252818
856.908 .0252728
857.588 .0252649
858.267 .0252583
858.946 .0252519
859.625 .0252457
860.303 .0252392
860.981 .0252319
861.659 .0252240
862.336 .0252153
863.013 .0252056
863.690 .0251962
864.366 .0251870
865.042 .0251775
865.718 .0251674
866.393 .0251567
867.068 .0251447
867.743 .0251311
868.417 .0251158
869.091 .0250993
869.765 .0250816
870.438 .0250640
871.111 .0250468
871.783 .0250309
872.456 .0250165
873.127 .0250041
873.799 .0249932
874.470 .0249834
875.141 .0249742
875.811 .0249654
876.481 .0249569
877.151 .0249497
877.820 .0249431
878.489 .0249375
879.158 .0249334
879.826 .0249311
880.494 .0249298
881.162 .0249293
881.829 .0249290
882.496 .0249282
883.163 .0249263
883.829 .0249229
884.495 .0249180
885.160 .0249124
885.825 .0249061
886.490 .0248998
887.154 .0248937
887.818 .0248877
888.482 .0248814
889.145 .0248745
889.808 .0248674
890.471 .0248594
891.133 .0248505
891.795 .0248411
892.456 .0248312
893.117 .0248212
893.778 .0248111
894.439 .0248012
895.099 .0247920
895.758 .0247829
896.417 .0247735
897.076 .0247644
897.735 .0247557
898.393 .0247477
899.051 .0247402
899.708 .0247337
900.365 .0247283
901.022 .0247234
901.678 .0247187
902.334 .0247136
902.990 .0247081
903.645 .0247016
904.300 .0246938
904.954 .0246848
905.608 .0246745
906.262 .0246636
906.915 .0246526
907.568 .0246414
908.221 .0246305
908.873 .0246195
909.525 .0246082
910.176 .0245971
910.828 .0245864
911.478 .0245751
912.129 .0245651
912.778 .0245556
913.428 .0245475
914.077 .0245402
914.726 .0245342
915.375 .0245293
916.023 .0245256
916.670 .0245227
917.318 .0245193
917.964 .0245156
918.611 .0245119
919.257 .0245075
919.903 .0245023
920.548 .0244965
921.193 .0244899
921.838 .0244823
922.482 .0244741
923.126 .0244641
923.770 .0244530
924.413 .0244408
925.056 .0244274
925.698 .0244133
926.340 .0243988
926.982 .0243846
927.623 .0243708
928.264 .0243581
928.904 .0243461
929.544 .0243345
930.184 .0243233
930.823 .0243117
931.462 .0242998
932.101 .0242876
932.739 .0242750
933.377 .0242621
934.014 .0242497
934.651 .0242374
935.288 .0242258
935.924 .0242151
936.560 .0242045
937.196 .0241939
937.831 .0241827
938.466 .0241703
939.100 .0241570
939.734 .0241426
940.368 .0241277
941.001 .0241133
941.634 .0240996
942.266 .0240864
942.899 .0240735
943.530 .0240606
944.162 .0240469
944.793 .0240318
945.423 .0240155
946.053 .0239975
946.683 .0239783
947.313 .0239587
947.942 .0239391
948.571 .0239205
949.199 .0239028
949.827 .0238856
950.455 .0238688
951.082 .0238519
951.709 .0238336
952.335 .0238138
952.961 .0237934
953.587 .0237720
954.212 .0237500
954.837 .0237281
955.462 .0237075
956.086 .0236886
956.710 .0236716
957.334 .0236562
957.957 .0236425
958.579 .0236307
959.202 .0236196
959.824 .0236093
960.445 .0236001
961.067 .0235918
961.688 .0235840
962.308 .0235769
962.928 .0235714
963.548 .0235666
964.168 .0235624
964.787 .0235589
965.406 .0235553
966.024 .0235512
966.642 .0235457
967.260 .0235391
967.877 .0235318
968.494 .0235234
969.110 .0235136
969.727 .0235029
970.342 .0234920
970.958 .0234809
971.573 .0234698
972.188 .0234593
972.802 .0234503
973.416 .0234422
974.030 .0234347
974.643 .0234282
975.256 .0234234
975.869 .0234201
976.481 .0234172
977.093 .0234151
977.705 .0234131
978.316 .0234113
978.927 .0234090
979.538 .0234058
980.148 .0234019
980.758 .0233964
981.367 .0233891
981.977 .0233796
982.586 .0233686
983.194 .0233563
983.802 .0233431
984.410 .0233298
985.018 .0233164
985.625 .0233031
986.232 .0232896
986.838 .0232768
987.445 .0232647
988.050 .0232530
988.656 .0232416
989.261 .0232306
989.866 .0232200
990.471 .0232094
991.075 .0231993
991.679 .0231900
992.282 .0231822
992.886 .0231762
993.489 .0231717
994.091 .0231691
994.694 .0231683
995.296 .0231688
995.897 .0231698
996.499 .0231712
997.100 .0231715
997.701 .0231706
998.301 .0231692
998.901 .0231676
999.501 .0231667
1000.101 .0231671
1000.700 .0231691
1001.299 .0231730
1001.898 .0231792
1002.496 .0231867
1003.094 .0231943
1003.692 .0232020
1004.289 .0232083
1004.887 .0232130
1005.484 .0232160
1006.080 .0232168
1006.677 .0232164
1007.273 .0232155
1007.868 .0232139
1008.464 .0232124
1009.059 .0232104
1009.654 .0232084
1010.249 .0232064
1010.843 .0232042
1011.437 .0232015
1012.031 .0231976
1012.625 .0231936
1013.218 .0231887
1013.811 .0231830
1014.404 .0231773
1014.997 .0231711
1015.589 .0231658
1016.181 .0231615
1016.773 .0231573
1017.365 .0231549
1017.956 .0231538
1018.547 .0231538
1019.138 .0231548
1019.728 .0231559
1020.319 .0231566
1020.909 .0231569
1021.499 .0231569
1022.088 .0231557
1022.678 .0231532
1023.267 .0231507
1023.856 .0231469
1024.445 .0231432
1025.033 .0231406
1025.621 .0231390
1026.209 .0231397
1026.797 .0231430
1027.385 .0231477
1027.972 .0231546
1028.560 .0231635
1029.147 .0231733
1029.734 .0231829
1030.320 .0231928
1030.907 .0232024
1031.493 .0232109
1032.079 .0232187
1032.665 .0232259
1033.250 .0232316
1033.836 .0232372
1034.421 .0232403
1035.006 .0232407
1035.591 .0232385
1036.176 .0232325
1036.761 .0232226
1037.345 .0232096
1037.929 .0231932
1038.514 .0231744
1039.097 .0231546
1039.681 .0231363
1040.265 .0231184
1040.848 .0231024
1041.432 .0230891
1042.015 .0230783
1042.598 .0230695
1043.181 .0230625
1043.764 .0230570
1044.346 .0230537
1044.929 .0230521
1045.511 .0230515
1046.094 .0230523
1046.676 .0230565
1047.258 .0230621
1047.840 .0230686
1048.422 .0230755
1049.003 .0230812
1049.585 .0230855
1050.166 .0230883
1050.748 .0230891
1051.329 .0230888
1051.910 .0230878
1052.491 .0230869
1053.072 .0230865
1053.653 .0230873
1054.234 .0230884
1054.815 .0230895
1055.396 .0230911
1055.976 .0230917
1056.557 .0230895
1057.138 .0230875
1057.718 .0230843
1058.298 .0230803
1058.879 .0230769
1059.459 .0230720
1060.039 .0230673
1060.620 .0230621
1061.200 .0230550
1061.780 .0230478
1062.360 .0230391
1062.940 .0230307
1063.520 .0230208
1064.101 .0230107
1064.681 .0230007
1065.261 .0229893
1065.841 .0229781
1066.421 .0229673
1067.001 .0229562
1067.581 .0229460
1068.161 .0229366
1068.741 .0229299
1069.321 .0229274
1069.901 .0229283
1070.482 .0229338
1071.062 .0229429
1071.642 .0229535
1072.222 .0229643
1072.803 .0229725
1073.383 .0229789
1073.963 .0229842
1074.544 .0229876
1075.124 .0229915
1075.705 .0229970
1076.286 .0230057
1076.866 .0230170
1077.447 .0230303
1078.028 .0230443
1078.609 .0230571
1079.190 .0230650
1079.771 .0230690
1080.352 .0230666
1080.934 .0230598
1081.515 .0230509
1082.097 .0230413
1082.679 .0230328
1083.260 .0230251
1083.842 .0230191
1084.424 .0230130
1085.007 .0230054
1085.589 .0229974
1086.172 .0229862
1086.754 .0229732
1087.337 .0229600
1087.920 .0229473
1088.503 .0229356
1089.087 .0229271
1089.670 .0229236
1090.254 .0229238
1090.838 .0229296
1091.422 .0229385
1092.006 .0229501
1092.590 .0229644
1093.175 .0229804
1093.760 .0229937
1094.345 .0230052
1094.930 .0230146
1095.516 .0230177
1096.102 .0230156
1096.688 .0230113
1097.274 .0230074
1097.860 .0230054
1098.447 .0230066
1099.034 .0230117
1099.622 .0230180
1100.209 .0230250
1100.797 .0230300
1101.385 .0230316
1101.973 .0230317
1102.562 .0230254
1103.151 .0230156
1103.740 .0230029
1104.330 .0229903
1104.920 .0229792
1105.510 .0229702
1106.101 .0229659
1106.691 .0229654
1107.283 .0229630
1107.874 .0229618
1108.466 .0229603
1109.058 .0229590
1109.651 .0229550
1110.244 .0229484
1110.837 .0229368
1111.431 .0229204
1112.025 .0229014
1112.620 .0228854
1113.215 .0228690
1113.810 .0228603
1114.406 .0228577
1115.002 .0228590
1115.599 .0228656
1116.196 .0228701
1116.793 .0228692
1117.391 .0228615
1117.989 .0228402
1118.588 .0228069
1119.187 .0227628
1119.787 .0227163
1120.387 .0226717
1120.988 .0226341
1121.589 .0226078
1122.190 .0225846
1122.793 .0225664
1123.395 .0225534
1123.998 .0225393
1124.602 .0225256
1125.206 .0225125
1125.811 .0225018
1126.416 .0225005
1127.022 .0225070
1127.628 .0225275
1128.235 .0225616
1128.843 .0226143
1129.451 .0226778
1130.059 .0227475
1130.669 .0228227
1131.278 .0229039
1131.889 .0229854
1132.500 .0230699
1133.112 .0231542
1133.724 .0232388
1134.337 .0233213
1134.950 .0234032
1135.564 .0234831
1136.179 .0235605
1136.795 .0236335
1137.411 .0237011
1138.028 .0237574
1138.645 .0238052
1139.263 .0238405
1139.882 .0238620
1140.502 .0238750
1141.122 .0238766
1141.743 .0238729
1142.365 .0238594
1142.987 .0237676
1143.611 .0238668
1144.235 .0237998
1144.859 .0238909
1145.485 .0237263
