Measurement Sequence started on: 10-20-44-796
Integration time: 35
Scans to Average: 2 
>>>>>Begin Spectral Data<<<<<
432.953 .0316444
433.882 .0375151
434.810 .0368623
435.737 .0356405
436.662 .0356807
437.586 .0366611
438.509 .0370080
439.431 .0371785
440.351 .0373582
441.269 .0375191
442.187 .0376028
443.103 .0375890
444.018 .0375249
444.932 .0374154
445.844 .0372920
446.756 .0371594
447.666 .0370451
448.575 .0369669
449.482 .0369080
450.388 .0368649
451.294 .0368288
452.198 .0367864
453.100 .0367262
454.002 .0366664
454.902 .0365952
455.801 .0365193
456.699 .0364481
457.596 .0363909
458.492 .0363456
459.387 .0363166
460.280 .0362935
461.172 .0362649
462.064 .0362388
462.954 .0362100
463.843 .0361668
464.730 .0361202
465.617 .0360687
466.503 .0360194
467.387 .0359690
468.271 .0359151
469.153 .0358558
470.035 .0357961
470.915 .0357365
471.794 .0356756
472.673 .0356172
473.550 .0355654
474.426 .0355249
475.301 .0354974
476.175 .0354796
477.048 .0354671
477.920 .0354572
478.791 .0354496
479.661 .0354399
480.530 .0354317
481.398 .0354190
482.266 .0354113
483.132 .0354147
483.997 .0354231
484.861 .0354347
485.724 .0354538
486.587 .0354762
487.448 .0354956
488.308 .0355107
489.168 .0355157
490.026 .0355083
490.884 .0354934
491.741 .0354699
492.597 .0354387
493.452 .0354065
494.306 .0353779
495.159 .0353504
496.011 .0353288
496.862 .0353054
497.713 .0352724
498.562 .0352297
499.411 .0351727
500.259 .0351005
501.106 .0350164
501.952 .0349295
502.798 .0348452
503.642 .0347671
504.486 .0346992
505.329 .0346377
506.171 .0345789
507.012 .0345180
507.852 .0344440
508.692 .0343486
509.531 .0342312
510.369 .0340907
511.206 .0339364
512.043 .0337744
512.878 .0336133
513.713 .0334613
514.547 .0333128
515.381 .0331690
516.213 .0330238
517.045 .0328728
517.876 .0327186
518.706 .0325511
519.536 .0323770
520.365 .0321956
521.193 .0320069
522.020 .0318180
522.847 .0316309
523.673 .0314498
524.498 .0312763
525.323 .0311135
526.146 .0309670
526.969 .0308391
527.792 .0307291
528.614 .0306341
529.435 .0305503
530.255 .0304689
531.075 .0303707
531.894 .0302589
532.712 .0301324
533.530 .0299928
534.347 .0298526
535.163 .0297231
535.979 .0296205
536.794 .0295510
537.608 .0295098
538.422 .0294949
539.235 .0294983
540.048 .0295106
540.860 .0295110
541.671 .0295076
542.481 .0295006
543.292 .0294925
544.101 .0294947
544.910 .0295144
545.718 .0295529
546.526 .0296141
547.333 .0296872
548.139 .0297610
548.945 .0298255
549.750 .0298686
550.555 .0298904
551.359 .0298880
552.162 .0298658
552.965 .0298309
553.768 .0297877
554.569 .0297500
555.371 .0297143
556.171 .0296823
556.972 .0296586
557.771 .0296349
558.570 .0296122
559.369 .0295836
560.167 .0295573
560.964 .0295357
561.761 .0295219
562.558 .0295207
563.354 .0295343
564.149 .0295585
564.944 .0295976
565.738 .0296462
566.532 .0297077
567.325 .0297751
568.118 .0298499
568.910 .0299301
569.702 .0300167
570.494 .0301050
571.285 .0301947
572.075 .0302827
572.865 .0303653
573.654 .0304361
574.443 .0304956
575.232 .0305427
576.020 .0305853
576.807 .0306213
577.594 .0306609
578.381 .0307029
579.167 .0307511
579.952 .0308025
580.738 .0308585
581.522 .0309147
582.307 .0309681
583.091 .0310152
583.874 .0310555
584.657 .0310897
585.440 .0311234
586.222 .0311569
587.004 .0311975
587.785 .0312434
588.566 .0312945
589.346 .0313469
590.126 .0314011
590.906 .0314496
591.685 .0314926
592.464 .0315279
593.242 .0315551
594.020 .0315741
594.797 .0315880
595.575 .0315969
596.351 .0316019
597.128 .0316052
597.904 .0316061
598.679 .0316036
599.454 .0315979
600.229 .0315869
601.004 .0315720
601.778 .0315540
602.551 .0315339
603.325 .0315119
604.097 .0314908
604.870 .0314713
605.642 .0314527
606.414 .0314359
607.185 .0314201
607.956 .0314042
608.727 .0313870
609.497 .0313693
610.267 .0313504
611.037 .0313306
611.806 .0313108
612.575 .0312910
613.344 .0312726
614.112 .0312548
614.880 .0312369
615.647 .0312182
616.414 .0311986
617.181 .0311769
617.948 .0311520
618.714 .0311244
619.480 .0310953
620.245 .0310649
621.011 .0310340
621.775 .0310030
622.540 .0309728
623.304 .0309438
624.068 .0309165
624.832 .0308908
625.595 .0308677
626.358 .0308452
627.120 .0308241
627.883 .0308029
628.645 .0307817
629.406 .0307590
630.168 .0307344
630.929 .0307076
631.689 .0306788
632.450 .0306475
633.210 .0306148
633.970 .0305817
634.729 .0305505
635.489 .0305210
636.248 .0304927
637.006 .0304652
637.765 .0304378
638.523 .0304086
639.280 .0303771
640.038 .0303420
640.795 .0303039
641.552 .0302629
642.309 .0302212
643.065 .0301815
643.821 .0301449
644.577 .0301134
645.332 .0300873
646.088 .0300661
646.843 .0300485
647.597 .0300326
648.352 .0300163
649.106 .0299992
649.860 .0299805
650.613 .0299596
651.367 .0299389
652.120 .0299194
652.872 .0299028
653.625 .0298908
654.377 .0298839
655.129 .0298809
655.881 .0298807
656.632 .0298817
657.384 .0298811
658.135 .0298771
658.885 .0298694
659.636 .0298562
660.386 .0298397
661.136 .0298209
661.885 .0298011
662.635 .0297821
663.384 .0297654
664.133 .0297497
664.881 .0297356
665.630 .0297219
666.378 .0297078
667.126 .0296916
667.874 .0296742
668.621 .0296547
669.368 .0296340
670.115 .0296137
670.862 .0295953
671.608 .0295797
672.354 .0295683
673.100 .0295593
673.846 .0295530
674.591 .0295485
675.337 .0295442
676.082 .0295384
676.826 .0295315
677.571 .0295232
678.315 .0295134
679.059 .0295030
679.803 .0294931
680.547 .0294840
681.290 .0294761
682.033 .0294686
682.776 .0294610
683.518 .0294523
684.261 .0294422
685.003 .0294309
685.745 .0294182
686.487 .0294044
687.228 .0293897
687.969 .0293747
688.710 .0293596
689.451 .0293444
690.192 .0293284
690.932 .0293117
691.672 .0292943
692.412 .0292758
693.152 .0292563
693.891 .0292365
694.630 .0292171
695.369 .0291985
696.108 .0291805
696.846 .0291626
697.585 .0291440
698.323 .0291251
699.061 .0291052
699.798 .0290839
700.536 .0290611
701.273 .0290371
702.010 .0290132
702.746 .0289891
703.483 .0289657
704.219 .0289430
704.955 .0289210
705.691 .0288986
706.427 .0288749
707.162 .0288497
707.897 .0288232
708.632 .0287955
709.367 .0287676
710.101 .0287399
710.835 .0287133
711.569 .0286882
712.303 .0286652
713.037 .0286445
713.770 .0286258
714.503 .0286076
715.236 .0285896
715.969 .0285712
716.702 .0285520
717.434 .0285319
718.166 .0285111
718.898 .0284901
719.629 .0284689
720.361 .0284472
721.092 .0284257
721.823 .0284040
722.554 .0283826
723.284 .0283612
724.014 .0283385
724.744 .0283154
725.474 .0282912
726.204 .0282668
726.933 .0282412
727.662 .0282162
728.391 .0281911
729.120 .0281659
729.849 .0281413
730.577 .0281173
731.305 .0280942
732.033 .0280730
732.760 .0280525
733.488 .0280328
734.215 .0280136
734.942 .0279949
735.669 .0279752
736.395 .0279562
737.122 .0279368
737.848 .0279172
738.573 .0278985
739.299 .0278813
740.024 .0278648
740.750 .0278501
741.474 .0278367
742.199 .0278239
742.924 .0278114
743.648 .0277985
744.372 .0277845
745.096 .0277705
745.819 .0277563
746.543 .0277415
747.266 .0277268
747.989 .0277130
748.711 .0276999
749.434 .0276878
750.156 .0276763
750.878 .0276648
751.599 .0276541
752.321 .0276436
753.042 .0276334
753.763 .0276239
754.484 .0276156
755.205 .0276080
755.925 .0276016
756.645 .0275949
757.365 .0275881
758.085 .0275805
758.804 .0275725
759.523 .0275629
760.242 .0275533
760.961 .0275436
761.679 .0275349
762.397 .0275274
763.115 .0275210
763.833 .0275146
764.551 .0275082
765.268 .0274997
765.985 .0274890
766.702 .0274752
767.418 .0274593
768.134 .0274406
768.850 .0274212
769.566 .0274017
770.282 .0273828
770.997 .0273652
771.712 .0273492
772.427 .0273332
773.142 .0273171
773.856 .0272993
774.570 .0272800
775.284 .0272591
775.998 .0272373
776.711 .0272149
777.424 .0271938
778.137 .0271747
778.849 .0271584
779.562 .0271447
780.274 .0271341
780.986 .0271256
781.697 .0271184
782.409 .0271123
783.120 .0271065
783.831 .0271018
784.541 .0270979
785.252 .0270947
785.962 .0270928
786.671 .0270916
787.381 .0270910
788.090 .0270907
788.799 .0270911
789.508 .0270915
790.217 .0270915
790.925 .0270916
791.633 .0270914
792.341 .0270910
793.048 .0270907
793.755 .0270898
794.462 .0270881
795.169 .0270857
795.875 .0270818
796.581 .0270763
797.287 .0270700
797.993 .0270629
798.698 .0270555
799.403 .0270480
800.108 .0270402
800.812 .0270319
801.517 .0270230
802.221 .0270128
802.924 .0270010
803.628 .0269881
804.331 .0269745
805.034 .0269604
805.736 .0269465
806.439 .0269335
807.141 .0269217
807.843 .0269116
808.544 .0269027
809.245 .0268942
809.946 .0268860
810.647 .0268773
811.347 .0268677
812.047 .0268571
812.747 .0268461
813.447 .0268350
814.146 .0268244
814.845 .0268147
815.543 .0268058
816.242 .0267984
816.940 .0267924
817.638 .0267869
818.335 .0267818
819.032 .0267755
819.729 .0267682
820.426 .0267591
821.122 .0267486
821.818 .0267362
822.514 .0267223
823.209 .0267074
823.905 .0266922
824.599 .0266761
825.294 .0266598
825.988 .0266426
826.682 .0266246
827.376 .0266058
828.069 .0265857
828.762 .0265636
829.455 .0265410
830.147 .0265183
830.840 .0264959
831.531 .0264737
832.223 .0264529
832.914 .0264327
833.605 .0264136
834.296 .0263957
834.986 .0263787
835.676 .0263623
836.366 .0263469
837.055 .0263311
837.744 .0263153
838.433 .0262989
839.121 .0262816
839.809 .0262628
840.497 .0262434
841.185 .0262231
841.872 .0262015
842.559 .0261803
843.245 .0261598
843.932 .0261404
844.617 .0261223
845.303 .0261048
845.988 .0260877
846.673 .0260705
847.358 .0260531
848.042 .0260354
848.726 .0260183
849.410 .0260023
850.093 .0259878
850.776 .0259754
851.459 .0259649
852.141 .0259560
852.823 .0259476
853.505 .0259392
854.186 .0259297
854.867 .0259187
855.548 .0259065
856.228 .0258935
856.908 .0258812
857.588 .0258691
858.267 .0258580
858.946 .0258470
859.625 .0258351
860.303 .0258224
860.981 .0258077
861.659 .0257911
862.336 .0257727
863.013 .0257533
863.690 .0257334
864.366 .0257133
865.042 .0256936
865.718 .0256738
866.393 .0256539
867.068 .0256332
867.743 .0256116
868.417 .0255890
869.091 .0255662
869.765 .0255436
870.438 .0255219
871.111 .0255025
871.783 .0254853
872.456 .0254701
873.127 .0254568
873.799 .0254442
874.470 .0254318
875.141 .0254187
875.811 .0254048
876.481 .0253898
877.151 .0253750
877.820 .0253604
878.489 .0253467
879.158 .0253344
879.826 .0253233
880.494 .0253129
881.162 .0253026
881.829 .0252921
882.496 .0252807
883.163 .0252681
883.829 .0252551
884.495 .0252412
885.160 .0252279
885.825 .0252152
886.490 .0252044
887.154 .0251953
887.818 .0251879
888.482 .0251819
889.145 .0251760
889.808 .0251700
890.471 .0251635
891.133 .0251559
891.795 .0251476
892.456 .0251392
893.117 .0251314
893.778 .0251243
894.439 .0251181
895.099 .0251127
895.758 .0251080
896.417 .0251033
897.076 .0250980
897.735 .0250911
898.393 .0250832
899.051 .0250746
899.708 .0250655
900.365 .0250569
901.022 .0250493
901.678 .0250429
902.334 .0250378
902.990 .0250335
903.645 .0250296
904.300 .0250253
904.954 .0250207
905.608 .0250149
906.262 .0250081
906.915 .0250008
907.568 .0249932
908.221 .0249855
908.873 .0249786
909.525 .0249722
910.176 .0249665
910.828 .0249609
911.478 .0249555
912.129 .0249494
912.778 .0249428
913.428 .0249359
914.077 .0249288
914.726 .0249220
915.375 .0249163
916.023 .0249112
916.670 .0249076
917.318 .0249054
917.964 .0249043
918.611 .0249036
919.257 .0249037
919.903 .0249034
920.548 .0249025
921.193 .0249015
921.838 .0249003
922.482 .0248988
923.126 .0248975
923.770 .0248956
924.413 .0248936
925.056 .0248910
925.698 .0248882
926.340 .0248845
926.982 .0248811
927.623 .0248774
928.264 .0248733
928.904 .0248697
929.544 .0248666
930.184 .0248639
930.823 .0248624
931.462 .0248620
932.101 .0248628
932.739 .0248648
933.377 .0248675
934.014 .0248706
934.651 .0248740
935.288 .0248762
935.924 .0248768
936.560 .0248755
937.196 .0248725
937.831 .0248671
938.466 .0248602
939.100 .0248529
939.734 .0248445
940.368 .0248356
941.001 .0248262
941.634 .0248160
942.266 .0248054
942.899 .0247934
943.530 .0247801
944.162 .0247655
944.793 .0247501
945.423 .0247341
946.053 .0247181
946.683 .0247035
947.313 .0246905
947.942 .0246790
948.571 .0246688
949.199 .0246595
949.827 .0246502
950.455 .0246407
951.082 .0246302
951.709 .0246185
952.335 .0246060
952.961 .0245925
953.587 .0245788
954.212 .0245655
954.837 .0245531
955.462 .0245412
956.086 .0245302
956.710 .0245202
957.334 .0245109
957.957 .0245021
958.579 .0244939
959.202 .0244862
959.824 .0244788
960.445 .0244717
961.067 .0244649
961.688 .0244582
962.308 .0244525
962.928 .0244470
963.548 .0244419
964.168 .0244371
964.787 .0244324
965.406 .0244277
966.024 .0244230
966.642 .0244184
967.260 .0244138
967.877 .0244091
968.494 .0244043
969.110 .0243989
969.727 .0243935
970.342 .0243873
970.958 .0243801
971.573 .0243728
972.188 .0243653
972.802 .0243579
973.416 .0243515
974.030 .0243463
974.643 .0243418
975.256 .0243382
975.869 .0243347
976.481 .0243306
977.093 .0243255
977.705 .0243193
978.316 .0243117
978.927 .0243029
979.538 .0242932
980.148 .0242830
980.758 .0242729
981.367 .0242639
981.977 .0242552
982.586 .0242481
983.194 .0242419
983.802 .0242362
984.410 .0242302
985.018 .0242241
985.625 .0242175
986.232 .0242112
986.838 .0242052
987.445 .0242002
988.050 .0241957
988.656 .0241928
989.261 .0241908
989.866 .0241895
990.471 .0241884
991.075 .0241874
991.679 .0241859
992.282 .0241844
992.886 .0241822
993.489 .0241798
994.091 .0241773
994.694 .0241750
995.296 .0241719
995.897 .0241683
996.499 .0241634
997.100 .0241581
997.701 .0241514
998.301 .0241443
998.901 .0241366
999.501 .0241286
1000.101 .0241202
1000.700 .0241116
1001.299 .0241026
1001.898 .0240932
1002.496 .0240828
1003.094 .0240720
1003.692 .0240604
1004.289 .0240485
1004.887 .0240364
1005.484 .0240242
1006.080 .0240125
1006.677 .0240019
1007.273 .0239913
1007.868 .0239822
1008.464 .0239739
1009.059 .0239657
1009.654 .0239573
1010.249 .0239482
1010.843 .0239389
1011.437 .0239301
1012.031 .0239215
1012.625 .0239136
1013.218 .0239065
1013.811 .0239010
1014.404 .0238971
1014.997 .0238951
1015.589 .0238951
1016.181 .0238953
1016.773 .0238947
1017.365 .0238926
1017.956 .0238878
1018.547 .0238811
1019.138 .0238729
1019.728 .0238641
1020.319 .0238563
1020.909 .0238497
1021.499 .0238453
1022.088 .0238435
1022.678 .0238433
1023.267 .0238432
1023.856 .0238411
1024.445 .0238369
1025.033 .0238295
1025.621 .0238187
1026.209 .0238064
1026.797 .0237940
1027.385 .0237819
1027.972 .0237714
1028.560 .0237627
1029.147 .0237550
1029.734 .0237487
1030.320 .0237426
1030.907 .0237354
1031.493 .0237269
1032.079 .0237169
1032.665 .0237068
1033.250 .0236960
1033.836 .0236869
1034.421 .0236779
1035.006 .0236700
1035.591 .0236640
1036.176 .0236579
1036.761 .0236522
1037.345 .0236469
1037.929 .0236407
1038.514 .0236333
1039.097 .0236251
1039.681 .0236178
1040.265 .0236103
1040.848 .0236040
1041.432 .0235972
1042.015 .0235900
1042.598 .0235821
1043.181 .0235737
1043.764 .0235638
1044.346 .0235532
1044.929 .0235419
1045.511 .0235299
1046.094 .0235182
1046.676 .0235086
1047.258 .0235012
1047.840 .0234979
1048.422 .0234984
1049.003 .0235023
1049.585 .0235077
1050.166 .0235153
1050.748 .0235221
1051.329 .0235277
1051.910 .0235300
1052.491 .0235280
1053.072 .0235229
1053.653 .0235163
1054.234 .0235080
1054.815 .0234996
1055.396 .0234924
1055.976 .0234861
1056.557 .0234788
1057.138 .0234703
1057.718 .0234586
1058.298 .0234433
1058.879 .0234244
1059.459 .0234015
1060.039 .0233747
1060.620 .0233477
1061.200 .0233206
1061.780 .0232950
1062.360 .0232733
1062.940 .0232551
1063.520 .0232404
1064.101 .0232292
1064.681 .0232200
1065.261 .0232113
1065.841 .0232013
1066.421 .0231919
1067.001 .0231823
1067.581 .0231731
1068.161 .0231645
1068.741 .0231574
1069.321 .0231514
1069.901 .0231482
1070.482 .0231454
1071.062 .0231438
1071.642 .0231434
1072.222 .0231416
1072.803 .0231372
1073.383 .0231300
1073.963 .0231222
1074.544 .0231128
1075.124 .0231016
1075.705 .0230909
1076.286 .0230783
1076.866 .0230669
1077.447 .0230561
1078.028 .0230451
1078.609 .0230348
1079.190 .0230234
1079.771 .0230097
1080.352 .0229933
1080.934 .0229758
1081.515 .0229580
1082.097 .0229426
1082.679 .0229307
1083.260 .0229218
1083.842 .0229165
1084.424 .0229160
1085.007 .0229191
1085.589 .0229256
1086.172 .0229317
1086.754 .0229360
1087.337 .0229395
1087.920 .0229420
1088.503 .0229427
1089.087 .0229443
1089.670 .0229477
1090.254 .0229531
1090.838 .0229607
1091.422 .0229703
1092.006 .0229799
1092.590 .0229911
1093.175 .0230015
1093.760 .0230057
1094.345 .0230044
1094.930 .0229977
1095.516 .0229868
1096.102 .0229758
1096.688 .0229648
1097.274 .0229548
1097.860 .0229492
1098.447 .0229449
1099.034 .0229429
1099.622 .0229406
1100.209 .0229399
1100.797 .0229378
1101.385 .0229342
1101.973 .0229293
1102.562 .0229248
1103.151 .0229241
1103.740 .0229280
1104.330 .0229349
1104.920 .0229467
1105.510 .0229578
1106.101 .0229677
1106.691 .0229750
1107.283 .0229774
1107.874 .0229756
1108.466 .0229729
1109.058 .0229687
1109.651 .0229675
1110.244 .0229700
1110.837 .0229783
1111.431 .0229918
1112.025 .0230116
1112.620 .0230334
1113.215 .0230537
1113.810 .0230747
1114.406 .0230945
1115.002 .0231144
1115.599 .0231373
1116.196 .0231612
1116.793 .0231873
1117.391 .0232174
1117.989 .0232466
1118.588 .0232742
1119.187 .0233000
1119.787 .0233189
1120.387 .0233301
1120.988 .0233333
1121.589 .0233295
1122.190 .0233202
1122.793 .0233071
1123.395 .0232933
1123.998 .0232772
1124.602 .0232619
1125.206 .0232420
1125.811 .0232193
1126.416 .0231979
1127.022 .0231762
1127.628 .0231572
1128.235 .0231440
1128.843 .0231375
1129.451 .0231429
1130.059 .0231620
1130.669 .0231965
1131.278 .0232419
1131.889 .0232956
1132.500 .0233546
1133.112 .0234156
1133.724 .0234769
1134.337 .0235365
1134.950 .0235981
1135.564 .0236665
1136.179 .0237397
1136.795 .0238172
1137.411 .0239006
1138.028 .0239902
1138.645 .0240871
1139.263 .0241770
1139.882 .0242626
1140.502 .0243477
1141.122 .0244348
1141.743 .0245256
1142.365 .0245973
1142.987 .0246369
1143.611 .0248360
1144.235 .0249824
1144.859 .0251587
1145.485 .0245300
