Measurement Sequence started on: 10-20-44-796
Integration time: 35
Scans to Average: 2 
>>>>>Begin Spectral Data<<<<<
432.953 .0469957
433.882 .0403185
434.810 .0370209
435.737 .0363189
436.662 .0332398
437.586 .0346074
438.509 .0336444
439.431 .0330640
440.351 .0326874
441.269 .0324090
442.187 .0322514
443.103 .0321297
444.018 .0320544
444.932 .0320074
445.844 .0319849
446.756 .0319865
447.666 .0319933
448.575 .0319720
449.482 .0319313
450.388 .0318698
451.294 .0317977
452.198 .0317355
453.100 .0316886
454.002 .0316653
454.902 .0316734
455.801 .0316940
456.699 .0317127
457.596 .0317285
458.492 .0317320
459.387 .0317254
460.280 .0317049
461.172 .0316714
462.064 .0316381
462.954 .0316064
463.843 .0315849
464.730 .0315692
465.617 .0315529
466.503 .0315384
467.387 .0315198
468.271 .0314985
469.153 .0314758
470.035 .0314538
470.915 .0314483
471.794 .0314478
472.673 .0314533
473.550 .0314632
474.426 .0314785
475.301 .0314995
476.175 .0315229
477.048 .0315434
477.920 .0315639
478.791 .0315827
479.661 .0316019
480.530 .0316150
481.398 .0316266
482.266 .0316362
483.132 .0316408
483.997 .0316345
484.861 .0316234
485.724 .0316017
486.587 .0315784
487.448 .0315471
488.308 .0315115
489.168 .0314665
490.026 .0314154
490.884 .0313531
491.741 .0312812
492.597 .0312016
493.452 .0311181
494.306 .0310313
495.159 .0309527
496.011 .0308789
496.862 .0308118
497.713 .0307455
498.562 .0306864
499.411 .0306246
500.259 .0305607
501.106 .0304902
501.952 .0304186
502.798 .0303470
503.642 .0302789
504.486 .0302160
505.329 .0301660
506.171 .0301251
507.012 .0300893
507.852 .0300530
508.692 .0300123
509.531 .0299602
510.369 .0298937
511.206 .0298121
512.043 .0297206
512.878 .0296132
513.713 .0294946
514.547 .0293716
515.381 .0292494
516.213 .0291333
517.045 .0290150
517.876 .0288983
518.706 .0287742
519.536 .0286414
520.365 .0285009
521.193 .0283527
522.020 .0282020
522.847 .0280512
523.673 .0279017
524.498 .0277605
525.323 .0276277
526.146 .0275084
526.969 .0274050
527.792 .0273158
528.614 .0272226
529.435 .0271224
530.255 .0270101
531.075 .0268911
531.894 .0267617
532.712 .0266330
533.530 .0265086
534.347 .0263908
535.163 .0262932
535.979 .0262097
536.794 .0261403
537.608 .0260778
538.422 .0260190
539.235 .0259586
540.048 .0258927
540.860 .0258244
541.671 .0257547
542.481 .0256992
543.292 .0256632
544.101 .0256377
544.910 .0256292
545.718 .0256349
546.526 .0256535
547.333 .0256733
548.139 .0256979
548.945 .0257202
549.750 .0257434
550.555 .0257663
551.359 .0257903
552.162 .0258134
552.965 .0258423
553.768 .0258749
554.569 .0259130
555.371 .0259573
556.171 .0260069
556.972 .0260616
557.771 .0261312
558.570 .0262104
559.369 .0263003
560.167 .0264004
560.964 .0265132
561.761 .0266306
562.558 .0267491
563.354 .0268625
564.149 .0269631
564.944 .0270507
565.738 .0271263
566.532 .0271839
567.325 .0272326
568.118 .0272731
568.910 .0273106
569.702 .0273474
570.494 .0273904
571.285 .0274348
572.075 .0274807
572.865 .0275262
573.654 .0275638
574.443 .0275937
575.232 .0276170
576.020 .0276377
576.807 .0276617
577.594 .0276937
578.381 .0277397
579.167 .0277963
579.952 .0278686
580.738 .0279500
581.522 .0280367
582.307 .0281255
583.091 .0282098
583.874 .0282879
584.657 .0283583
585.440 .0284228
586.222 .0284812
587.004 .0285366
587.785 .0285903
588.566 .0286411
589.346 .0286901
590.126 .0287348
590.906 .0287745
591.685 .0288109
592.464 .0288434
593.242 .0288695
594.020 .0288908
594.797 .0289082
595.575 .0289208
596.351 .0289317
597.128 .0289404
597.904 .0289469
598.679 .0289520
599.454 .0289554
600.229 .0289551
601.004 .0289525
601.778 .0289474
602.551 .0289388
603.325 .0289287
604.097 .0289170
604.870 .0289025
605.642 .0288876
606.414 .0288737
607.185 .0288604
607.956 .0288470
608.727 .0288341
609.497 .0288205
610.267 .0288074
611.037 .0287944
611.806 .0287800
612.575 .0287648
613.344 .0287496
614.112 .0287332
614.880 .0287160
615.647 .0286978
616.414 .0286789
617.181 .0286599
617.948 .0286410
618.714 .0286224
619.480 .0286048
620.245 .0285884
621.011 .0285731
621.775 .0285585
622.540 .0285443
623.304 .0285299
624.068 .0285160
624.832 .0285025
625.595 .0284895
626.358 .0284777
627.120 .0284677
627.883 .0284594
628.645 .0284536
629.406 .0284497
630.168 .0284469
630.929 .0284437
631.689 .0284390
632.450 .0284315
633.210 .0284214
633.970 .0284089
634.729 .0283941
635.489 .0283777
636.248 .0283603
637.006 .0283418
637.765 .0283230
638.523 .0283036
639.280 .0282839
640.038 .0282632
640.795 .0282416
641.552 .0282190
642.309 .0281960
643.065 .0281738
643.821 .0281529
644.577 .0281333
645.332 .0281152
646.088 .0280974
646.843 .0280801
647.597 .0280622
648.352 .0280434
649.106 .0280243
649.860 .0280037
650.613 .0279825
651.367 .0279617
652.120 .0279408
652.872 .0279197
653.625 .0278986
654.377 .0278780
655.129 .0278569
655.881 .0278361
656.632 .0278163
657.384 .0277972
658.135 .0277804
658.885 .0277661
659.636 .0277540
660.386 .0277445
661.136 .0277378
661.885 .0277318
662.635 .0277271
663.384 .0277236
664.133 .0277203
664.881 .0277174
665.630 .0277153
666.378 .0277134
667.126 .0277104
667.874 .0277069
668.621 .0277020
669.368 .0276949
670.115 .0276859
670.862 .0276743
671.608 .0276615
672.354 .0276479
673.100 .0276344
673.846 .0276212
674.591 .0276086
675.337 .0275964
676.082 .0275840
676.826 .0275711
677.571 .0275576
678.315 .0275434
679.059 .0275282
679.803 .0275133
680.547 .0274981
681.290 .0274829
682.033 .0274675
682.776 .0274520
683.518 .0274360
684.261 .0274187
685.003 .0274007
685.745 .0273815
686.487 .0273620
687.228 .0273420
687.969 .0273220
688.710 .0273028
689.451 .0272843
690.192 .0272666
690.932 .0272495
691.672 .0272336
692.412 .0272183
693.152 .0272036
693.891 .0271892
694.630 .0271752
695.369 .0271612
696.108 .0271467
696.846 .0271316
697.585 .0271158
698.323 .0270991
699.061 .0270814
699.798 .0270626
700.536 .0270430
701.273 .0270226
702.010 .0270022
702.746 .0269814
703.483 .0269612
704.219 .0269413
704.955 .0269218
705.691 .0269029
706.427 .0268842
707.162 .0268654
707.897 .0268474
708.632 .0268310
709.367 .0268155
710.101 .0268010
710.835 .0267885
711.569 .0267774
712.303 .0267676
713.037 .0267598
713.770 .0267526
714.503 .0267455
715.236 .0267384
715.969 .0267297
716.702 .0267200
717.434 .0267098
718.166 .0266984
718.898 .0266861
719.629 .0266738
720.361 .0266613
721.092 .0266474
721.823 .0266330
722.554 .0266180
723.284 .0266013
724.014 .0265828
724.744 .0265627
725.474 .0265408
726.204 .0265184
726.933 .0264959
727.662 .0264736
728.391 .0264526
729.120 .0264326
729.849 .0264134
730.577 .0263955
731.305 .0263782
732.033 .0263620
732.760 .0263461
733.488 .0263313
734.215 .0263174
734.942 .0263039
735.669 .0262913
736.395 .0262800
737.122 .0262700
737.848 .0262606
738.573 .0262516
739.299 .0262432
740.024 .0262355
740.750 .0262284
741.474 .0262217
742.199 .0262152
742.924 .0262086
743.648 .0262022
744.372 .0261951
745.096 .0261883
745.819 .0261818
746.543 .0261758
747.266 .0261709
747.989 .0261667
748.711 .0261629
749.434 .0261591
750.156 .0261550
750.878 .0261506
751.599 .0261453
752.321 .0261391
753.042 .0261323
753.763 .0261256
754.484 .0261200
755.205 .0261154
755.925 .0261122
756.645 .0261104
757.365 .0261094
758.085 .0261082
758.804 .0261055
759.523 .0261009
760.242 .0260948
760.961 .0260864
761.679 .0260763
762.397 .0260644
763.115 .0260511
763.833 .0260371
764.551 .0260228
765.268 .0260072
765.985 .0259903
766.702 .0259719
767.418 .0259516
768.134 .0259294
768.850 .0259059
769.566 .0258818
770.282 .0258576
770.997 .0258348
771.712 .0258137
772.427 .0257945
773.142 .0257779
773.856 .0257633
774.570 .0257505
775.284 .0257384
775.998 .0257263
776.711 .0257133
777.424 .0257000
778.137 .0256864
778.849 .0256722
779.562 .0256580
780.274 .0256446
780.986 .0256319
781.697 .0256194
782.409 .0256072
783.120 .0255950
783.831 .0255819
784.541 .0255684
785.252 .0255539
785.962 .0255394
786.671 .0255254
787.381 .0255122
788.090 .0254999
788.799 .0254886
789.508 .0254777
790.217 .0254664
790.925 .0254544
791.633 .0254417
792.341 .0254272
793.048 .0254111
793.755 .0253940
794.462 .0253759
795.169 .0253573
795.875 .0253391
796.581 .0253202
797.287 .0253013
797.993 .0252818
798.698 .0252619
799.403 .0252415
800.108 .0252213
800.812 .0252016
801.517 .0251827
802.221 .0251652
802.924 .0251492
803.628 .0251346
804.331 .0251220
805.034 .0251109
805.736 .0251006
806.439 .0250911
807.141 .0250818
807.843 .0250726
808.544 .0250635
809.245 .0250543
809.946 .0250454
810.647 .0250365
811.347 .0250280
812.047 .0250196
812.747 .0250108
813.447 .0250016
814.146 .0249915
814.845 .0249803
815.543 .0249677
816.242 .0249538
816.940 .0249386
817.638 .0249227
818.335 .0249069
819.032 .0248915
819.729 .0248773
820.426 .0248643
821.122 .0248523
821.818 .0248400
822.514 .0248276
823.209 .0248135
823.905 .0247979
824.599 .0247808
825.294 .0247624
825.988 .0247429
826.682 .0247232
827.376 .0247043
828.069 .0246863
828.762 .0246693
829.455 .0246534
830.147 .0246376
830.840 .0246221
831.531 .0246055
832.223 .0245881
832.914 .0245700
833.605 .0245518
834.296 .0245333
834.986 .0245155
835.676 .0244991
836.366 .0244838
837.055 .0244703
837.744 .0244585
838.433 .0244482
839.121 .0244389
839.809 .0244300
840.497 .0244211
841.185 .0244118
841.872 .0244023
842.559 .0243922
843.245 .0243829
843.932 .0243750
844.617 .0243682
845.303 .0243629
845.988 .0243595
846.673 .0243581
847.358 .0243570
848.042 .0243569
848.726 .0243564
849.410 .0243556
850.093 .0243537
850.776 .0243506
851.459 .0243465
852.141 .0243418
852.823 .0243363
853.505 .0243295
854.186 .0243219
854.867 .0243132
855.548 .0243030
856.228 .0242924
856.908 .0242813
857.588 .0242702
858.267 .0242593
858.946 .0242494
859.625 .0242402
860.303 .0242319
860.981 .0242243
861.659 .0242171
862.336 .0242102
863.013 .0242034
863.690 .0241966
864.366 .0241898
865.042 .0241836
865.718 .0241778
866.393 .0241725
867.068 .0241672
867.743 .0241615
868.417 .0241554
869.091 .0241479
869.765 .0241397
870.438 .0241302
871.111 .0241202
871.783 .0241103
872.456 .0241009
873.127 .0240925
873.799 .0240854
874.470 .0240798
875.141 .0240754
875.811 .0240718
876.481 .0240693
877.151 .0240673
877.820 .0240660
878.489 .0240653
879.158 .0240655
879.826 .0240666
880.494 .0240686
881.162 .0240708
881.829 .0240733
882.496 .0240752
883.163 .0240765
883.829 .0240764
884.495 .0240755
885.160 .0240737
885.825 .0240714
886.490 .0240687
887.154 .0240665
887.818 .0240646
888.482 .0240629
889.145 .0240612
889.808 .0240596
890.471 .0240570
891.133 .0240538
891.795 .0240499
892.456 .0240458
893.117 .0240415
893.778 .0240373
894.439 .0240328
895.099 .0240286
895.758 .0240251
896.417 .0240217
897.076 .0240188
897.735 .0240165
898.393 .0240142
899.051 .0240117
899.708 .0240095
900.365 .0240078
901.022 .0240061
901.678 .0240053
902.334 .0240045
902.990 .0240038
903.645 .0240031
904.300 .0240030
904.954 .0240034
905.608 .0240042
906.262 .0240059
906.915 .0240075
907.568 .0240096
908.221 .0240119
908.873 .0240137
909.525 .0240151
910.176 .0240156
910.828 .0240144
911.478 .0240109
912.129 .0240057
912.778 .0239984
913.428 .0239898
914.077 .0239803
914.726 .0239705
915.375 .0239605
916.023 .0239508
916.670 .0239417
917.318 .0239323
917.964 .0239224
918.611 .0239115
919.257 .0238990
919.903 .0238855
920.548 .0238709
921.193 .0238563
921.838 .0238425
922.482 .0238303
923.126 .0238198
923.770 .0238111
924.413 .0238037
925.056 .0237970
925.698 .0237905
926.340 .0237837
926.982 .0237758
927.623 .0237671
928.264 .0237588
928.904 .0237511
929.544 .0237447
930.184 .0237401
930.823 .0237368
931.462 .0237351
932.101 .0237335
932.739 .0237309
933.377 .0237268
934.014 .0237207
934.651 .0237126
935.288 .0237026
935.924 .0236923
936.560 .0236822
937.196 .0236728
937.831 .0236647
938.466 .0236570
939.100 .0236487
939.734 .0236387
940.368 .0236264
941.001 .0236117
941.634 .0235943
942.266 .0235750
942.899 .0235547
943.530 .0235344
944.162 .0235148
944.793 .0234959
945.423 .0234777
946.053 .0234610
946.683 .0234441
947.313 .0234265
947.942 .0234076
948.571 .0233874
949.199 .0233660
949.827 .0233436
950.455 .0233213
951.082 .0232996
951.709 .0232787
952.335 .0232595
952.961 .0232418
953.587 .0232261
954.212 .0232117
954.837 .0231982
955.462 .0231854
956.086 .0231723
956.710 .0231582
957.334 .0231432
957.957 .0231269
958.579 .0231093
959.202 .0230908
959.824 .0230712
960.445 .0230515
961.067 .0230318
961.688 .0230122
962.308 .0229933
962.928 .0229756
963.548 .0229580
964.168 .0229400
964.787 .0229221
965.406 .0229045
966.024 .0228865
966.642 .0228691
967.260 .0228521
967.877 .0228365
968.494 .0228225
969.110 .0228097
969.727 .0227987
970.342 .0227902
970.958 .0227834
971.573 .0227780
972.188 .0227734
972.802 .0227691
973.416 .0227641
974.030 .0227580
974.643 .0227502
975.256 .0227412
975.869 .0227305
976.481 .0227189
977.093 .0227070
977.705 .0226953
978.316 .0226837
978.927 .0226726
979.538 .0226620
980.148 .0226511
980.758 .0226394
981.367 .0226267
981.977 .0226127
982.586 .0225988
983.194 .0225844
983.802 .0225703
984.410 .0225571
985.018 .0225453
985.625 .0225345
986.232 .0225252
986.838 .0225179
987.445 .0225111
988.050 .0225045
988.656 .0224980
989.261 .0224909
989.866 .0224829
990.471 .0224736
991.075 .0224633
991.679 .0224519
992.282 .0224398
992.886 .0224270
993.489 .0224145
994.091 .0224029
994.694 .0223924
995.296 .0223826
995.897 .0223731
996.499 .0223639
997.100 .0223536
997.701 .0223430
998.301 .0223323
998.901 .0223214
999.501 .0223111
1000.101 .0223024
1000.700 .0222960
1001.299 .0222909
1001.898 .0222878
1002.496 .0222861
1003.094 .0222840
1003.692 .0222815
1004.289 .0222776
1004.887 .0222721
1005.484 .0222663
1006.080 .0222606
1006.677 .0222543
1007.273 .0222482
1007.868 .0222428
1008.464 .0222371
1009.059 .0222312
1009.654 .0222251
1010.249 .0222178
1010.843 .0222095
1011.437 .0222015
1012.031 .0221933
1012.625 .0221860
1013.218 .0221814
1013.811 .0221793
1014.404 .0221793
1014.997 .0221827
1015.589 .0221877
1016.181 .0221942
1016.773 .0222015
1017.365 .0222094
1017.956 .0222162
1018.547 .0222220
1019.138 .0222265
1019.728 .0222290
1020.319 .0222303
1020.909 .0222309
1021.499 .0222294
1022.088 .0222275
1022.678 .0222250
1023.267 .0222213
1023.856 .0222164
1024.445 .0222116
1025.033 .0222059
1025.621 .0221999
1026.209 .0221940
1026.797 .0221881
1027.385 .0221818
1027.972 .0221761
1028.560 .0221709
1029.147 .0221661
1029.734 .0221631
1030.320 .0221613
1030.907 .0221603
1031.493 .0221623
1032.079 .0221643
1032.665 .0221664
1033.250 .0221688
1033.836 .0221700
1034.421 .0221690
1035.006 .0221661
1035.591 .0221611
1036.176 .0221538
1036.761 .0221461
1037.345 .0221384
1037.929 .0221308
1038.514 .0221249
1039.097 .0221210
1039.681 .0221184
1040.265 .0221184
1040.848 .0221212
1041.432 .0221248
1042.015 .0221314
1042.598 .0221392
1043.181 .0221472
1043.764 .0221548
1044.346 .0221622
1044.929 .0221680
1045.511 .0221717
1046.094 .0221742
1046.676 .0221755
1047.258 .0221763
1047.840 .0221765
1048.422 .0221764
1049.003 .0221761
1049.585 .0221760
1050.166 .0221757
1050.748 .0221740
1051.329 .0221726
1051.910 .0221707
1052.491 .0221689
1053.072 .0221676
1053.653 .0221673
1054.234 .0221687
1054.815 .0221695
1055.396 .0221714
1055.976 .0221719
1056.557 .0221713
1057.138 .0221716
1057.718 .0221729
1058.298 .0221755
1058.879 .0221802
1059.459 .0221863
1060.039 .0221920
1060.620 .0221963
1061.200 .0221995
1061.780 .0221999
1062.360 .0221989
1062.940 .0221972
1063.520 .0221951
1064.101 .0221928
1064.681 .0221943
1065.261 .0221969
1065.841 .0222017
1066.421 .0222085
1067.001 .0222143
1067.581 .0222180
1068.161 .0222206
1068.741 .0222222
1069.321 .0222218
1069.901 .0222200
1070.482 .0222194
1071.062 .0222161
1071.642 .0222127
1072.222 .0222092
1072.803 .0222050
1073.383 .0222022
1073.963 .0222006
1074.544 .0221976
1075.124 .0221959
1075.705 .0221964
1076.286 .0221992
1076.866 .0222035
1077.447 .0222105
1078.028 .0222184
1078.609 .0222247
1079.190 .0222315
1079.771 .0222371
1080.352 .0222399
1080.934 .0222420
1081.515 .0222400
1082.097 .0222342
1082.679 .0222248
1083.260 .0222122
1083.842 .0221983
1084.424 .0221846
1085.007 .0221715
1085.589 .0221592
1086.172 .0221482
1086.754 .0221395
1087.337 .0221326
1087.920 .0221280
1088.503 .0221260
1089.087 .0221243
1089.670 .0221247
1090.254 .0221258
1090.838 .0221301
1091.422 .0221381
1092.006 .0221481
1092.590 .0221630
1093.175 .0221806
1093.760 .0222008
1094.345 .0222242
1094.930 .0222501
1095.516 .0222790
1096.102 .0223081
1096.688 .0223361
1097.274 .0223613
1097.860 .0223805
1098.447 .0223941
1099.034 .0224009
1099.622 .0224047
1100.209 .0224059
1100.797 .0224055
1101.385 .0224088
1101.973 .0224178
1102.562 .0224309
1103.151 .0224487
1103.740 .0224678
1104.330 .0224852
1104.920 .0224975
1105.510 .0225006
1106.101 .0224970
1106.691 .0224876
1107.283 .0224761
1107.874 .0224653
1108.466 .0224600
1109.058 .0224628
1109.651 .0224722
1110.244 .0224875
1110.837 .0225058
1111.431 .0225228
1112.025 .0225346
1112.620 .0225396
1113.215 .0225407
1113.810 .0225366
1114.406 .0225318
1115.002 .0225262
1115.599 .0225216
1116.196 .0225148
1116.793 .0225060
1117.391 .0224942
1117.989 .0224783
1118.588 .0224566
1119.187 .0224295
1119.787 .0223975
1120.387 .0223649
1120.988 .0223327
1121.589 .0223021
1122.190 .0222759
1122.793 .0222531
1123.395 .0222320
1123.998 .0222149
1124.602 .0222023
1125.206 .0221972
1125.811 .0221993
1126.416 .0222107
1127.022 .0222325
1127.628 .0222621
1128.235 .0223022
1128.843 .0223514
1129.451 .0224030
1130.059 .0224561
1130.669 .0225057
1131.278 .0225493
1131.889 .0225841
1132.500 .0226121
1133.112 .0226324
1133.724 .0226447
1134.337 .0226526
1134.950 .0226577
1135.564 .0226617
1136.179 .0226733
1136.795 .0226907
1137.411 .0227157
1138.028 .0227500
1138.645 .0227918
1139.263 .0228452
1139.882 .0229075
1140.502 .0229809
1141.122 .0230735
1141.743 .0231820
1142.365 .0233109
1142.987 .0233402
1143.611 .0235130
1144.235 .0238804
1144.859 .0239870
1145.485 .0242234
