Measurement Sequence started on: 10-20-44-796
Integration time: 35
Scans to Average: 2 
>>>>>Begin Spectral Data<<<<<
432.953 .0445979
433.882 .0431720
434.810 .0414531
435.737 .0384511
436.662 .0375075
437.586 .0390800
438.509 .0385183
439.431 .0380771
440.351 .0377373
441.269 .0375051
442.187 .0373173
443.103 .0371115
444.018 .0369967
444.932 .0369422
445.844 .0368935
446.756 .0368623
447.666 .0368305
448.575 .0367942
449.482 .0367623
450.388 .0367322
451.294 .0367128
452.198 .0367095
453.100 .0367179
454.002 .0367317
454.902 .0367470
455.801 .0367604
456.699 .0367523
457.596 .0367276
458.492 .0366814
459.387 .0366150
460.280 .0365329
461.172 .0364387
462.064 .0363364
462.954 .0362376
463.843 .0361442
464.730 .0360609
465.617 .0359896
466.503 .0359296
467.387 .0358781
468.271 .0358336
469.153 .0357962
470.035 .0357610
470.915 .0357276
471.794 .0357034
472.673 .0356872
473.550 .0356814
474.426 .0356885
475.301 .0357005
476.175 .0357134
477.048 .0357216
477.920 .0357214
478.791 .0357086
479.661 .0356908
480.530 .0356677
481.398 .0356368
482.266 .0356071
483.132 .0355823
483.997 .0355573
484.861 .0355421
485.724 .0355312
486.587 .0355191
487.448 .0355033
488.308 .0354843
489.168 .0354578
490.026 .0354305
490.884 .0354082
491.741 .0353855
492.597 .0353647
493.452 .0353486
494.306 .0353287
495.159 .0353050
496.011 .0352803
496.862 .0352474
497.713 .0352027
498.562 .0351474
499.411 .0350750
500.259 .0349914
501.106 .0348944
501.952 .0347855
502.798 .0346673
503.642 .0345418
504.486 .0344130
505.329 .0342764
506.171 .0341406
507.012 .0340051
507.852 .0338677
508.692 .0337253
509.531 .0335749
510.369 .0334194
511.206 .0332573
512.043 .0330907
512.878 .0329256
513.713 .0327641
514.547 .0326077
515.381 .0324666
516.213 .0323391
517.045 .0322230
517.876 .0321195
518.706 .0320197
519.536 .0319236
520.365 .0318318
521.193 .0317317
522.020 .0316309
522.847 .0315313
523.673 .0314347
524.498 .0313226
525.323 .0312088
526.146 .0310987
526.969 .0309870
527.792 .0308740
528.614 .0307541
529.435 .0306271
530.255 .0305003
531.075 .0303630
531.894 .0302199
532.712 .0300702
533.530 .0299239
534.347 .0297728
535.163 .0296275
535.979 .0294928
536.794 .0293753
537.608 .0292773
538.422 .0291984
539.235 .0291327
540.048 .0290759
540.860 .0290238
541.671 .0289789
542.481 .0289453
543.292 .0289165
544.101 .0288965
544.910 .0288962
545.718 .0289111
546.526 .0289452
547.333 .0289947
548.139 .0290593
548.945 .0291293
549.750 .0291977
550.555 .0292625
551.359 .0293172
552.162 .0293749
552.965 .0294294
553.768 .0294785
554.569 .0295318
555.371 .0295851
556.171 .0296389
556.972 .0296950
557.771 .0297519
558.570 .0298070
559.369 .0298536
560.167 .0298929
560.964 .0299218
561.761 .0299396
562.558 .0299519
563.354 .0299544
564.149 .0299550
564.944 .0299612
565.738 .0299738
566.532 .0299967
567.325 .0300307
568.118 .0300730
568.910 .0301206
569.702 .0301679
570.494 .0302177
571.285 .0302659
572.075 .0303153
572.865 .0303689
573.654 .0304262
574.443 .0304892
575.232 .0305598
576.020 .0306367
576.807 .0307188
577.594 .0308016
578.381 .0308868
579.167 .0309683
579.952 .0310456
580.738 .0311189
581.522 .0311865
582.307 .0312488
583.091 .0313090
583.874 .0313628
584.657 .0314126
585.440 .0314590
586.222 .0315024
587.004 .0315398
587.785 .0315757
588.566 .0316086
589.346 .0316380
590.126 .0316640
590.906 .0316886
591.685 .0317084
592.464 .0317253
593.242 .0317358
594.020 .0317404
594.797 .0317397
595.575 .0317361
596.351 .0317271
597.128 .0317176
597.904 .0317072
598.679 .0316979
599.454 .0316876
600.229 .0316777
601.004 .0316653
601.778 .0316501
602.551 .0316311
603.325 .0316098
604.097 .0315852
604.870 .0315594
605.642 .0315327
606.414 .0315086
607.185 .0314868
607.956 .0314676
608.727 .0314502
609.497 .0314347
610.267 .0314196
611.037 .0314029
611.806 .0313821
612.575 .0313596
613.344 .0313345
614.112 .0313072
614.880 .0312788
615.647 .0312510
616.414 .0312244
617.181 .0311990
617.948 .0311752
618.714 .0311530
619.480 .0311316
620.245 .0311106
621.011 .0310893
621.775 .0310668
622.540 .0310440
623.304 .0310198
624.068 .0309953
624.832 .0309710
625.595 .0309469
626.358 .0309232
627.120 .0308994
627.883 .0308757
628.645 .0308509
629.406 .0308243
630.168 .0307961
630.929 .0307652
631.689 .0307326
632.450 .0306985
633.210 .0306644
633.970 .0306303
634.729 .0305982
635.489 .0305671
636.248 .0305372
637.006 .0305085
637.765 .0304807
638.523 .0304531
639.280 .0304257
640.038 .0303997
640.795 .0303747
641.552 .0303518
642.309 .0303306
643.065 .0303114
643.821 .0302948
644.577 .0302792
645.332 .0302631
646.088 .0302458
646.843 .0302272
647.597 .0302065
648.352 .0301839
649.106 .0301611
649.860 .0301384
650.613 .0301175
651.367 .0300981
652.120 .0300809
652.872 .0300646
653.625 .0300495
654.377 .0300342
655.129 .0300184
655.881 .0300022
656.632 .0299850
657.384 .0299675
658.135 .0299502
658.885 .0299340
659.636 .0299190
660.386 .0299050
661.136 .0298928
661.885 .0298813
662.635 .0298709
663.384 .0298606
664.133 .0298502
664.881 .0298395
665.630 .0298285
666.378 .0298164
667.126 .0298035
667.874 .0297904
668.621 .0297772
669.368 .0297641
670.115 .0297514
670.862 .0297399
671.608 .0297295
672.354 .0297206
673.100 .0297131
673.846 .0297064
674.591 .0297002
675.337 .0296937
676.082 .0296868
676.826 .0296791
677.571 .0296702
678.315 .0296610
679.059 .0296519
679.803 .0296434
680.547 .0296358
681.290 .0296289
682.033 .0296228
682.776 .0296163
683.518 .0296084
684.261 .0295985
685.003 .0295863
685.745 .0295713
686.487 .0295539
687.228 .0295347
687.969 .0295145
688.710 .0294935
689.451 .0294729
690.192 .0294528
690.932 .0294334
691.672 .0294147
692.412 .0293968
693.152 .0293793
693.891 .0293619
694.630 .0293440
695.369 .0293261
696.108 .0293080
696.846 .0292890
697.585 .0292690
698.323 .0292488
699.061 .0292286
699.798 .0292087
700.536 .0291889
701.273 .0291694
702.010 .0291501
702.746 .0291309
703.483 .0291110
704.219 .0290899
704.955 .0290674
705.691 .0290429
706.427 .0290166
707.162 .0289887
707.897 .0289600
708.632 .0289314
709.367 .0289039
710.101 .0288770
710.835 .0288509
711.569 .0288252
712.303 .0288001
713.037 .0287753
713.770 .0287503
714.503 .0287245
715.236 .0286978
715.969 .0286697
716.702 .0286410
717.434 .0286122
718.166 .0285843
718.898 .0285571
719.629 .0285314
720.361 .0285073
721.092 .0284847
721.823 .0284639
722.554 .0284447
723.284 .0284264
724.014 .0284078
724.744 .0283879
725.474 .0283663
726.204 .0283433
726.933 .0283198
727.662 .0282965
728.391 .0282736
729.120 .0282509
729.849 .0282288
730.577 .0282066
731.305 .0281847
732.033 .0281623
732.760 .0281388
733.488 .0281143
734.215 .0280885
734.942 .0280619
735.669 .0280354
736.395 .0280106
737.122 .0279881
737.848 .0279679
738.573 .0279499
739.299 .0279335
740.024 .0279182
740.750 .0279038
741.474 .0278896
742.199 .0278755
742.924 .0278610
743.648 .0278461
744.372 .0278316
745.096 .0278171
745.819 .0278029
746.543 .0277890
747.266 .0277752
747.989 .0277609
748.711 .0277459
749.434 .0277302
750.156 .0277143
750.878 .0276988
751.599 .0276837
752.321 .0276689
753.042 .0276558
753.763 .0276441
754.484 .0276334
755.205 .0276240
755.925 .0276164
756.645 .0276098
757.365 .0276050
758.085 .0276007
758.804 .0275965
759.523 .0275918
760.242 .0275867
760.961 .0275803
761.679 .0275726
762.397 .0275635
763.115 .0275534
763.833 .0275424
764.551 .0275307
765.268 .0275174
765.985 .0275035
766.702 .0274888
767.418 .0274730
768.134 .0274551
768.850 .0274362
769.566 .0274171
770.282 .0273985
770.997 .0273808
771.712 .0273653
772.427 .0273522
773.142 .0273419
773.856 .0273336
774.570 .0273266
775.284 .0273202
775.998 .0273138
776.711 .0273070
777.424 .0272999
778.137 .0272929
778.849 .0272865
779.562 .0272806
780.274 .0272761
780.986 .0272722
781.697 .0272682
782.409 .0272644
783.120 .0272604
783.831 .0272557
784.541 .0272502
785.252 .0272437
785.962 .0272368
786.671 .0272293
787.381 .0272212
788.090 .0272128
788.799 .0272042
789.508 .0271953
790.217 .0271857
790.925 .0271756
791.633 .0271654
792.341 .0271550
793.048 .0271442
793.755 .0271323
794.462 .0271197
795.169 .0271064
795.875 .0270932
796.581 .0270805
797.287 .0270688
797.993 .0270582
798.698 .0270492
799.403 .0270411
800.108 .0270335
800.812 .0270257
801.517 .0270179
802.221 .0270096
802.924 .0270004
803.628 .0269907
804.331 .0269815
805.034 .0269739
805.736 .0269678
806.439 .0269624
807.141 .0269581
807.843 .0269537
808.544 .0269481
809.245 .0269408
809.946 .0269318
810.647 .0269211
811.347 .0269091
812.047 .0268969
812.747 .0268851
813.447 .0268746
814.146 .0268652
814.845 .0268569
815.543 .0268492
816.242 .0268413
816.940 .0268316
817.638 .0268206
818.335 .0268087
819.032 .0267952
819.729 .0267806
820.426 .0267652
821.122 .0267491
821.818 .0267320
822.514 .0267138
823.209 .0266951
823.905 .0266754
824.599 .0266549
825.294 .0266330
825.988 .0266104
826.682 .0265874
827.376 .0265641
828.069 .0265405
828.762 .0265171
829.455 .0264938
830.147 .0264703
830.840 .0264470
831.531 .0264243
832.223 .0264027
832.914 .0263824
833.605 .0263632
834.296 .0263452
834.986 .0263281
835.676 .0263122
836.366 .0262967
837.055 .0262816
837.744 .0262666
838.433 .0262513
839.121 .0262356
839.809 .0262194
840.497 .0262025
841.185 .0261854
841.872 .0261682
842.559 .0261507
843.245 .0261331
843.932 .0261152
844.617 .0260973
845.303 .0260792
845.988 .0260610
846.673 .0260428
847.358 .0260247
848.042 .0260076
848.726 .0259910
849.410 .0259755
850.093 .0259611
850.776 .0259476
851.459 .0259352
852.141 .0259234
852.823 .0259118
853.505 .0259006
854.186 .0258891
854.867 .0258769
855.548 .0258645
856.228 .0258522
856.908 .0258397
857.588 .0258276
858.267 .0258158
858.946 .0258042
859.625 .0257928
860.303 .0257824
860.981 .0257719
861.659 .0257615
862.336 .0257514
863.013 .0257406
863.690 .0257296
864.366 .0257180
865.042 .0257060
865.718 .0256935
866.393 .0256810
867.068 .0256679
867.743 .0256537
868.417 .0256389
869.091 .0256236
869.765 .0256073
870.438 .0255898
871.111 .0255710
871.783 .0255505
872.456 .0255289
873.127 .0255066
873.799 .0254838
874.470 .0254616
875.141 .0254401
875.811 .0254201
876.481 .0254008
877.151 .0253825
877.820 .0253651
878.489 .0253486
879.158 .0253325
879.826 .0253163
880.494 .0252998
881.162 .0252836
881.829 .0252678
882.496 .0252526
883.163 .0252380
883.829 .0252247
884.495 .0252120
885.160 .0252004
885.825 .0251898
886.490 .0251802
887.154 .0251713
887.818 .0251633
888.482 .0251556
889.145 .0251475
889.808 .0251392
890.471 .0251306
891.133 .0251226
891.795 .0251155
892.456 .0251092
893.117 .0251042
893.778 .0251011
894.439 .0250996
895.099 .0250989
895.758 .0250990
896.417 .0250988
897.076 .0250976
897.735 .0250952
898.393 .0250913
899.051 .0250860
899.708 .0250802
900.365 .0250748
901.022 .0250703
901.678 .0250670
902.334 .0250647
902.990 .0250628
903.645 .0250611
904.300 .0250586
904.954 .0250547
905.608 .0250493
906.262 .0250425
906.915 .0250349
907.568 .0250269
908.221 .0250196
908.873 .0250133
909.525 .0250079
910.176 .0250040
910.828 .0250013
911.478 .0249992
912.129 .0249970
912.778 .0249948
913.428 .0249923
914.077 .0249894
914.726 .0249861
915.375 .0249828
916.023 .0249804
916.670 .0249788
917.318 .0249785
917.964 .0249786
918.611 .0249793
919.257 .0249800
919.903 .0249800
920.548 .0249791
921.193 .0249769
921.838 .0249739
922.482 .0249702
923.126 .0249663
923.770 .0249633
924.413 .0249609
925.056 .0249600
925.698 .0249600
926.340 .0249603
926.982 .0249600
927.623 .0249590
928.264 .0249568
928.904 .0249537
929.544 .0249500
930.184 .0249452
930.823 .0249397
931.462 .0249343
932.101 .0249286
932.739 .0249228
933.377 .0249169
934.014 .0249103
934.651 .0249024
935.288 .0248941
935.924 .0248856
936.560 .0248769
937.196 .0248695
937.831 .0248631
938.466 .0248575
939.100 .0248522
939.734 .0248469
940.368 .0248414
941.001 .0248353
941.634 .0248289
942.266 .0248215
942.899 .0248140
943.530 .0248071
944.162 .0247999
944.793 .0247933
945.423 .0247866
946.053 .0247800
946.683 .0247723
947.313 .0247641
947.942 .0247554
948.571 .0247455
949.199 .0247353
949.827 .0247250
950.455 .0247147
951.082 .0247051
951.709 .0246964
952.335 .0246888
952.961 .0246826
953.587 .0246778
954.212 .0246730
954.837 .0246690
955.462 .0246648
956.086 .0246603
956.710 .0246550
957.334 .0246492
957.957 .0246426
958.579 .0246350
959.202 .0246274
959.824 .0246194
960.445 .0246111
961.067 .0246027
961.688 .0245933
962.308 .0245834
962.928 .0245723
963.548 .0245604
964.168 .0245467
964.787 .0245318
965.406 .0245157
966.024 .0244992
966.642 .0244827
967.260 .0244669
967.877 .0244521
968.494 .0244393
969.110 .0244280
969.727 .0244179
970.342 .0244087
970.958 .0244004
971.573 .0243924
972.188 .0243838
972.802 .0243748
973.416 .0243657
974.030 .0243563
974.643 .0243470
975.256 .0243381
975.869 .0243298
976.481 .0243222
977.093 .0243153
977.705 .0243086
978.316 .0243024
978.927 .0242963
979.538 .0242893
980.148 .0242814
980.758 .0242731
981.367 .0242646
981.977 .0242556
982.586 .0242477
983.194 .0242413
983.802 .0242366
984.410 .0242326
985.018 .0242292
985.625 .0242260
986.232 .0242231
986.838 .0242203
987.445 .0242176
988.050 .0242149
988.656 .0242127
989.261 .0242097
989.866 .0242062
990.471 .0242025
991.075 .0241989
991.679 .0241943
992.282 .0241897
992.886 .0241852
993.489 .0241811
994.091 .0241776
994.694 .0241759
995.296 .0241760
995.897 .0241772
996.499 .0241778
997.100 .0241770
997.701 .0241743
998.301 .0241696
998.901 .0241630
999.501 .0241558
1000.101 .0241484
1000.700 .0241408
1001.299 .0241325
1001.898 .0241250
1002.496 .0241179
1003.094 .0241105
1003.692 .0241022
1004.289 .0240924
1004.887 .0240811
1005.484 .0240685
1006.080 .0240552
1006.677 .0240431
1007.273 .0240321
1007.868 .0240225
1008.464 .0240142
1009.059 .0240064
1009.654 .0239991
1010.249 .0239921
1010.843 .0239850
1011.437 .0239779
1012.031 .0239691
1012.625 .0239592
1013.218 .0239482
1013.811 .0239364
1014.404 .0239242
1014.997 .0239117
1015.589 .0238998
1016.181 .0238886
1016.773 .0238780
1017.365 .0238688
1017.956 .0238604
1018.547 .0238532
1019.138 .0238468
1019.728 .0238401
1020.319 .0238333
1020.909 .0238263
1021.499 .0238184
1022.088 .0238108
1022.678 .0238025
1023.267 .0237937
1023.856 .0237855
1024.445 .0237772
1025.033 .0237689
1025.621 .0237593
1026.209 .0237492
1026.797 .0237375
1027.385 .0237239
1027.972 .0237099
1028.560 .0236949
1029.147 .0236799
1029.734 .0236660
1030.320 .0236526
1030.907 .0236405
1031.493 .0236296
1032.079 .0236205
1032.665 .0236129
1033.250 .0236065
1033.836 .0236003
1034.421 .0235947
1035.006 .0235898
1035.591 .0235862
1036.176 .0235820
1036.761 .0235781
1037.345 .0235744
1037.929 .0235689
1038.514 .0235623
1039.097 .0235547
1039.681 .0235460
1040.265 .0235370
1040.848 .0235290
1041.432 .0235221
1042.015 .0235151
1042.598 .0235092
1043.181 .0235038
1043.764 .0234982
1044.346 .0234922
1044.929 .0234836
1045.511 .0234738
1046.094 .0234645
1046.676 .0234552
1047.258 .0234458
1047.840 .0234379
1048.422 .0234320
1049.003 .0234260
1049.585 .0234192
1050.166 .0234122
1050.748 .0234037
1051.329 .0233946
1051.910 .0233848
1052.491 .0233746
1053.072 .0233655
1053.653 .0233581
1054.234 .0233540
1054.815 .0233526
1055.396 .0233540
1055.976 .0233569
1056.557 .0233603
1057.138 .0233649
1057.718 .0233690
1058.298 .0233722
1058.879 .0233745
1059.459 .0233764
1060.039 .0233762
1060.620 .0233729
1061.200 .0233678
1061.780 .0233601
1062.360 .0233491
1062.940 .0233357
1063.520 .0233214
1064.101 .0233052
1064.681 .0232889
1065.261 .0232725
1065.841 .0232551
1066.421 .0232374
1067.001 .0232182
1067.581 .0231962
1068.161 .0231701
1068.741 .0231432
1069.321 .0231150
1069.901 .0230864
1070.482 .0230605
1071.062 .0230358
1071.642 .0230160
1072.222 .0230003
1072.803 .0229881
1073.383 .0229769
1073.963 .0229666
1074.544 .0229583
1075.124 .0229494
1075.705 .0229418
1076.286 .0229375
1076.866 .0229371
1077.447 .0229416
1078.028 .0229505
1078.609 .0229632
1079.190 .0229767
1079.771 .0229913
1080.352 .0230043
1080.934 .0230154
1081.515 .0230226
1082.097 .0230292
1082.679 .0230341
1083.260 .0230386
1083.842 .0230429
1084.424 .0230449
1085.007 .0230449
1085.589 .0230418
1086.172 .0230343
1086.754 .0230221
1087.337 .0230098
1087.920 .0229994
1088.503 .0229904
1089.087 .0229870
1089.670 .0229897
1090.254 .0229967
1090.838 .0230071
1091.422 .0230189
1092.006 .0230278
1092.590 .0230314
1093.175 .0230305
1093.760 .0230233
1094.345 .0230140
1094.930 .0230039
1095.516 .0229959
1096.102 .0229900
1096.688 .0229891
1097.274 .0229893
1097.860 .0229904
1098.447 .0229901
1099.034 .0229890
1099.622 .0229818
1100.209 .0229724
1100.797 .0229628
1101.385 .0229547
1101.973 .0229495
1102.562 .0229506
1103.151 .0229568
1103.740 .0229699
1104.330 .0229885
1104.920 .0230098
1105.510 .0230308
1106.101 .0230530
1106.691 .0230692
1107.283 .0230774
1107.874 .0230781
1108.466 .0230740
1109.058 .0230651
1109.651 .0230576
1110.244 .0230492
1110.837 .0230419
1111.431 .0230379
1112.025 .0230352
1112.620 .0230341
1113.215 .0230338
1113.810 .0230342
1114.406 .0230319
1115.002 .0230288
1115.599 .0230234
1116.196 .0230169
1116.793 .0230147
1117.391 .0230165
1117.989 .0230220
1118.588 .0230319
1119.187 .0230442
1119.787 .0230597
1120.387 .0230816
1120.988 .0231071
1121.589 .0231323
1122.190 .0231619
1122.793 .0231930
1123.395 .0232232
1123.998 .0232522
1124.602 .0232815
1125.206 .0233086
1125.811 .0233328
1126.416 .0233534
1127.022 .0233683
1127.628 .0233847
1128.235 .0234057
1128.843 .0234304
1129.451 .0234593
1130.059 .0234966
1130.669 .0235357
1131.278 .0235772
1131.889 .0236202
1132.500 .0236635
1133.112 .0237026
1133.724 .0237473
1134.337 .0237969
1134.950 .0238526
1135.564 .0239163
1136.179 .0239919
1136.795 .0240733
1137.411 .0241603
1138.028 .0242473
1138.645 .0243286
1139.263 .0244054
1139.882 .0244757
1140.502 .0245377
1141.122 .0245911
1141.743 .0246276
1142.365 .0246604
1142.987 .0247067
1143.611 .0248938
1144.235 .0247897
1144.859 .0244670
1145.485 .0247008
