Measurement Sequence started on: 10-20-44-796
Integration time: 35
Scans to Average: 2 
>>>>>Begin Spectral Data<<<<<
432.953 .0258934
433.882 .0295986
434.810 .0330586
435.737 .0325628
436.662 .0320479
437.586 .0324837
438.509 .0328979
439.431 .0330997
440.351 .0331746
441.269 .0332499
442.187 .0333078
443.103 .0333315
444.018 .0333558
444.932 .0333721
445.844 .0334179
446.756 .0334558
447.666 .0335073
448.575 .0335374
449.482 .0335530
450.388 .0335371
451.294 .0334901
452.198 .0334148
453.100 .0333172
454.002 .0332103
454.902 .0331103
455.801 .0330176
456.699 .0329439
457.596 .0328854
458.492 .0328398
459.387 .0327986
460.280 .0327506
461.172 .0326885
462.064 .0326246
462.954 .0325484
463.843 .0324660
464.730 .0323861
465.617 .0323132
466.503 .0322451
467.387 .0321837
468.271 .0321283
469.153 .0320821
470.035 .0320358
470.915 .0319890
471.794 .0319344
472.673 .0318790
473.550 .0318253
474.426 .0317735
475.301 .0317274
476.175 .0316948
477.048 .0316700
477.920 .0316508
478.791 .0316367
479.661 .0316290
480.530 .0316219
481.398 .0316180
482.266 .0316158
483.132 .0316152
483.997 .0316150
484.861 .0316142
485.724 .0316128
486.587 .0316107
487.448 .0316036
488.308 .0315887
489.168 .0315676
490.026 .0315427
490.884 .0315099
491.741 .0314718
492.597 .0314308
493.452 .0313833
494.306 .0313262
495.159 .0312616
496.011 .0311897
496.862 .0311141
497.713 .0310367
498.562 .0309552
499.411 .0308763
500.259 .0307994
501.106 .0307240
501.952 .0306483
502.798 .0305717
503.642 .0304912
504.486 .0304039
505.329 .0303117
506.171 .0302128
507.012 .0301120
507.852 .0300141
508.692 .0299178
509.531 .0298225
510.369 .0297240
511.206 .0296232
512.043 .0295151
512.878 .0293950
513.713 .0292643
514.547 .0291237
515.381 .0289738
516.213 .0288187
517.045 .0286623
517.876 .0285017
518.706 .0283375
519.536 .0281699
520.365 .0279964
521.193 .0278088
522.020 .0276112
522.847 .0274035
523.673 .0271922
524.498 .0269773
525.323 .0267510
526.146 .0265202
526.969 .0263004
527.792 .0260776
528.614 .0258604
529.435 .0256549
530.255 .0254726
531.075 .0253060
531.894 .0251637
532.712 .0250455
533.530 .0249549
534.347 .0248744
535.163 .0248032
535.979 .0247351
536.794 .0246804
537.608 .0246249
538.422 .0245853
539.235 .0245661
540.048 .0245759
540.860 .0246100
541.671 .0246668
542.481 .0247418
543.292 .0248344
544.101 .0249282
544.910 .0250188
545.718 .0251063
546.526 .0251953
547.333 .0252798
548.139 .0253723
548.945 .0254739
549.750 .0255856
550.555 .0257048
551.359 .0258265
552.162 .0259453
552.965 .0260525
553.768 .0261437
554.569 .0262165
555.371 .0262766
556.171 .0263203
556.972 .0263551
557.771 .0263831
558.570 .0264095
559.369 .0264412
560.167 .0264751
560.964 .0265085
561.761 .0265431
562.558 .0265785
563.354 .0266170
564.149 .0266517
564.944 .0266902
565.738 .0267321
566.532 .0267810
567.325 .0268343
568.118 .0268908
568.910 .0269511
569.702 .0270190
570.494 .0270916
571.285 .0271705
572.075 .0272529
572.865 .0273384
573.654 .0274246
574.443 .0275069
575.232 .0275864
576.020 .0276610
576.807 .0277296
577.594 .0277928
578.381 .0278524
579.167 .0279101
579.952 .0279676
580.738 .0280259
581.522 .0280869
582.307 .0281495
583.091 .0282119
583.874 .0282726
584.657 .0283312
585.440 .0283878
586.222 .0284426
587.004 .0284929
587.785 .0285404
588.566 .0285844
589.346 .0286255
590.126 .0286627
590.906 .0286966
591.685 .0287281
592.464 .0287545
593.242 .0287771
594.020 .0287944
594.797 .0288065
595.575 .0288145
596.351 .0288195
597.128 .0288212
597.904 .0288204
598.679 .0288178
599.454 .0288123
600.229 .0288050
601.004 .0287947
601.778 .0287812
602.551 .0287648
603.325 .0287457
604.097 .0287263
604.870 .0287054
605.642 .0286859
606.414 .0286685
607.185 .0286529
607.956 .0286396
608.727 .0286272
609.497 .0286154
610.267 .0286029
611.037 .0285886
611.806 .0285721
612.575 .0285533
613.344 .0285344
614.112 .0285152
614.880 .0284962
615.647 .0284795
616.414 .0284646
617.181 .0284489
617.948 .0284334
618.714 .0284164
619.480 .0283967
620.245 .0283754
621.011 .0283522
621.775 .0283278
622.540 .0283034
623.304 .0282802
624.068 .0282577
624.832 .0282378
625.595 .0282204
626.358 .0282032
627.120 .0281877
627.883 .0281736
628.645 .0281593
629.406 .0281453
630.168 .0281325
630.929 .0281210
631.689 .0281106
632.450 .0281016
633.210 .0280926
633.970 .0280841
634.729 .0280763
635.489 .0280675
636.248 .0280579
637.006 .0280487
637.765 .0280385
638.523 .0280275
639.280 .0280160
640.038 .0280040
640.795 .0279916
641.552 .0279787
642.309 .0279653
643.065 .0279512
643.821 .0279362
644.577 .0279211
645.332 .0279060
646.088 .0278919
646.843 .0278784
647.597 .0278650
648.352 .0278517
649.106 .0278383
649.860 .0278244
650.613 .0278093
651.367 .0277934
652.120 .0277781
652.872 .0277625
653.625 .0277470
654.377 .0277327
655.129 .0277202
655.881 .0277093
656.632 .0276994
657.384 .0276894
658.135 .0276795
658.885 .0276694
659.636 .0276587
660.386 .0276473
661.136 .0276358
661.885 .0276252
662.635 .0276157
663.384 .0276072
664.133 .0276003
664.881 .0275941
665.630 .0275889
666.378 .0275836
667.126 .0275776
667.874 .0275697
668.621 .0275604
669.368 .0275500
670.115 .0275377
670.862 .0275242
671.608 .0275101
672.354 .0274957
673.100 .0274809
673.846 .0274658
674.591 .0274494
675.337 .0274324
676.082 .0274144
676.826 .0273951
677.571 .0273748
678.315 .0273537
679.059 .0273325
679.803 .0273110
680.547 .0272899
681.290 .0272688
682.033 .0272478
682.776 .0272273
683.518 .0272067
684.261 .0271864
685.003 .0271665
685.745 .0271476
686.487 .0271298
687.228 .0271126
687.969 .0270959
688.710 .0270792
689.451 .0270614
690.192 .0270425
690.932 .0270219
691.672 .0270004
692.412 .0269784
693.152 .0269563
693.891 .0269347
694.630 .0269140
695.369 .0268950
696.108 .0268772
696.846 .0268597
697.585 .0268422
698.323 .0268240
699.061 .0268054
699.798 .0267864
700.536 .0267672
701.273 .0267486
702.010 .0267316
702.746 .0267157
703.483 .0267009
704.219 .0266872
704.955 .0266746
705.691 .0266623
706.427 .0266501
707.162 .0266375
707.897 .0266246
708.632 .0266118
709.367 .0265995
710.101 .0265876
710.835 .0265764
711.569 .0265654
712.303 .0265547
713.037 .0265439
713.770 .0265329
714.503 .0265211
715.236 .0265087
715.969 .0264965
716.702 .0264837
717.434 .0264705
718.166 .0264579
718.898 .0264453
719.629 .0264331
720.361 .0264205
721.092 .0264072
721.823 .0263927
722.554 .0263769
723.284 .0263599
724.014 .0263413
724.744 .0263215
725.474 .0263007
726.204 .0262790
726.933 .0262574
727.662 .0262353
728.391 .0262130
729.120 .0261911
729.849 .0261695
730.577 .0261476
731.305 .0261264
732.033 .0261059
732.760 .0260866
733.488 .0260689
734.215 .0260519
734.942 .0260358
735.669 .0260205
736.395 .0260061
737.122 .0259921
737.848 .0259789
738.573 .0259672
739.299 .0259559
740.024 .0259458
740.750 .0259364
741.474 .0259273
742.199 .0259187
742.924 .0259105
743.648 .0259025
744.372 .0258941
745.096 .0258863
745.819 .0258778
746.543 .0258688
747.266 .0258601
747.989 .0258507
748.711 .0258411
749.434 .0258317
750.156 .0258232
750.878 .0258160
751.599 .0258115
752.321 .0258095
753.042 .0258101
753.763 .0258130
754.484 .0258168
755.205 .0258204
755.925 .0258238
756.645 .0258260
757.365 .0258267
758.085 .0258262
758.804 .0258249
759.523 .0258221
760.242 .0258195
760.961 .0258161
761.679 .0258126
762.397 .0258075
763.115 .0258007
763.833 .0257911
764.551 .0257794
765.268 .0257653
765.985 .0257491
766.702 .0257315
767.418 .0257136
768.134 .0256947
768.850 .0256763
769.566 .0256575
770.282 .0256403
770.997 .0256239
771.712 .0256088
772.427 .0255938
773.142 .0255798
773.856 .0255663
774.570 .0255537
775.284 .0255416
775.998 .0255300
776.711 .0255181
777.424 .0255066
778.137 .0254948
778.849 .0254826
779.562 .0254706
780.274 .0254588
780.986 .0254468
781.697 .0254350
782.409 .0254225
783.120 .0254101
783.831 .0253979
784.541 .0253862
785.252 .0253748
785.962 .0253635
786.671 .0253525
787.381 .0253412
788.090 .0253302
788.799 .0253194
789.508 .0253087
790.217 .0252984
790.925 .0252883
791.633 .0252779
792.341 .0252672
793.048 .0252559
793.755 .0252443
794.462 .0252319
795.169 .0252194
795.875 .0252059
796.581 .0251921
797.287 .0251782
797.993 .0251638
798.698 .0251486
799.403 .0251328
800.108 .0251160
800.812 .0250985
801.517 .0250802
802.221 .0250617
802.924 .0250433
803.628 .0250259
804.331 .0250092
805.034 .0249936
805.736 .0249799
806.439 .0249673
807.141 .0249555
807.843 .0249453
808.544 .0249361
809.245 .0249277
809.946 .0249201
810.647 .0249130
811.347 .0249061
812.047 .0248995
812.747 .0248926
813.447 .0248847
814.146 .0248760
814.845 .0248662
815.543 .0248545
816.242 .0248416
816.940 .0248271
817.638 .0248106
818.335 .0247927
819.032 .0247737
819.729 .0247539
820.426 .0247334
821.122 .0247126
821.818 .0246919
822.514 .0246713
823.209 .0246516
823.905 .0246326
824.599 .0246144
825.294 .0245966
825.988 .0245789
826.682 .0245611
827.376 .0245435
828.069 .0245264
828.762 .0245096
829.455 .0244927
830.147 .0244763
830.840 .0244602
831.531 .0244437
832.223 .0244274
832.914 .0244111
833.605 .0243942
834.296 .0243777
834.986 .0243605
835.676 .0243434
836.366 .0243264
837.055 .0243101
837.744 .0242942
838.433 .0242786
839.121 .0242637
839.809 .0242490
840.497 .0242346
841.185 .0242202
841.872 .0242055
842.559 .0241907
843.245 .0241757
843.932 .0241611
844.617 .0241467
845.303 .0241333
845.988 .0241207
846.673 .0241100
847.358 .0241001
848.042 .0240909
848.726 .0240820
849.410 .0240729
850.093 .0240635
850.776 .0240543
851.459 .0240453
852.141 .0240370
852.823 .0240299
853.505 .0240244
854.186 .0240196
854.867 .0240160
855.548 .0240121
856.228 .0240075
856.908 .0240017
857.588 .0239944
858.267 .0239852
858.946 .0239749
859.625 .0239644
860.303 .0239543
860.981 .0239453
861.659 .0239378
862.336 .0239310
863.013 .0239248
863.690 .0239191
864.366 .0239131
865.042 .0239072
865.718 .0239020
866.393 .0238973
867.068 .0238937
867.743 .0238912
868.417 .0238895
869.091 .0238879
869.765 .0238865
870.438 .0238846
871.111 .0238813
871.783 .0238768
872.456 .0238707
873.127 .0238631
873.799 .0238552
874.470 .0238468
875.141 .0238382
875.811 .0238300
876.481 .0238217
877.151 .0238130
877.820 .0238047
878.489 .0237968
879.158 .0237889
879.826 .0237809
880.494 .0237731
881.162 .0237652
881.829 .0237580
882.496 .0237516
883.163 .0237459
883.829 .0237418
884.495 .0237389
885.160 .0237367
885.825 .0237353
886.490 .0237347
887.154 .0237342
887.818 .0237335
888.482 .0237321
889.145 .0237301
889.808 .0237274
890.471 .0237248
891.133 .0237226
891.795 .0237213
892.456 .0237211
893.117 .0237220
893.778 .0237245
894.439 .0237282
895.099 .0237322
895.758 .0237360
896.417 .0237390
897.076 .0237411
897.735 .0237418
898.393 .0237416
899.051 .0237405
899.708 .0237391
900.365 .0237372
901.022 .0237349
901.678 .0237333
902.334 .0237318
902.990 .0237302
903.645 .0237287
904.300 .0237266
904.954 .0237236
905.608 .0237196
906.262 .0237154
906.915 .0237110
907.568 .0237074
908.221 .0237043
908.873 .0237021
909.525 .0237014
910.176 .0237015
910.828 .0237015
911.478 .0237010
912.129 .0236998
912.778 .0236967
913.428 .0236922
914.077 .0236868
914.726 .0236803
915.375 .0236740
916.023 .0236680
916.670 .0236627
917.318 .0236580
917.964 .0236536
918.611 .0236494
919.257 .0236447
919.903 .0236395
920.548 .0236337
921.193 .0236275
921.838 .0236223
922.482 .0236179
923.126 .0236146
923.770 .0236125
924.413 .0236118
925.056 .0236124
925.698 .0236136
926.340 .0236145
926.982 .0236152
927.623 .0236151
928.264 .0236139
928.904 .0236121
929.544 .0236096
930.184 .0236069
930.823 .0236042
931.462 .0236009
932.101 .0235970
932.739 .0235926
933.377 .0235876
934.014 .0235810
934.651 .0235728
935.288 .0235625
935.924 .0235500
936.560 .0235361
937.196 .0235214
937.831 .0235061
938.466 .0234910
939.100 .0234769
939.734 .0234636
940.368 .0234511
941.001 .0234387
941.634 .0234264
942.266 .0234137
942.899 .0234001
943.530 .0233858
944.162 .0233709
944.793 .0233567
945.423 .0233431
946.053 .0233301
946.683 .0233178
947.313 .0233059
947.942 .0232935
948.571 .0232792
949.199 .0232628
949.827 .0232441
950.455 .0232229
951.082 .0232005
951.709 .0231779
952.335 .0231556
952.961 .0231349
953.587 .0231157
954.212 .0230972
954.837 .0230793
955.462 .0230613
956.086 .0230427
956.710 .0230240
957.334 .0230055
957.957 .0229871
958.579 .0229699
959.202 .0229547
959.824 .0229404
960.445 .0229266
961.067 .0229136
961.688 .0229001
962.308 .0228862
962.928 .0228714
963.548 .0228555
964.168 .0228392
964.787 .0228231
965.406 .0228074
966.024 .0227915
966.642 .0227763
967.260 .0227613
967.877 .0227461
968.494 .0227315
969.110 .0227166
969.727 .0227022
970.342 .0226884
970.958 .0226752
971.573 .0226627
972.188 .0226509
972.802 .0226398
973.416 .0226290
974.030 .0226184
974.643 .0226073
975.256 .0225957
975.869 .0225840
976.481 .0225725
977.093 .0225613
977.705 .0225505
978.316 .0225395
978.927 .0225283
979.538 .0225166
980.148 .0225038
980.758 .0224896
981.367 .0224748
981.977 .0224591
982.586 .0224436
983.194 .0224295
983.802 .0224171
984.410 .0224064
985.018 .0223979
985.625 .0223905
986.232 .0223842
986.838 .0223781
987.445 .0223722
988.050 .0223658
988.656 .0223596
989.261 .0223527
989.866 .0223445
990.471 .0223360
991.075 .0223276
991.679 .0223184
992.282 .0223081
992.886 .0222965
993.489 .0222834
994.091 .0222690
994.694 .0222536
995.296 .0222376
995.897 .0222219
996.499 .0222060
997.100 .0221908
997.701 .0221766
998.301 .0221644
998.901 .0221542
999.501 .0221461
1000.101 .0221406
1000.700 .0221369
1001.299 .0221342
1001.898 .0221325
1002.496 .0221312
1003.094 .0221300
1003.692 .0221282
1004.289 .0221260
1004.887 .0221227
1005.484 .0221184
1006.080 .0221131
1006.677 .0221065
1007.273 .0220986
1007.868 .0220895
1008.464 .0220783
1009.059 .0220664
1009.654 .0220541
1010.249 .0220415
1010.843 .0220299
1011.437 .0220210
1012.031 .0220138
1012.625 .0220093
1013.218 .0220063
1013.811 .0220041
1014.404 .0220022
1014.997 .0220004
1015.589 .0219979
1016.181 .0219951
1016.773 .0219931
1017.365 .0219916
1017.956 .0219913
1018.547 .0219933
1019.138 .0219954
1019.728 .0219991
1020.319 .0220041
1020.909 .0220086
1021.499 .0220117
1022.088 .0220132
1022.678 .0220127
1023.267 .0220106
1023.856 .0220061
1024.445 .0219993
1025.033 .0219920
1025.621 .0219846
1026.209 .0219769
1026.797 .0219688
1027.385 .0219619
1027.972 .0219553
1028.560 .0219485
1029.147 .0219418
1029.734 .0219340
1030.320 .0219251
1030.907 .0219154
1031.493 .0219043
1032.079 .0218947
1032.665 .0218865
1033.250 .0218804
1033.836 .0218771
1034.421 .0218771
1035.006 .0218789
1035.591 .0218812
1036.176 .0218841
1036.761 .0218866
1037.345 .0218866
1037.929 .0218844
1038.514 .0218799
1039.097 .0218743
1039.681 .0218683
1040.265 .0218620
1040.848 .0218560
1041.432 .0218505
1042.015 .0218448
1042.598 .0218385
1043.181 .0218326
1043.764 .0218277
1044.346 .0218230
1044.929 .0218184
1045.511 .0218158
1046.094 .0218137
1046.676 .0218126
1047.258 .0218131
1047.840 .0218143
1048.422 .0218171
1049.003 .0218205
1049.585 .0218246
1050.166 .0218299
1050.748 .0218363
1051.329 .0218449
1051.910 .0218523
1052.491 .0218590
1053.072 .0218644
1053.653 .0218680
1054.234 .0218710
1054.815 .0218734
1055.396 .0218747
1055.976 .0218774
1056.557 .0218806
1057.138 .0218843
1057.718 .0218880
1058.298 .0218914
1058.879 .0218939
1059.459 .0218938
1060.039 .0218917
1060.620 .0218876
1061.200 .0218807
1061.780 .0218743
1062.360 .0218683
1062.940 .0218630
1063.520 .0218573
1064.101 .0218510
1064.681 .0218452
1065.261 .0218405
1065.841 .0218354
1066.421 .0218323
1067.001 .0218310
1067.581 .0218319
1068.161 .0218331
1068.741 .0218333
1069.321 .0218343
1069.901 .0218357
1070.482 .0218361
1071.062 .0218358
1071.642 .0218359
1072.222 .0218380
1072.803 .0218409
1073.383 .0218463
1073.963 .0218527
1074.544 .0218603
1075.124 .0218651
1075.705 .0218662
1076.286 .0218638
1076.866 .0218577
1077.447 .0218488
1078.028 .0218365
1078.609 .0218248
1079.190 .0218130
1079.771 .0218026
1080.352 .0217939
1080.934 .0217857
1081.515 .0217821
1082.097 .0217809
1082.679 .0217803
1083.260 .0217833
1083.842 .0217902
1084.424 .0217994
1085.007 .0218112
1085.589 .0218270
1086.172 .0218415
1086.754 .0218568
1087.337 .0218719
1087.920 .0218879
1088.503 .0219045
1089.087 .0219223
1089.670 .0219388
1090.254 .0219544
1090.838 .0219721
1091.422 .0219856
1092.006 .0219947
1092.590 .0220040
1093.175 .0220088
1093.760 .0220114
1094.345 .0220134
1094.930 .0220158
1095.516 .0220188
1096.102 .0220242
1096.688 .0220275
1097.274 .0220265
1097.860 .0220237
1098.447 .0220195
1099.034 .0220161
1099.622 .0220153
1100.209 .0220196
1100.797 .0220276
1101.385 .0220391
1101.973 .0220525
1102.562 .0220622
1103.151 .0220697
1103.740 .0220739
1104.330 .0220724
1104.920 .0220695
1105.510 .0220645
1106.101 .0220638
1106.691 .0220670
1107.283 .0220769
1107.874 .0220907
1108.466 .0221028
1109.058 .0221103
1109.651 .0221137
1110.244 .0221122
1110.837 .0221090
1111.431 .0221059
1112.025 .0221056
1112.620 .0221119
1113.215 .0221242
1113.810 .0221395
1114.406 .0221590
1115.002 .0221791
1115.599 .0221992
1116.196 .0222120
1116.793 .0222188
1117.391 .0222239
1117.989 .0222274
1118.588 .0222341
1119.187 .0222398
1119.787 .0222475
1120.387 .0222544
1120.988 .0222560
1121.589 .0222531
1122.190 .0222471
1122.793 .0222353
1123.395 .0222205
1123.998 .0222047
1124.602 .0221871
1125.206 .0221689
1125.811 .0221501
1126.416 .0221316
1127.022 .0221129
1127.628 .0220940
1128.235 .0220737
1128.843 .0220547
1129.451 .0220478
1130.059 .0220452
1130.669 .0220493
1131.278 .0220646
1131.889 .0220872
1132.500 .0221116
1133.112 .0221386
1133.724 .0221674
1134.337 .0221941
1134.950 .0222234
1135.564 .0222581
1136.179 .0222979
1136.795 .0223489
1137.411 .0224153
1138.028 .0224887
1138.645 .0225700
1139.263 .0226585
1139.882 .0227462
1140.502 .0228385
1141.122 .0229380
1141.743 .0230445
1142.365 .0231488
1142.987 .0231772
1143.611 .0234001
1144.235 .0235945
1144.859 .0237897
1145.485 .0236123
