Measurement Sequence started on: 10-20-44-796
Integration time: 35
Scans to Average: 2 
>>>>>Begin Spectral Data<<<<<
432.953 .0245625
433.882 .0308064
434.810 .0303498
435.737 .0302741
436.662 .0300967
437.586 .0310587
438.509 .0316660
439.431 .0320988
440.351 .0325491
441.269 .0329750
442.187 .0333516
443.103 .0336509
444.018 .0338833
444.932 .0340527
445.844 .0341690
446.756 .0342575
447.666 .0343303
448.575 .0343739
449.482 .0343989
450.388 .0344031
451.294 .0343802
452.198 .0343295
453.100 .0342596
454.002 .0341768
454.902 .0340895
455.801 .0339928
456.699 .0338954
457.596 .0338096
458.492 .0337269
459.387 .0336507
460.280 .0335826
461.172 .0335174
462.064 .0334588
462.954 .0334000
463.843 .0333451
464.730 .0332933
465.617 .0332437
466.503 .0331939
467.387 .0331453
468.271 .0330925
469.153 .0330364
470.035 .0329742
470.915 .0329181
471.794 .0328654
472.673 .0328191
473.550 .0327787
474.426 .0327479
475.301 .0327266
476.175 .0327129
477.048 .0327008
477.920 .0326935
478.791 .0326858
479.661 .0326779
480.530 .0326661
481.398 .0326524
482.266 .0326356
483.132 .0326199
483.997 .0326005
484.861 .0325804
485.724 .0325598
486.587 .0325417
487.448 .0325238
488.308 .0325113
489.168 .0325022
490.026 .0324937
490.884 .0324853
491.741 .0324744
492.597 .0324575
493.452 .0324346
494.306 .0324055
495.159 .0323701
496.011 .0323351
496.862 .0323019
497.713 .0322681
498.562 .0322343
499.411 .0322008
500.259 .0321614
501.106 .0321113
501.952 .0320487
502.798 .0319727
503.642 .0318837
504.486 .0317846
505.329 .0316741
506.171 .0315619
507.012 .0314498
507.852 .0313410
508.692 .0312314
509.531 .0311220
510.369 .0310074
511.206 .0308875
512.043 .0307619
512.878 .0306310
513.713 .0304949
514.547 .0303570
515.381 .0302165
516.213 .0300759
517.045 .0299328
517.876 .0297867
518.706 .0296352
519.536 .0294801
520.365 .0293121
521.193 .0291331
522.020 .0289442
522.847 .0287503
523.673 .0285496
524.498 .0283464
525.323 .0281410
526.146 .0279349
526.969 .0277345
527.792 .0275335
528.614 .0273316
529.435 .0271340
530.255 .0269344
531.075 .0267276
531.894 .0265204
532.712 .0263166
533.530 .0261258
534.347 .0259497
535.163 .0258006
535.979 .0256802
536.794 .0255918
537.608 .0255393
538.422 .0255163
539.235 .0255206
540.048 .0255494
540.860 .0255881
541.671 .0256449
542.481 .0257053
543.292 .0257723
544.101 .0258412
544.910 .0259154
545.718 .0259899
546.526 .0260618
547.333 .0261337
548.139 .0262048
548.945 .0262721
549.750 .0263343
550.555 .0263899
551.359 .0264452
552.162 .0264983
552.965 .0265459
553.768 .0265917
554.569 .0266420
555.371 .0266912
556.171 .0267442
556.972 .0268047
557.771 .0268693
558.570 .0269403
559.369 .0270152
560.167 .0270961
560.964 .0271804
561.761 .0272666
562.558 .0273502
563.354 .0274321
564.149 .0275100
564.944 .0275837
565.738 .0276546
566.532 .0277308
567.325 .0278092
568.118 .0278900
568.910 .0279748
569.702 .0280632
570.494 .0281531
571.285 .0282447
572.075 .0283370
572.865 .0284283
573.654 .0285158
574.443 .0285996
575.232 .0286813
576.020 .0287630
576.807 .0288446
577.594 .0289248
578.381 .0290042
579.167 .0290818
579.952 .0291551
580.738 .0292244
581.522 .0292896
582.307 .0293493
583.091 .0294019
583.874 .0294469
584.657 .0294859
585.440 .0295200
586.222 .0295514
587.004 .0295797
587.785 .0296065
588.566 .0296323
589.346 .0296553
590.126 .0296764
590.906 .0296959
591.685 .0297127
592.464 .0297265
593.242 .0297372
594.020 .0297452
594.797 .0297516
595.575 .0297564
596.351 .0297608
597.128 .0297653
597.904 .0297696
598.679 .0297731
599.454 .0297745
600.229 .0297745
601.004 .0297715
601.778 .0297640
602.551 .0297528
603.325 .0297379
604.097 .0297210
604.870 .0297028
605.642 .0296849
606.414 .0296677
607.185 .0296511
607.956 .0296352
608.727 .0296198
609.497 .0296047
610.267 .0295884
611.037 .0295704
611.806 .0295508
612.575 .0295295
613.344 .0295071
614.112 .0294843
614.880 .0294621
615.647 .0294409
616.414 .0294203
617.181 .0294003
617.948 .0293811
618.714 .0293623
619.480 .0293443
620.245 .0293272
621.011 .0293103
621.775 .0292938
622.540 .0292776
623.304 .0292621
624.068 .0292471
624.832 .0292319
625.595 .0292166
626.358 .0292011
627.120 .0291860
627.883 .0291703
628.645 .0291549
629.406 .0291402
630.168 .0291253
630.929 .0291104
631.689 .0290943
632.450 .0290764
633.210 .0290566
633.970 .0290351
634.729 .0290121
635.489 .0289876
636.248 .0289627
637.006 .0289379
637.765 .0289143
638.523 .0288920
639.280 .0288711
640.038 .0288521
640.795 .0288351
641.552 .0288196
642.309 .0288050
643.065 .0287909
643.821 .0287771
644.577 .0287636
645.332 .0287500
646.088 .0287358
646.843 .0287219
647.597 .0287080
648.352 .0286945
649.106 .0286824
649.860 .0286710
650.613 .0286605
651.367 .0286513
652.120 .0286424
652.872 .0286327
653.625 .0286223
654.377 .0286113
655.129 .0285995
655.881 .0285872
656.632 .0285748
657.384 .0285622
658.135 .0285506
658.885 .0285400
659.636 .0285293
660.386 .0285186
661.136 .0285080
661.885 .0284962
662.635 .0284846
663.384 .0284729
664.133 .0284613
664.881 .0284508
665.630 .0284412
666.378 .0284325
667.126 .0284238
667.874 .0284152
668.621 .0284059
669.368 .0283952
670.115 .0283832
670.862 .0283698
671.608 .0283560
672.354 .0283429
673.100 .0283305
673.846 .0283193
674.591 .0283092
675.337 .0282998
676.082 .0282902
676.826 .0282793
677.571 .0282665
678.315 .0282517
679.059 .0282351
679.803 .0282177
680.547 .0282002
681.290 .0281834
682.033 .0281680
682.776 .0281539
683.518 .0281407
684.261 .0281279
685.003 .0281144
685.745 .0280998
686.487 .0280838
687.228 .0280669
687.969 .0280492
688.710 .0280311
689.451 .0280139
690.192 .0279977
690.932 .0279820
691.672 .0279666
692.412 .0279509
693.152 .0279345
693.891 .0279168
694.630 .0278979
695.369 .0278779
696.108 .0278571
696.846 .0278358
697.585 .0278139
698.323 .0277920
699.061 .0277702
699.798 .0277482
700.536 .0277260
701.273 .0277042
702.010 .0276830
702.746 .0276618
703.483 .0276417
704.219 .0276223
704.955 .0276035
705.691 .0275848
706.427 .0275661
707.162 .0275470
707.897 .0275279
708.632 .0275087
709.367 .0274901
710.101 .0274724
710.835 .0274560
711.569 .0274403
712.303 .0274253
713.037 .0274109
713.770 .0273959
714.503 .0273795
715.236 .0273618
715.969 .0273425
716.702 .0273222
717.434 .0273009
718.166 .0272800
718.898 .0272597
719.629 .0272403
720.361 .0272213
721.092 .0272024
721.823 .0271831
722.554 .0271629
723.284 .0271414
724.014 .0271183
724.744 .0270940
725.474 .0270691
726.204 .0270444
726.933 .0270206
727.662 .0269982
728.391 .0269773
729.120 .0269576
729.849 .0269396
730.577 .0269220
731.305 .0269042
732.033 .0268861
732.760 .0268676
733.488 .0268488
734.215 .0268299
734.942 .0268117
735.669 .0267942
736.395 .0267780
737.122 .0267629
737.848 .0267480
738.573 .0267334
739.299 .0267191
740.024 .0267042
740.750 .0266890
741.474 .0266733
742.199 .0266575
742.924 .0266422
743.648 .0266281
744.372 .0266149
745.096 .0266032
745.819 .0265928
746.543 .0265831
747.266 .0265736
747.989 .0265648
748.711 .0265560
749.434 .0265472
750.156 .0265387
750.878 .0265308
751.599 .0265235
752.321 .0265176
753.042 .0265130
753.763 .0265100
754.484 .0265085
755.205 .0265075
755.925 .0265067
756.645 .0265057
757.365 .0265040
758.085 .0265014
758.804 .0264972
759.523 .0264918
760.242 .0264850
760.961 .0264768
761.679 .0264676
762.397 .0264573
763.115 .0264458
763.833 .0264328
764.551 .0264182
765.268 .0264015
765.985 .0263829
766.702 .0263624
767.418 .0263410
768.134 .0263194
768.850 .0262981
769.566 .0262775
770.282 .0262581
770.997 .0262402
771.712 .0262232
772.427 .0262073
773.142 .0261923
773.856 .0261779
774.570 .0261646
775.284 .0261516
775.998 .0261394
776.711 .0261283
777.424 .0261180
778.137 .0261084
778.849 .0260993
779.562 .0260900
780.274 .0260806
780.986 .0260710
781.697 .0260615
782.409 .0260521
783.120 .0260433
783.831 .0260352
784.541 .0260275
785.252 .0260205
785.962 .0260136
786.671 .0260062
787.381 .0259987
788.090 .0259904
788.799 .0259809
789.508 .0259707
790.217 .0259602
790.925 .0259496
791.633 .0259395
792.341 .0259299
793.048 .0259203
793.755 .0259106
794.462 .0259004
795.169 .0258891
795.875 .0258769
796.581 .0258640
797.287 .0258502
797.993 .0258361
798.698 .0258221
799.403 .0258086
800.108 .0257959
800.812 .0257846
801.517 .0257739
802.221 .0257639
802.924 .0257539
803.628 .0257436
804.331 .0257332
805.034 .0257228
805.736 .0257124
806.439 .0257020
807.141 .0256921
807.843 .0256827
808.544 .0256735
809.245 .0256649
809.946 .0256560
810.647 .0256469
811.347 .0256369
812.047 .0256262
812.747 .0256143
813.447 .0256016
814.146 .0255883
814.845 .0255745
815.543 .0255605
816.242 .0255460
816.940 .0255316
817.638 .0255169
818.335 .0255026
819.032 .0254883
819.729 .0254737
820.426 .0254594
821.122 .0254447
821.818 .0254301
822.514 .0254151
823.209 .0254003
823.905 .0253857
824.599 .0253711
825.294 .0253568
825.988 .0253423
826.682 .0253283
827.376 .0253142
828.069 .0253003
828.762 .0252864
829.455 .0252718
830.147 .0252569
830.840 .0252416
831.531 .0252262
832.223 .0252106
832.914 .0251947
833.605 .0251787
834.296 .0251632
834.986 .0251478
835.676 .0251327
836.366 .0251181
837.055 .0251041
837.744 .0250905
838.433 .0250770
839.121 .0250638
839.809 .0250505
840.497 .0250374
841.185 .0250246
841.872 .0250116
842.559 .0249992
843.245 .0249870
843.932 .0249751
844.617 .0249640
845.303 .0249537
845.988 .0249435
846.673 .0249336
847.358 .0249243
848.042 .0249152
848.726 .0249060
849.410 .0248966
850.093 .0248869
850.776 .0248772
851.459 .0248674
852.141 .0248569
852.823 .0248459
853.505 .0248350
854.186 .0248235
854.867 .0248118
855.548 .0247998
856.228 .0247876
856.908 .0247752
857.588 .0247632
858.267 .0247518
858.946 .0247406
859.625 .0247301
860.303 .0247202
860.981 .0247109
861.659 .0247016
862.336 .0246918
863.013 .0246819
863.690 .0246718
864.366 .0246616
865.042 .0246510
865.718 .0246402
866.393 .0246300
867.068 .0246197
867.743 .0246092
868.417 .0245984
869.091 .0245870
869.765 .0245747
870.438 .0245613
871.111 .0245474
871.783 .0245330
872.456 .0245184
873.127 .0245040
873.799 .0244899
874.470 .0244759
875.141 .0244625
875.811 .0244491
876.481 .0244362
877.151 .0244242
877.820 .0244131
878.489 .0244033
879.158 .0243952
879.826 .0243885
880.494 .0243829
881.162 .0243781
881.829 .0243739
882.496 .0243688
883.163 .0243633
883.829 .0243572
884.495 .0243508
885.160 .0243448
885.825 .0243394
886.490 .0243348
887.154 .0243312
887.818 .0243281
888.482 .0243251
889.145 .0243215
889.808 .0243178
890.471 .0243128
891.133 .0243070
891.795 .0243010
892.456 .0242947
893.117 .0242885
893.778 .0242834
894.439 .0242788
895.099 .0242747
895.758 .0242710
896.417 .0242674
897.076 .0242632
897.735 .0242586
898.393 .0242534
899.051 .0242475
899.708 .0242417
900.365 .0242362
901.022 .0242307
901.678 .0242261
902.334 .0242222
902.990 .0242189
903.645 .0242158
904.300 .0242131
904.954 .0242104
905.608 .0242071
906.262 .0242035
906.915 .0241997
907.568 .0241954
908.221 .0241913
908.873 .0241871
909.525 .0241829
910.176 .0241786
910.828 .0241741
911.478 .0241688
912.129 .0241625
912.778 .0241552
913.428 .0241469
914.077 .0241377
914.726 .0241283
915.375 .0241187
916.023 .0241094
916.670 .0241009
917.318 .0240930
917.964 .0240854
918.611 .0240787
919.257 .0240722
919.903 .0240659
920.548 .0240600
921.193 .0240546
921.838 .0240500
922.482 .0240461
923.126 .0240428
923.770 .0240400
924.413 .0240371
925.056 .0240338
925.698 .0240297
926.340 .0240252
926.982 .0240197
927.623 .0240132
928.264 .0240061
928.904 .0239986
929.544 .0239909
930.184 .0239830
930.823 .0239749
931.462 .0239666
932.101 .0239579
932.739 .0239480
933.377 .0239373
934.014 .0239259
934.651 .0239137
935.288 .0239009
935.924 .0238879
936.560 .0238749
937.196 .0238618
937.831 .0238484
938.466 .0238350
939.100 .0238215
939.734 .0238080
940.368 .0237939
941.001 .0237797
941.634 .0237653
942.266 .0237505
942.899 .0237353
943.530 .0237197
944.162 .0237038
944.793 .0236877
945.423 .0236712
946.053 .0236545
946.683 .0236375
947.313 .0236207
947.942 .0236040
948.571 .0235877
949.199 .0235717
949.827 .0235557
950.455 .0235397
951.082 .0235241
951.709 .0235085
952.335 .0234929
952.961 .0234774
953.587 .0234618
954.212 .0234464
954.837 .0234306
955.462 .0234149
956.086 .0233997
956.710 .0233854
957.334 .0233717
957.957 .0233585
958.579 .0233460
959.202 .0233337
959.824 .0233219
960.445 .0233107
961.067 .0232999
961.688 .0232895
962.308 .0232800
962.928 .0232714
963.548 .0232638
964.168 .0232575
964.787 .0232519
965.406 .0232472
966.024 .0232429
966.642 .0232380
967.260 .0232326
967.877 .0232266
968.494 .0232202
969.110 .0232129
969.727 .0232049
970.342 .0231960
970.958 .0231863
971.573 .0231758
972.188 .0231642
972.802 .0231518
973.416 .0231391
974.030 .0231258
974.643 .0231127
975.256 .0231002
975.869 .0230882
976.481 .0230773
977.093 .0230677
977.705 .0230594
978.316 .0230527
978.927 .0230473
979.538 .0230428
980.148 .0230393
980.758 .0230366
981.367 .0230339
981.977 .0230315
982.586 .0230293
983.194 .0230268
983.802 .0230239
984.410 .0230204
985.018 .0230160
985.625 .0230114
986.232 .0230068
986.838 .0230016
987.445 .0229965
988.050 .0229916
988.656 .0229867
989.261 .0229818
989.866 .0229768
990.471 .0229715
991.075 .0229663
991.679 .0229615
992.282 .0229569
992.886 .0229524
993.489 .0229492
994.091 .0229468
994.694 .0229453
995.296 .0229447
995.897 .0229441
996.499 .0229436
997.100 .0229423
997.701 .0229409
998.301 .0229381
998.901 .0229350
999.501 .0229312
1000.101 .0229269
1000.700 .0229220
1001.299 .0229161
1001.898 .0229094
1002.496 .0229020
1003.094 .0228944
1003.692 .0228859
1004.289 .0228768
1004.887 .0228682
1005.484 .0228594
1006.080 .0228510
1006.677 .0228424
1007.273 .0228340
1007.868 .0228257
1008.464 .0228178
1009.059 .0228103
1009.654 .0228037
1010.249 .0227986
1010.843 .0227946
1011.437 .0227925
1012.031 .0227915
1012.625 .0227920
1013.218 .0227930
1013.811 .0227949
1014.404 .0227978
1014.997 .0228013
1015.589 .0228057
1016.181 .0228107
1016.773 .0228163
1017.365 .0228225
1017.956 .0228279
1018.547 .0228335
1019.138 .0228378
1019.728 .0228419
1020.319 .0228449
1020.909 .0228479
1021.499 .0228499
1022.088 .0228517
1022.678 .0228518
1023.267 .0228509
1023.856 .0228477
1024.445 .0228421
1025.033 .0228337
1025.621 .0228239
1026.209 .0228135
1026.797 .0228034
1027.385 .0227934
1027.972 .0227851
1028.560 .0227777
1029.147 .0227713
1029.734 .0227636
1030.320 .0227555
1030.907 .0227460
1031.493 .0227359
1032.079 .0227255
1032.665 .0227165
1033.250 .0227097
1033.836 .0227068
1034.421 .0227072
1035.006 .0227104
1035.591 .0227153
1036.176 .0227208
1036.761 .0227253
1037.345 .0227284
1037.929 .0227288
1038.514 .0227269
1039.097 .0227236
1039.681 .0227209
1040.265 .0227189
1040.848 .0227189
1041.432 .0227207
1042.015 .0227237
1042.598 .0227268
1043.181 .0227292
1043.764 .0227298
1044.346 .0227284
1044.929 .0227250
1045.511 .0227203
1046.094 .0227144
1046.676 .0227085
1047.258 .0227043
1047.840 .0227020
1048.422 .0227018
1049.003 .0227028
1049.585 .0227044
1050.166 .0227059
1050.748 .0227070
1051.329 .0227062
1051.910 .0227041
1052.491 .0227011
1053.072 .0226973
1053.653 .0226926
1054.234 .0226880
1054.815 .0226837
1055.396 .0226794
1055.976 .0226751
1056.557 .0226710
1057.138 .0226658
1057.718 .0226609
1058.298 .0226551
1058.879 .0226492
1059.459 .0226434
1060.039 .0226387
1060.620 .0226339
1061.200 .0226302
1061.780 .0226280
1062.360 .0226260
1062.940 .0226249
1063.520 .0226248
1064.101 .0226251
1064.681 .0226253
1065.261 .0226241
1065.841 .0226217
1066.421 .0226177
1067.001 .0226128
1067.581 .0226056
1068.161 .0225982
1068.741 .0225916
1069.321 .0225856
1069.901 .0225802
1070.482 .0225756
1071.062 .0225728
1071.642 .0225708
1072.222 .0225685
1072.803 .0225653
1073.383 .0225620
1073.963 .0225584
1074.544 .0225554
1075.124 .0225544
1075.705 .0225561
1076.286 .0225618
1076.866 .0225709
1077.447 .0225824
1078.028 .0225953
1078.609 .0226086
1079.190 .0226217
1079.771 .0226331
1080.352 .0226435
1080.934 .0226523
1081.515 .0226610
1082.097 .0226703
1082.679 .0226800
1083.260 .0226887
1083.842 .0226956
1084.424 .0226988
1085.007 .0226967
1085.589 .0226880
1086.172 .0226712
1086.754 .0226482
1087.337 .0226205
1087.920 .0225905
1088.503 .0225600
1089.087 .0225302
1089.670 .0225039
1090.254 .0224804
1090.838 .0224593
1091.422 .0224403
1092.006 .0224235
1092.590 .0224091
1093.175 .0223964
1093.760 .0223876
1094.345 .0223831
1094.930 .0223833
1095.516 .0223896
1096.102 .0224003
1096.688 .0224150
1097.274 .0224332
1097.860 .0224512
1098.447 .0224679
1099.034 .0224835
1099.622 .0224957
1100.209 .0225047
1100.797 .0225113
1101.385 .0225147
1101.973 .0225142
1102.562 .0225120
1103.151 .0225080
1103.740 .0225008
1104.330 .0224943
1104.920 .0224875
1105.510 .0224805
1106.101 .0224766
1106.691 .0224730
1107.283 .0224698
1107.874 .0224676
1108.466 .0224641
1109.058 .0224581
1109.651 .0224508
1110.244 .0224430
1110.837 .0224336
1111.431 .0224246
1112.025 .0224175
1112.620 .0224098
1113.215 .0224064
1113.810 .0224062
1114.406 .0224077
1115.002 .0224117
1115.599 .0224166
1116.196 .0224207
1116.793 .0224236
1117.391 .0224253
1117.989 .0224267
1118.588 .0224277
1119.187 .0224299
1119.787 .0224326
1120.387 .0224370
1120.988 .0224437
1121.589 .0224513
1122.190 .0224588
1122.793 .0224649
1123.395 .0224677
1123.998 .0224700
1124.602 .0224728
1125.206 .0224795
1125.811 .0224937
1126.416 .0225164
1127.022 .0225487
1127.628 .0225885
1128.235 .0226337
1128.843 .0226831
1129.451 .0227311
1130.059 .0227740
1130.669 .0228071
1131.278 .0228319
1131.889 .0228491
1132.500 .0228619
1133.112 .0228738
1133.724 .0228911
1134.337 .0229119
1134.950 .0229339
1135.564 .0229584
1136.179 .0229799
1136.795 .0229977
1137.411 .0230114
1138.028 .0230200
1138.645 .0230254
1139.263 .0230388
1139.882 .0230621
1140.502 .0230968
1141.122 .0231463
1141.743 .0232206
1142.365 .0233162
1142.987 .0234071
1143.611 .0234897
1144.235 .0234927
1144.859 .0238877
1145.485 .0241728
