Measurement Sequence started on: 10-20-44-796
Integration time: 35
Scans to Average: 2 
>>>>>Begin Spectral Data<<<<<
432.953 .0396876
433.882 .0352070
434.810 .0378946
435.737 .0379059
436.662 .0384607
437.586 .0381774
438.509 .0382327
439.431 .0383688
440.351 .0383828
441.269 .0383696
442.187 .0383254
443.103 .0382777
444.018 .0382037
444.932 .0381464
445.844 .0380854
446.756 .0380451
447.666 .0380202
448.575 .0380082
449.482 .0380156
450.388 .0380317
451.294 .0380452
452.198 .0380446
453.100 .0380290
454.002 .0379966
454.902 .0379429
455.801 .0378843
456.699 .0378258
457.596 .0377763
458.492 .0377353
459.387 .0376987
460.280 .0376721
461.172 .0376503
462.064 .0376279
462.954 .0375964
463.843 .0375624
464.730 .0375231
465.617 .0374851
466.503 .0374484
467.387 .0374101
468.271 .0373709
469.153 .0373333
470.035 .0372906
470.915 .0372385
471.794 .0371777
472.673 .0371126
473.550 .0370417
474.426 .0369772
475.301 .0369147
476.175 .0368611
477.048 .0368146
477.920 .0367752
478.791 .0367381
479.661 .0367003
480.530 .0366600
481.398 .0366182
482.266 .0365799
483.132 .0365495
483.997 .0365236
484.861 .0365103
485.724 .0365114
486.587 .0365209
487.448 .0365311
488.308 .0365368
489.168 .0365348
490.026 .0365233
490.884 .0364995
491.741 .0364671
492.597 .0364305
493.452 .0363916
494.306 .0363543
495.159 .0363161
496.011 .0362774
496.862 .0362354
497.713 .0361846
498.562 .0361251
499.411 .0360530
500.259 .0359687
501.106 .0358780
501.952 .0357841
502.798 .0356945
503.642 .0356031
504.486 .0355133
505.329 .0354234
506.171 .0353257
507.012 .0352199
507.852 .0351039
508.692 .0349801
509.531 .0348486
510.369 .0347125
511.206 .0345782
512.043 .0344476
512.878 .0343208
513.713 .0341975
514.547 .0340751
515.381 .0339530
516.213 .0338250
517.045 .0336876
517.876 .0335463
518.706 .0334090
519.536 .0332765
520.365 .0331546
521.193 .0330470
522.020 .0329566
522.847 .0328763
523.673 .0328068
524.498 .0327437
525.323 .0326758
526.146 .0326064
526.969 .0325328
527.792 .0324547
528.614 .0323753
529.435 .0322961
530.255 .0322207
531.075 .0321506
531.894 .0320832
532.712 .0320065
533.530 .0319157
534.347 .0318178
535.163 .0316990
535.979 .0315639
536.794 .0314137
537.608 .0312590
538.422 .0311015
539.235 .0309514
540.048 .0308090
540.860 .0306821
541.671 .0305760
542.481 .0304903
543.292 .0304130
544.101 .0303497
544.910 .0303009
545.718 .0302694
546.526 .0302496
547.333 .0302520
548.139 .0302674
548.945 .0302989
549.750 .0303399
550.555 .0303892
551.359 .0304350
552.162 .0304787
552.965 .0305177
553.768 .0305475
554.569 .0305774
555.371 .0306074
556.171 .0306370
556.972 .0306755
557.771 .0307217
558.570 .0307729
559.369 .0308261
560.167 .0308847
560.964 .0309427
561.761 .0309983
562.558 .0310567
563.354 .0311178
564.149 .0311842
564.944 .0312584
565.738 .0313362
566.532 .0314144
567.325 .0314931
568.118 .0315656
568.910 .0316339
569.702 .0316977
570.494 .0317578
571.285 .0318137
572.075 .0318691
572.865 .0319283
573.654 .0319886
574.443 .0320495
575.232 .0321132
576.020 .0321750
576.807 .0322357
577.594 .0322939
578.381 .0323506
579.167 .0324066
579.952 .0324652
580.738 .0325238
581.522 .0325813
582.307 .0326363
583.091 .0326888
583.874 .0327365
584.657 .0327796
585.440 .0328184
586.222 .0328517
587.004 .0328818
587.785 .0329120
588.566 .0329407
589.346 .0329685
590.126 .0329943
590.906 .0330165
591.685 .0330354
592.464 .0330478
593.242 .0330526
594.020 .0330510
594.797 .0330455
595.575 .0330364
596.351 .0330240
597.128 .0330104
597.904 .0329961
598.679 .0329818
599.454 .0329671
600.229 .0329515
601.004 .0329348
601.778 .0329173
602.551 .0328979
603.325 .0328770
604.097 .0328549
604.870 .0328317
605.642 .0328092
606.414 .0327884
607.185 .0327698
607.956 .0327537
608.727 .0327399
609.497 .0327284
610.267 .0327186
611.037 .0327100
611.806 .0327009
612.575 .0326914
613.344 .0326811
614.112 .0326690
614.880 .0326550
615.647 .0326383
616.414 .0326188
617.181 .0325973
617.948 .0325733
618.714 .0325471
619.480 .0325190
620.245 .0324906
621.011 .0324613
621.775 .0324315
622.540 .0324011
623.304 .0323697
624.068 .0323377
624.832 .0323053
625.595 .0322720
626.358 .0322396
627.120 .0322081
627.883 .0321775
628.645 .0321494
629.406 .0321239
630.168 .0321005
630.929 .0320797
631.689 .0320603
632.450 .0320415
633.210 .0320219
633.970 .0320015
634.729 .0319796
635.489 .0319569
636.248 .0319339
637.006 .0319100
637.765 .0318862
638.523 .0318629
639.280 .0318384
640.038 .0318130
640.795 .0317870
641.552 .0317600
642.309 .0317321
643.065 .0317041
643.821 .0316768
644.577 .0316510
645.332 .0316271
646.088 .0316049
646.843 .0315838
647.597 .0315642
648.352 .0315449
649.106 .0315255
649.860 .0315060
650.613 .0314860
651.367 .0314660
652.120 .0314468
652.872 .0314283
653.625 .0314110
654.377 .0313953
655.129 .0313806
655.881 .0313664
656.632 .0313523
657.384 .0313377
658.135 .0313229
658.885 .0313081
659.636 .0312930
660.386 .0312775
661.136 .0312621
661.885 .0312467
662.635 .0312313
663.384 .0312164
664.133 .0312013
664.881 .0311855
665.630 .0311697
666.378 .0311543
667.126 .0311389
667.874 .0311237
668.621 .0311092
669.368 .0310947
670.115 .0310803
670.862 .0310650
671.608 .0310492
672.354 .0310333
673.100 .0310175
673.846 .0310018
674.591 .0309864
675.337 .0309722
676.082 .0309582
676.826 .0309445
677.571 .0309313
678.315 .0309176
679.059 .0309031
679.803 .0308882
680.547 .0308728
681.290 .0308569
682.033 .0308400
682.776 .0308221
683.518 .0308039
684.261 .0307847
685.003 .0307644
685.745 .0307427
686.487 .0307203
687.228 .0306975
687.969 .0306734
688.710 .0306488
689.451 .0306241
690.192 .0305996
690.932 .0305746
691.672 .0305485
692.412 .0305224
693.152 .0304959
693.891 .0304697
694.630 .0304447
695.369 .0304212
696.108 .0303996
696.846 .0303802
697.585 .0303626
698.323 .0303467
699.061 .0303319
699.798 .0303174
700.536 .0303029
701.273 .0302879
702.010 .0302720
702.746 .0302554
703.483 .0302387
704.219 .0302223
704.955 .0302054
705.691 .0301888
706.427 .0301719
707.162 .0301545
707.897 .0301362
708.632 .0301161
709.367 .0300948
710.101 .0300720
710.835 .0300480
711.569 .0300233
712.303 .0299989
713.037 .0299757
713.770 .0299541
714.503 .0299343
715.236 .0299165
715.969 .0299001
716.702 .0298853
717.434 .0298712
718.166 .0298573
718.898 .0298434
719.629 .0298296
720.361 .0298161
721.092 .0298029
721.823 .0297894
722.554 .0297757
723.284 .0297617
724.014 .0297466
724.744 .0297294
725.474 .0297102
726.204 .0296895
726.933 .0296673
727.662 .0296438
728.391 .0296200
729.120 .0295961
729.849 .0295733
730.577 .0295516
731.305 .0295301
732.033 .0295092
732.760 .0294885
733.488 .0294676
734.215 .0294463
734.942 .0294246
735.669 .0294029
736.395 .0293821
737.122 .0293620
737.848 .0293427
738.573 .0293241
739.299 .0293063
740.024 .0292886
740.750 .0292709
741.474 .0292529
742.199 .0292339
742.924 .0292141
743.648 .0291941
744.372 .0291734
745.096 .0291533
745.819 .0291337
746.543 .0291148
747.266 .0290977
747.989 .0290821
748.711 .0290675
749.434 .0290543
750.156 .0290430
750.878 .0290326
751.599 .0290230
752.321 .0290145
753.042 .0290073
753.763 .0290008
754.484 .0289953
755.205 .0289904
755.925 .0289854
756.645 .0289803
757.365 .0289745
758.085 .0289676
758.804 .0289599
759.523 .0289507
760.242 .0289401
760.961 .0289279
761.679 .0289147
762.397 .0288999
763.115 .0288841
763.833 .0288678
764.551 .0288507
765.268 .0288324
765.985 .0288132
766.702 .0287934
767.418 .0287729
768.134 .0287523
768.850 .0287318
769.566 .0287118
770.282 .0286925
770.997 .0286745
771.712 .0286579
772.427 .0286425
773.142 .0286289
773.856 .0286159
774.570 .0286037
775.284 .0285917
775.998 .0285793
776.711 .0285668
777.424 .0285543
778.137 .0285412
778.849 .0285274
779.562 .0285132
780.274 .0284985
780.986 .0284833
781.697 .0284680
782.409 .0284527
783.120 .0284378
783.831 .0284236
784.541 .0284102
785.252 .0283973
785.962 .0283859
786.671 .0283752
787.381 .0283649
788.090 .0283553
788.799 .0283456
789.508 .0283352
790.217 .0283244
790.925 .0283126
791.633 .0282998
792.341 .0282862
793.048 .0282718
793.755 .0282565
794.462 .0282405
795.169 .0282242
795.875 .0282075
796.581 .0281907
797.287 .0281742
797.993 .0281574
798.698 .0281406
799.403 .0281237
800.108 .0281069
800.812 .0280904
801.517 .0280745
802.221 .0280598
802.924 .0280465
803.628 .0280352
804.331 .0280262
805.034 .0280189
805.736 .0280129
806.439 .0280077
807.141 .0280024
807.843 .0279963
808.544 .0279889
809.245 .0279801
809.946 .0279702
810.647 .0279592
811.347 .0279474
812.047 .0279353
812.747 .0279229
813.447 .0279104
814.146 .0278976
814.845 .0278850
815.543 .0278718
816.242 .0278584
816.940 .0278449
817.638 .0278311
818.335 .0278177
819.032 .0278045
819.729 .0277912
820.426 .0277784
821.122 .0277658
821.818 .0277529
822.514 .0277400
823.209 .0277273
823.905 .0277143
824.599 .0277006
825.294 .0276867
825.988 .0276722
826.682 .0276570
827.376 .0276414
828.069 .0276255
828.762 .0276088
829.455 .0275921
830.147 .0275745
830.840 .0275564
831.531 .0275381
832.223 .0275195
832.914 .0275006
833.605 .0274822
834.296 .0274645
834.986 .0274472
835.676 .0274303
836.366 .0274149
837.055 .0274001
837.744 .0273859
838.433 .0273719
839.121 .0273578
839.809 .0273436
840.497 .0273296
841.185 .0273155
841.872 .0273026
842.559 .0272904
843.245 .0272794
843.932 .0272696
844.617 .0272610
845.303 .0272533
845.988 .0272459
846.673 .0272388
847.358 .0272315
848.042 .0272234
848.726 .0272150
849.410 .0272058
850.093 .0271967
850.776 .0271877
851.459 .0271789
852.141 .0271704
852.823 .0271624
853.505 .0271542
854.186 .0271461
854.867 .0271377
855.548 .0271288
856.228 .0271194
856.908 .0271097
857.588 .0270995
858.267 .0270885
858.946 .0270779
859.625 .0270676
860.303 .0270572
860.981 .0270472
861.659 .0270374
862.336 .0270272
863.013 .0270163
863.690 .0270046
864.366 .0269918
865.042 .0269778
865.718 .0269631
866.393 .0269475
867.068 .0269321
867.743 .0269167
868.417 .0269010
869.091 .0268848
869.765 .0268692
870.438 .0268534
871.111 .0268373
871.783 .0268216
872.456 .0268067
873.127 .0267922
873.799 .0267785
874.470 .0267654
875.141 .0267532
875.811 .0267419
876.481 .0267309
877.151 .0267200
877.820 .0267100
878.489 .0267002
879.158 .0266911
879.826 .0266828
880.494 .0266754
881.162 .0266679
881.829 .0266600
882.496 .0266519
883.163 .0266428
883.829 .0266333
884.495 .0266233
885.160 .0266136
885.825 .0266050
886.490 .0265977
887.154 .0265920
887.818 .0265882
888.482 .0265856
889.145 .0265835
889.808 .0265815
890.471 .0265789
891.133 .0265757
891.795 .0265719
892.456 .0265680
893.117 .0265649
893.778 .0265621
894.439 .0265599
895.099 .0265580
895.758 .0265563
896.417 .0265540
897.076 .0265506
897.735 .0265461
898.393 .0265401
899.051 .0265334
899.708 .0265256
900.365 .0265170
901.022 .0265083
901.678 .0264993
902.334 .0264905
902.990 .0264819
903.645 .0264738
904.300 .0264662
904.954 .0264593
905.608 .0264534
906.262 .0264476
906.915 .0264426
907.568 .0264373
908.221 .0264319
908.873 .0264262
909.525 .0264200
910.176 .0264131
910.828 .0264062
911.478 .0263991
912.129 .0263916
912.778 .0263839
913.428 .0263754
914.077 .0263658
914.726 .0263550
915.375 .0263429
916.023 .0263296
916.670 .0263153
917.318 .0263010
917.964 .0262863
918.611 .0262721
919.257 .0262585
919.903 .0262449
920.548 .0262318
921.193 .0262189
921.838 .0262065
922.482 .0261945
923.126 .0261832
923.770 .0261728
924.413 .0261632
925.056 .0261544
925.698 .0261462
926.340 .0261378
926.982 .0261293
927.623 .0261203
928.264 .0261111
928.904 .0261013
929.544 .0260913
930.184 .0260810
930.823 .0260702
931.462 .0260592
932.101 .0260473
932.739 .0260341
933.377 .0260198
934.014 .0260038
934.651 .0259868
935.288 .0259687
935.924 .0259507
936.560 .0259331
937.196 .0259167
937.831 .0259012
938.466 .0258860
939.100 .0258713
939.734 .0258566
940.368 .0258412
941.001 .0258252
941.634 .0258086
942.266 .0257911
942.899 .0257733
943.530 .0257556
944.162 .0257378
944.793 .0257209
945.423 .0257041
946.053 .0256870
946.683 .0256697
947.313 .0256519
947.942 .0256333
948.571 .0256138
949.199 .0255941
949.827 .0255732
950.455 .0255523
951.082 .0255319
951.709 .0255119
952.335 .0254928
952.961 .0254748
953.587 .0254579
954.212 .0254418
954.837 .0254267
955.462 .0254124
956.086 .0253994
956.710 .0253883
957.334 .0253781
957.957 .0253689
958.579 .0253605
959.202 .0253525
959.824 .0253436
960.445 .0253339
961.067 .0253232
961.688 .0253113
962.308 .0252994
962.928 .0252877
963.548 .0252762
964.168 .0252655
964.787 .0252551
965.406 .0252447
966.024 .0252335
966.642 .0252213
967.260 .0252071
967.877 .0251920
968.494 .0251755
969.110 .0251583
969.727 .0251411
970.342 .0251255
970.958 .0251114
971.573 .0250995
972.188 .0250890
972.802 .0250797
973.416 .0250713
974.030 .0250633
974.643 .0250552
975.256 .0250476
975.869 .0250401
976.481 .0250331
977.093 .0250264
977.705 .0250208
978.316 .0250153
978.927 .0250108
979.538 .0250064
980.148 .0250017
980.758 .0249966
981.367 .0249918
981.977 .0249868
982.586 .0249824
983.194 .0249785
983.802 .0249750
984.410 .0249716
985.018 .0249682
985.625 .0249642
986.232 .0249594
986.838 .0249541
987.445 .0249486
988.050 .0249425
988.656 .0249370
989.261 .0249318
989.866 .0249268
990.471 .0249227
991.075 .0249189
991.679 .0249148
992.282 .0249099
992.886 .0249041
993.489 .0248969
994.091 .0248889
994.694 .0248809
995.296 .0248730
995.897 .0248659
996.499 .0248600
997.100 .0248546
997.701 .0248500
998.301 .0248464
998.901 .0248432
999.501 .0248410
1000.101 .0248395
1000.700 .0248379
1001.299 .0248365
1001.898 .0248355
1002.496 .0248349
1003.094 .0248342
1003.692 .0248339
1004.289 .0248339
1004.887 .0248336
1005.484 .0248336
1006.080 .0248336
1006.677 .0248331
1007.273 .0248325
1007.868 .0248311
1008.464 .0248284
1009.059 .0248248
1009.654 .0248205
1010.249 .0248159
1010.843 .0248118
1011.437 .0248084
1012.031 .0248047
1012.625 .0248012
1013.218 .0247987
1013.811 .0247968
1014.404 .0247950
1014.997 .0247943
1015.589 .0247941
1016.181 .0247946
1016.773 .0247956
1017.365 .0247969
1017.956 .0247987
1018.547 .0248005
1019.138 .0248017
1019.728 .0248016
1020.319 .0248006
1020.909 .0247992
1021.499 .0247968
1022.088 .0247946
1022.678 .0247920
1023.267 .0247889
1023.856 .0247850
1024.445 .0247801
1025.033 .0247734
1025.621 .0247651
1026.209 .0247559
1026.797 .0247460
1027.385 .0247355
1027.972 .0247258
1028.560 .0247176
1029.147 .0247112
1029.734 .0247066
1030.320 .0247031
1030.907 .0247003
1031.493 .0246980
1032.079 .0246959
1032.665 .0246939
1033.250 .0246927
1033.836 .0246932
1034.421 .0246945
1035.006 .0246972
1035.591 .0247009
1036.176 .0247044
1036.761 .0247075
1037.345 .0247103
1037.929 .0247113
1038.514 .0247106
1039.097 .0247092
1039.681 .0247079
1040.265 .0247078
1040.848 .0247094
1041.432 .0247117
1042.015 .0247148
1042.598 .0247183
1043.181 .0247202
1043.764 .0247203
1044.346 .0247202
1044.929 .0247191
1045.511 .0247180
1046.094 .0247177
1046.676 .0247183
1047.258 .0247196
1047.840 .0247219
1048.422 .0247238
1049.003 .0247235
1049.585 .0247217
1050.166 .0247158
1050.748 .0247072
1051.329 .0246978
1051.910 .0246875
1052.491 .0246767
1053.072 .0246676
1053.653 .0246593
1054.234 .0246507
1054.815 .0246416
1055.396 .0246321
1055.976 .0246212
1056.557 .0246099
1057.138 .0245987
1057.718 .0245884
1058.298 .0245807
1058.879 .0245772
1059.459 .0245758
1060.039 .0245783
1060.620 .0245807
1061.200 .0245817
1061.780 .0245807
1062.360 .0245771
1062.940 .0245700
1063.520 .0245600
1064.101 .0245493
1064.681 .0245383
1065.261 .0245281
1065.841 .0245186
1066.421 .0245095
1067.001 .0245009
1067.581 .0244910
1068.161 .0244785
1068.741 .0244636
1069.321 .0244461
1069.901 .0244263
1070.482 .0244061
1071.062 .0243861
1071.642 .0243668
1072.222 .0243506
1072.803 .0243377
1073.383 .0243287
1073.963 .0243226
1074.544 .0243209
1075.124 .0243214
1075.705 .0243244
1076.286 .0243297
1076.866 .0243376
1077.447 .0243480
1078.028 .0243609
1078.609 .0243751
1079.190 .0243917
1079.771 .0244095
1080.352 .0244275
1080.934 .0244444
1081.515 .0244609
1082.097 .0244766
1082.679 .0244900
1083.260 .0245007
1083.842 .0245111
1084.424 .0245196
1085.007 .0245270
1085.589 .0245326
1086.172 .0245364
1086.754 .0245361
1087.337 .0245317
1087.920 .0245242
1088.503 .0245132
1089.087 .0245000
1089.670 .0244871
1090.254 .0244759
1090.838 .0244672
1091.422 .0244620
1092.006 .0244586
1092.590 .0244566
1093.175 .0244552
1093.760 .0244515
1094.345 .0244429
1094.930 .0244300
1095.516 .0244129
1096.102 .0243933
1096.688 .0243736
1097.274 .0243557
1097.860 .0243386
1098.447 .0243235
1099.034 .0243101
1099.622 .0242960
1100.209 .0242826
1100.797 .0242713
1101.385 .0242613
1101.973 .0242544
1102.562 .0242512
1103.151 .0242522
1103.740 .0242548
1104.330 .0242600
1104.920 .0242666
1105.510 .0242734
1106.101 .0242807
1106.691 .0242866
1107.283 .0242932
1107.874 .0243039
1108.466 .0243202
1109.058 .0243400
1109.651 .0243638
1110.244 .0243886
1110.837 .0244086
1111.431 .0244233
1112.025 .0244309
1112.620 .0244312
1113.215 .0244271
1113.810 .0244228
1114.406 .0244226
1115.002 .0244256
1115.599 .0244357
1116.196 .0244483
1116.793 .0244639
1117.391 .0244784
1117.989 .0244835
1118.588 .0244791
1119.187 .0244670
1119.787 .0244470
1120.387 .0244231
1120.988 .0243992
1121.589 .0243780
1122.190 .0243610
1122.793 .0243482
1123.395 .0243352
1123.998 .0243243
1124.602 .0243129
1125.206 .0243037
1125.811 .0242937
1126.416 .0242861
1127.022 .0242785
1127.628 .0242744
1128.235 .0242765
1128.843 .0242848
1129.451 .0243004
1130.059 .0243241
1130.669 .0243567
1131.278 .0244010
1131.889 .0244489
1132.500 .0245021
1133.112 .0245569
1133.724 .0246127
1134.337 .0246653
1134.950 .0247141
1135.564 .0247562
1136.179 .0248015
1136.795 .0248528
1137.411 .0249114
1138.028 .0249789
1138.645 .0250586
1139.263 .0251471
1139.882 .0252339
1140.502 .0253309
1141.122 .0254334
1141.743 .0255447
1142.365 .0256626
1142.987 .0255091
1143.611 .0259576
1144.235 .0261157
1144.859 .0263148
1145.485 .0263200
