Measurement Sequence started on: 10-20-44-796
Integration time: 35
Scans to Average: 2 
>>>>>Begin Spectral Data<<<<<
432.953 .0497055
433.882 .0351412
434.810 .0304603
435.737 .0314149
436.662 .0315619
437.586 .0329161
438.509 .0324001
439.431 .0324726
440.351 .0326637
441.269 .0327819
442.187 .0328663
443.103 .0329232
444.018 .0329536
444.932 .0329598
445.844 .0329499
446.756 .0329303
447.666 .0328896
448.575 .0328236
449.482 .0327463
450.388 .0326671
451.294 .0326040
452.198 .0325509
453.100 .0325165
454.002 .0325080
454.902 .0325204
455.801 .0325388
456.699 .0325622
457.596 .0325858
458.492 .0326044
459.387 .0326113
460.280 .0326102
461.172 .0325956
462.064 .0325780
462.954 .0325478
463.843 .0325068
464.730 .0324588
465.617 .0324011
466.503 .0323345
467.387 .0322606
468.271 .0321774
469.153 .0320887
470.035 .0319950
470.915 .0319045
471.794 .0318164
472.673 .0317379
473.550 .0316699
474.426 .0316122
475.301 .0315683
476.175 .0315356
477.048 .0315084
477.920 .0314921
478.791 .0314801
479.661 .0314719
480.530 .0314655
481.398 .0314607
482.266 .0314565
483.132 .0314560
483.997 .0314566
484.861 .0314573
485.724 .0314604
486.587 .0314658
487.448 .0314660
488.308 .0314618
489.168 .0314537
490.026 .0314390
490.884 .0314204
491.741 .0313971
492.597 .0313673
493.452 .0313369
494.306 .0313041
495.159 .0312691
496.011 .0312297
496.862 .0311906
497.713 .0311476
498.562 .0310990
499.411 .0310450
500.259 .0309826
501.106 .0309118
501.952 .0308344
502.798 .0307496
503.642 .0306588
504.486 .0305652
505.329 .0304689
506.171 .0303717
507.012 .0302760
507.852 .0301802
508.692 .0300851
509.531 .0299884
510.369 .0298897
511.206 .0297845
512.043 .0296710
512.878 .0295491
513.713 .0294186
514.547 .0292796
515.381 .0291333
516.213 .0289799
517.045 .0288193
517.876 .0286531
518.706 .0284751
519.536 .0282889
520.365 .0280934
521.193 .0278922
522.020 .0276854
522.847 .0274736
523.673 .0272601
524.498 .0270460
525.323 .0268359
526.146 .0266340
526.969 .0264423
527.792 .0262675
528.614 .0261042
529.435 .0259597
530.255 .0258314
531.075 .0257169
531.894 .0256143
532.712 .0255238
533.530 .0254400
534.347 .0253676
535.163 .0253005
535.979 .0252496
536.794 .0252210
537.608 .0252169
538.422 .0252356
539.235 .0252772
540.048 .0253354
540.860 .0254035
541.671 .0254710
542.481 .0255387
543.292 .0255944
544.101 .0256487
544.910 .0257011
545.718 .0257543
546.526 .0258161
547.333 .0258915
548.139 .0259738
548.945 .0260612
549.750 .0261428
550.555 .0262132
551.359 .0262642
552.162 .0262973
552.965 .0263081
553.768 .0263025
554.569 .0262921
555.371 .0262818
556.171 .0262768
556.972 .0262875
557.771 .0263121
558.570 .0263483
559.369 .0263961
560.167 .0264478
560.964 .0265000
561.761 .0265494
562.558 .0265944
563.354 .0266352
564.149 .0266726
564.944 .0267125
565.738 .0267596
566.532 .0268170
567.325 .0268870
568.118 .0269686
568.910 .0270638
569.702 .0271667
570.494 .0272734
571.285 .0273782
572.075 .0274827
572.865 .0275813
573.654 .0276735
574.443 .0277589
575.232 .0278414
576.020 .0279233
576.807 .0280054
577.594 .0280889
578.381 .0281747
579.167 .0282595
579.952 .0283427
580.738 .0284214
581.522 .0284965
582.307 .0285644
583.091 .0286269
583.874 .0286835
584.657 .0287340
585.440 .0287784
586.222 .0288173
587.004 .0288513
587.785 .0288824
588.566 .0289097
589.346 .0289338
590.126 .0289556
590.906 .0289755
591.685 .0289939
592.464 .0290106
593.242 .0290258
594.020 .0290391
594.797 .0290508
595.575 .0290607
596.351 .0290687
597.128 .0290754
597.904 .0290799
598.679 .0290826
599.454 .0290832
600.229 .0290818
601.004 .0290783
601.778 .0290730
602.551 .0290662
603.325 .0290573
604.097 .0290465
604.870 .0290333
605.642 .0290185
606.414 .0290021
607.185 .0289839
607.956 .0289640
608.727 .0289431
609.497 .0289215
610.267 .0289001
611.037 .0288794
611.806 .0288606
612.575 .0288433
613.344 .0288274
614.112 .0288125
614.880 .0287982
615.647 .0287835
616.414 .0287685
617.181 .0287529
617.948 .0287370
618.714 .0287207
619.480 .0287051
620.245 .0286903
621.011 .0286767
621.775 .0286645
622.540 .0286531
623.304 .0286424
624.068 .0286326
624.832 .0286226
625.595 .0286128
626.358 .0286035
627.120 .0285943
627.883 .0285845
628.645 .0285745
629.406 .0285639
630.168 .0285531
630.929 .0285423
631.689 .0285316
632.450 .0285202
633.210 .0285087
633.970 .0284970
634.729 .0284846
635.489 .0284712
636.248 .0284558
637.006 .0284383
637.765 .0284184
638.523 .0283963
639.280 .0283725
640.038 .0283478
640.795 .0283242
641.552 .0283013
642.309 .0282801
643.065 .0282608
643.821 .0282432
644.577 .0282273
645.332 .0282126
646.088 .0281985
646.843 .0281840
647.597 .0281700
648.352 .0281563
649.106 .0281436
649.860 .0281321
650.613 .0281218
651.367 .0281125
652.120 .0281043
652.872 .0280957
653.625 .0280858
654.377 .0280753
655.129 .0280631
655.881 .0280488
656.632 .0280327
657.384 .0280147
658.135 .0279955
658.885 .0279756
659.636 .0279557
660.386 .0279357
661.136 .0279168
661.885 .0278994
662.635 .0278832
663.384 .0278688
664.133 .0278560
664.881 .0278441
665.630 .0278335
666.378 .0278240
667.126 .0278147
667.874 .0278059
668.621 .0277974
669.368 .0277885
670.115 .0277790
670.862 .0277695
671.608 .0277597
672.354 .0277494
673.100 .0277387
673.846 .0277272
674.591 .0277144
675.337 .0277017
676.082 .0276885
676.826 .0276752
677.571 .0276621
678.315 .0276492
679.059 .0276366
679.803 .0276245
680.547 .0276132
681.290 .0276019
682.033 .0275905
682.776 .0275785
683.518 .0275650
684.261 .0275507
685.003 .0275360
685.745 .0275209
686.487 .0275060
687.228 .0274914
687.969 .0274766
688.710 .0274617
689.451 .0274466
690.192 .0274312
690.932 .0274147
691.672 .0273972
692.412 .0273788
693.152 .0273595
693.891 .0273400
694.630 .0273211
695.369 .0273031
696.108 .0272870
696.846 .0272716
697.585 .0272567
698.323 .0272420
699.061 .0272272
699.798 .0272116
700.536 .0271948
701.273 .0271773
702.010 .0271595
702.746 .0271417
703.483 .0271250
704.219 .0271096
704.955 .0270958
705.691 .0270831
706.427 .0270707
707.162 .0270585
707.897 .0270459
708.632 .0270322
709.367 .0270177
710.101 .0270021
710.835 .0269857
711.569 .0269684
712.303 .0269507
713.037 .0269330
713.770 .0269148
714.503 .0268964
715.236 .0268769
715.969 .0268568
716.702 .0268360
717.434 .0268142
718.166 .0267924
718.898 .0267706
719.629 .0267494
720.361 .0267296
721.092 .0267112
721.823 .0266941
722.554 .0266787
723.284 .0266647
724.014 .0266511
724.744 .0266376
725.474 .0266238
726.204 .0266091
726.933 .0265937
727.662 .0265779
728.391 .0265614
729.120 .0265448
729.849 .0265287
730.577 .0265127
731.305 .0264971
732.033 .0264817
732.760 .0264662
733.488 .0264499
734.215 .0264333
734.942 .0264159
735.669 .0263978
736.395 .0263796
737.122 .0263620
737.848 .0263449
738.573 .0263294
739.299 .0263146
740.024 .0263010
740.750 .0262883
741.474 .0262767
742.199 .0262653
742.924 .0262541
743.648 .0262431
744.372 .0262320
745.096 .0262208
745.819 .0262097
746.543 .0261982
747.266 .0261873
747.989 .0261768
748.711 .0261670
749.434 .0261578
750.156 .0261496
750.878 .0261422
751.599 .0261360
752.321 .0261304
753.042 .0261252
753.763 .0261199
754.484 .0261143
755.205 .0261085
755.925 .0261024
756.645 .0260958
757.365 .0260889
758.085 .0260822
758.804 .0260753
759.523 .0260674
760.242 .0260584
760.961 .0260482
761.679 .0260364
762.397 .0260229
763.115 .0260077
763.833 .0259912
764.551 .0259739
765.268 .0259560
765.985 .0259375
766.702 .0259189
767.418 .0258999
768.134 .0258801
768.850 .0258594
769.566 .0258381
770.282 .0258158
770.997 .0257935
771.712 .0257717
772.427 .0257508
773.142 .0257311
773.856 .0257125
774.570 .0256947
775.284 .0256777
775.998 .0256610
776.711 .0256444
777.424 .0256277
778.137 .0256116
778.849 .0255957
779.562 .0255807
780.274 .0255672
780.986 .0255550
781.697 .0255437
782.409 .0255332
783.120 .0255232
783.831 .0255134
784.541 .0255037
785.252 .0254939
785.962 .0254844
786.671 .0254751
787.381 .0254662
788.090 .0254574
788.799 .0254487
789.508 .0254401
790.217 .0254308
790.925 .0254208
791.633 .0254104
792.341 .0253991
793.048 .0253873
793.755 .0253751
794.462 .0253626
795.169 .0253495
795.875 .0253363
796.581 .0253225
797.287 .0253082
797.993 .0252935
798.698 .0252787
799.403 .0252637
800.108 .0252487
800.812 .0252337
801.517 .0252185
802.221 .0252036
802.924 .0251889
803.628 .0251744
804.331 .0251605
805.034 .0251472
805.736 .0251348
806.439 .0251231
807.141 .0251128
807.843 .0251038
808.544 .0250959
809.245 .0250888
809.946 .0250816
810.647 .0250746
811.347 .0250671
812.047 .0250596
812.747 .0250520
813.447 .0250443
814.146 .0250365
814.845 .0250291
815.543 .0250215
816.242 .0250139
816.940 .0250060
817.638 .0249972
818.335 .0249875
819.032 .0249763
819.729 .0249634
820.426 .0249495
821.122 .0249344
821.818 .0249184
822.514 .0249016
823.209 .0248847
823.905 .0248676
824.599 .0248501
825.294 .0248330
825.988 .0248157
826.682 .0247978
827.376 .0247798
828.069 .0247614
828.762 .0247427
829.455 .0247240
830.147 .0247055
830.840 .0246872
831.531 .0246696
832.223 .0246528
832.914 .0246368
833.605 .0246217
834.296 .0246080
834.986 .0245955
835.676 .0245838
836.366 .0245733
837.055 .0245636
837.744 .0245540
838.433 .0245448
839.121 .0245357
839.809 .0245263
840.497 .0245168
841.185 .0245073
841.872 .0244976
842.559 .0244883
843.245 .0244791
843.932 .0244700
844.617 .0244609
845.303 .0244522
845.988 .0244432
846.673 .0244338
847.358 .0244241
848.042 .0244138
848.726 .0244029
849.410 .0243914
850.093 .0243787
850.776 .0243656
851.459 .0243520
852.141 .0243381
852.823 .0243244
853.505 .0243115
854.186 .0242989
854.867 .0242869
855.548 .0242755
856.228 .0242644
856.908 .0242532
857.588 .0242420
858.267 .0242303
858.946 .0242183
859.625 .0242059
860.303 .0241930
860.981 .0241807
861.659 .0241693
862.336 .0241582
863.013 .0241476
863.690 .0241376
864.366 .0241278
865.042 .0241175
865.718 .0241070
866.393 .0240960
867.068 .0240845
867.743 .0240730
868.417 .0240611
869.091 .0240492
869.765 .0240376
870.438 .0240260
871.111 .0240149
871.783 .0240047
872.456 .0239955
873.127 .0239878
873.799 .0239817
874.470 .0239773
875.141 .0239741
875.811 .0239720
876.481 .0239704
877.151 .0239690
877.820 .0239673
878.489 .0239652
879.158 .0239625
879.826 .0239595
880.494 .0239559
881.162 .0239521
881.829 .0239476
882.496 .0239421
883.163 .0239354
883.829 .0239277
884.495 .0239184
885.160 .0239083
885.825 .0238976
886.490 .0238870
887.154 .0238767
887.818 .0238672
888.482 .0238584
889.145 .0238504
889.808 .0238430
890.471 .0238360
891.133 .0238294
891.795 .0238233
892.456 .0238176
893.117 .0238127
893.778 .0238089
894.439 .0238063
895.099 .0238038
895.758 .0238014
896.417 .0237981
897.076 .0237933
897.735 .0237866
898.393 .0237782
899.051 .0237688
899.708 .0237588
900.365 .0237491
901.022 .0237401
901.678 .0237323
902.334 .0237260
902.990 .0237204
903.645 .0237157
904.300 .0237111
904.954 .0237064
905.608 .0237014
906.262 .0236962
906.915 .0236915
907.568 .0236871
908.221 .0236836
908.873 .0236809
909.525 .0236790
910.176 .0236779
910.828 .0236769
911.478 .0236755
912.129 .0236735
912.778 .0236703
913.428 .0236658
914.077 .0236599
914.726 .0236523
915.375 .0236437
916.023 .0236344
916.670 .0236248
917.318 .0236149
917.964 .0236050
918.611 .0235957
919.257 .0235865
919.903 .0235773
920.548 .0235679
921.193 .0235585
921.838 .0235495
922.482 .0235406
923.126 .0235327
923.770 .0235255
924.413 .0235195
925.056 .0235149
925.698 .0235115
926.340 .0235088
926.982 .0235068
927.623 .0235044
928.264 .0235019
928.904 .0234988
929.544 .0234950
930.184 .0234904
930.823 .0234854
931.462 .0234796
932.101 .0234728
932.739 .0234644
933.377 .0234548
934.014 .0234430
934.651 .0234295
935.288 .0234143
935.924 .0233981
936.560 .0233812
937.196 .0233647
937.831 .0233487
938.466 .0233335
939.100 .0233188
939.734 .0233049
940.368 .0232909
941.001 .0232767
941.634 .0232623
942.266 .0232477
942.899 .0232329
943.530 .0232186
944.162 .0232043
944.793 .0231905
945.423 .0231772
946.053 .0231636
946.683 .0231497
947.313 .0231354
947.942 .0231204
948.571 .0231040
949.199 .0230868
949.827 .0230691
950.455 .0230503
951.082 .0230317
951.709 .0230133
952.335 .0229950
952.961 .0229776
953.587 .0229608
954.212 .0229444
954.837 .0229285
955.462 .0229132
956.086 .0228982
956.710 .0228837
957.334 .0228697
957.957 .0228558
958.579 .0228422
959.202 .0228290
959.824 .0228161
960.445 .0228040
961.067 .0227928
961.688 .0227826
962.308 .0227734
962.928 .0227651
963.548 .0227572
964.168 .0227494
964.787 .0227412
965.406 .0227325
966.024 .0227231
966.642 .0227130
967.260 .0227024
967.877 .0226917
968.494 .0226818
969.110 .0226719
969.727 .0226622
970.342 .0226524
970.958 .0226422
971.573 .0226312
972.188 .0226192
972.802 .0226067
973.416 .0225941
974.030 .0225815
974.643 .0225696
975.256 .0225588
975.869 .0225496
976.481 .0225417
977.093 .0225352
977.705 .0225297
978.316 .0225250
978.927 .0225206
979.538 .0225162
980.148 .0225118
980.758 .0225073
981.367 .0225026
981.977 .0224980
982.586 .0224937
983.194 .0224895
983.802 .0224847
984.410 .0224795
985.018 .0224742
985.625 .0224685
986.232 .0224622
986.838 .0224557
987.445 .0224491
988.050 .0224426
988.656 .0224360
989.261 .0224288
989.866 .0224211
990.471 .0224132
991.075 .0224047
991.679 .0223953
992.282 .0223860
992.886 .0223772
993.489 .0223687
994.091 .0223613
994.694 .0223550
995.296 .0223487
995.897 .0223426
996.499 .0223357
997.100 .0223275
997.701 .0223184
998.301 .0223087
998.901 .0222985
999.501 .0222891
1000.101 .0222812
1000.700 .0222749
1001.299 .0222702
1001.898 .0222677
1002.496 .0222664
1003.094 .0222657
1003.692 .0222657
1004.289 .0222655
1004.887 .0222653
1005.484 .0222659
1006.080 .0222666
1006.677 .0222679
1007.273 .0222694
1007.868 .0222710
1008.464 .0222723
1009.059 .0222736
1009.654 .0222747
1010.249 .0222756
1010.843 .0222768
1011.437 .0222785
1012.031 .0222806
1012.625 .0222831
1013.218 .0222855
1013.811 .0222877
1014.404 .0222897
1014.997 .0222909
1015.589 .0222909
1016.181 .0222907
1016.773 .0222901
1017.365 .0222902
1017.956 .0222903
1018.547 .0222907
1019.138 .0222916
1019.728 .0222933
1020.319 .0222954
1020.909 .0222979
1021.499 .0223008
1022.088 .0223042
1022.678 .0223063
1023.267 .0223080
1023.856 .0223078
1024.445 .0223064
1025.033 .0223031
1025.621 .0222980
1026.209 .0222917
1026.797 .0222852
1027.385 .0222794
1027.972 .0222750
1028.560 .0222718
1029.147 .0222709
1029.734 .0222705
1030.320 .0222710
1030.907 .0222706
1031.493 .0222695
1032.079 .0222674
1032.665 .0222661
1033.250 .0222643
1033.836 .0222640
1034.421 .0222652
1035.006 .0222689
1035.591 .0222749
1036.176 .0222821
1036.761 .0222901
1037.345 .0222981
1037.929 .0223045
1038.514 .0223091
1039.097 .0223109
1039.681 .0223116
1040.265 .0223101
1040.848 .0223081
1041.432 .0223059
1042.015 .0223033
1042.598 .0223012
1043.181 .0223003
1043.764 .0222998
1044.346 .0222993
1044.929 .0222984
1045.511 .0222965
1046.094 .0222941
1046.676 .0222912
1047.258 .0222876
1047.840 .0222842
1048.422 .0222826
1049.003 .0222820
1049.585 .0222820
1050.166 .0222825
1050.748 .0222841
1051.329 .0222843
1051.910 .0222841
1052.491 .0222829
1053.072 .0222807
1053.653 .0222781
1054.234 .0222758
1054.815 .0222744
1055.396 .0222743
1055.976 .0222751
1056.557 .0222757
1057.138 .0222751
1057.718 .0222736
1058.298 .0222691
1058.879 .0222630
1059.459 .0222565
1060.039 .0222505
1060.620 .0222437
1061.200 .0222378
1061.780 .0222322
1062.360 .0222252
1062.940 .0222176
1063.520 .0222078
1064.101 .0221963
1064.681 .0221835
1065.261 .0221700
1065.841 .0221565
1066.421 .0221456
1067.001 .0221382
1067.581 .0221326
1068.161 .0221300
1068.741 .0221298
1069.321 .0221294
1069.901 .0221291
1070.482 .0221292
1071.062 .0221292
1071.642 .0221284
1072.222 .0221276
1072.803 .0221254
1073.383 .0221239
1073.963 .0221221
1074.544 .0221205
1075.124 .0221194
1075.705 .0221187
1076.286 .0221178
1076.866 .0221170
1077.447 .0221170
1078.028 .0221172
1078.609 .0221164
1079.190 .0221151
1079.771 .0221126
1080.352 .0221099
1080.934 .0221060
1081.515 .0221025
1082.097 .0221009
1082.679 .0221003
1083.260 .0221001
1083.842 .0221014
1084.424 .0221032
1085.007 .0221046
1085.589 .0221046
1086.172 .0221031
1086.754 .0221002
1087.337 .0220975
1087.920 .0220965
1088.503 .0220988
1089.087 .0221030
1089.670 .0221109
1090.254 .0221189
1090.838 .0221281
1091.422 .0221382
1092.006 .0221471
1092.590 .0221559
1093.175 .0221651
1093.760 .0221745
1094.345 .0221851
1094.930 .0221949
1095.516 .0222079
1096.102 .0222194
1096.688 .0222288
1097.274 .0222332
1097.860 .0222306
1098.447 .0222212
1099.034 .0222071
1099.622 .0221867
1100.209 .0221633
1100.797 .0221386
1101.385 .0221151
1101.973 .0220931
1102.562 .0220760
1103.151 .0220634
1103.740 .0220560
1104.330 .0220526
1104.920 .0220543
1105.510 .0220565
1106.101 .0220627
1106.691 .0220709
1107.283 .0220822
1107.874 .0220957
1108.466 .0221106
1109.058 .0221253
1109.651 .0221413
1110.244 .0221562
1110.837 .0221698
1111.431 .0221784
1112.025 .0221825
1112.620 .0221799
1113.215 .0221719
1113.810 .0221585
1114.406 .0221412
1115.002 .0221221
1115.599 .0221052
1116.196 .0220907
1116.793 .0220807
1117.391 .0220747
1117.989 .0220744
1118.588 .0220777
1119.187 .0220828
1119.787 .0220871
1120.387 .0220898
1120.988 .0220940
1121.589 .0220984
1122.190 .0221047
1122.793 .0221140
1123.395 .0221268
1123.998 .0221444
1124.602 .0221650
1125.206 .0221858
1125.811 .0222038
1126.416 .0222191
1127.022 .0222302
1127.628 .0222357
1128.235 .0222381
1128.843 .0222392
1129.451 .0222416
1130.059 .0222475
1130.669 .0222602
1131.278 .0222765
1131.889 .0222988
1132.500 .0223216
1133.112 .0223454
1133.724 .0223688
1134.337 .0223877
1134.950 .0224054
1135.564 .0224248
1136.179 .0224489
1136.795 .0224770
1137.411 .0225144
1138.028 .0225620
1138.645 .0226197
1139.263 .0226883
1139.882 .0227590
1140.502 .0228471
1141.122 .0229428
1141.743 .0230504
1142.365 .0231707
1142.987 .0231252
1143.611 .0235806
1144.235 .0235367
1144.859 .0237640
1145.485 .0239540
