Measurement Sequence started on: 10-20-44-796
Integration time: 35
Scans to Average: 2 
>>>>>Begin Spectral Data<<<<<
432.953 .0276294
433.882 .0372228
434.810 .0346579
435.737 .0330488
436.662 .0316089
437.586 .0325400
438.509 .0325377
439.431 .0323202
440.351 .0322585
441.269 .0322640
442.187 .0322911
443.103 .0322952
444.018 .0322878
444.932 .0322763
445.844 .0322612
446.756 .0322418
447.666 .0322402
448.575 .0322306
449.482 .0322239
450.388 .0321973
451.294 .0321611
452.198 .0321161
453.100 .0320696
454.002 .0320269
454.902 .0319957
455.801 .0319637
456.699 .0319417
457.596 .0319202
458.492 .0319032
459.387 .0318763
460.280 .0318505
461.172 .0318131
462.064 .0317733
462.954 .0317198
463.843 .0316655
464.730 .0316116
465.617 .0315628
466.503 .0315166
467.387 .0314746
468.271 .0314296
469.153 .0313865
470.035 .0313395
470.915 .0312940
471.794 .0312452
472.673 .0312011
473.550 .0311600
474.426 .0311273
475.301 .0311001
476.175 .0310846
477.048 .0310752
477.920 .0310743
478.791 .0310735
479.661 .0310716
480.530 .0310677
481.398 .0310597
482.266 .0310463
483.132 .0310345
483.997 .0310209
484.861 .0310105
485.724 .0310039
486.587 .0310025
487.448 .0310019
488.308 .0310024
489.168 .0310014
490.026 .0309979
490.884 .0309893
491.741 .0309745
492.597 .0309542
493.452 .0309334
494.306 .0309109
495.159 .0308882
496.011 .0308663
496.862 .0308448
497.713 .0308184
498.562 .0307839
499.411 .0307413
500.259 .0306885
501.106 .0306266
501.952 .0305596
502.798 .0304880
503.642 .0304159
504.486 .0303421
505.329 .0302687
506.171 .0301943
507.012 .0301163
507.852 .0300332
508.692 .0299445
509.531 .0298510
510.369 .0297544
511.206 .0296577
512.043 .0295665
512.878 .0294809
513.713 .0293996
514.547 .0293217
515.381 .0292455
516.213 .0291625
517.045 .0290717
517.876 .0289659
518.706 .0288461
519.536 .0287149
520.365 .0285752
521.193 .0284303
522.020 .0282893
522.847 .0281468
523.673 .0280044
524.498 .0278609
525.323 .0277126
526.146 .0275512
526.969 .0273826
527.792 .0272070
528.614 .0270233
529.435 .0268390
530.255 .0266574
531.075 .0264759
531.894 .0263105
532.712 .0261534
533.530 .0260043
534.347 .0258649
535.163 .0257325
535.979 .0256045
536.794 .0254871
537.608 .0253779
538.422 .0252832
539.235 .0252112
540.048 .0251582
540.860 .0251220
541.671 .0251053
542.481 .0251055
543.292 .0251178
544.101 .0251421
544.910 .0251732
545.718 .0252047
546.526 .0252472
547.333 .0252945
548.139 .0253490
548.945 .0254127
549.750 .0254773
550.555 .0255451
551.359 .0256120
552.162 .0256729
552.965 .0257253
553.768 .0257751
554.569 .0258248
555.371 .0258682
556.171 .0259135
556.972 .0259633
557.771 .0260188
558.570 .0260804
559.369 .0261463
560.167 .0262163
560.964 .0262914
561.761 .0263667
562.558 .0264414
563.354 .0265163
564.149 .0265930
564.944 .0266698
565.738 .0267490
566.532 .0268324
567.325 .0269178
568.118 .0270017
568.910 .0270876
569.702 .0271721
570.494 .0272546
571.285 .0273329
572.075 .0274102
572.865 .0274836
573.654 .0275512
574.443 .0276118
575.232 .0276683
576.020 .0277218
576.807 .0277746
577.594 .0278263
578.381 .0278828
579.167 .0279435
579.952 .0280076
580.738 .0280740
581.522 .0281430
582.307 .0282111
583.091 .0282769
583.874 .0283385
584.657 .0283961
585.440 .0284492
586.222 .0284983
587.004 .0285451
587.785 .0285907
588.566 .0286348
589.346 .0286764
590.126 .0287148
590.906 .0287499
591.685 .0287796
592.464 .0288023
593.242 .0288189
594.020 .0288289
594.797 .0288330
595.575 .0288318
596.351 .0288272
597.128 .0288192
597.904 .0288087
598.679 .0287971
599.454 .0287848
600.229 .0287716
601.004 .0287586
601.778 .0287452
602.551 .0287323
603.325 .0287195
604.097 .0287059
604.870 .0286916
605.642 .0286776
606.414 .0286633
607.185 .0286483
607.956 .0286343
608.727 .0286222
609.497 .0286115
610.267 .0286029
611.037 .0285957
611.806 .0285893
612.575 .0285835
613.344 .0285771
614.112 .0285694
614.880 .0285612
615.647 .0285519
616.414 .0285415
617.181 .0285308
617.948 .0285206
618.714 .0285099
619.480 .0284995
620.245 .0284898
621.011 .0284796
621.775 .0284686
622.540 .0284563
623.304 .0284426
624.068 .0284281
624.832 .0284123
625.595 .0283962
626.358 .0283805
627.120 .0283658
627.883 .0283516
628.645 .0283382
629.406 .0283259
630.168 .0283140
630.929 .0283016
631.689 .0282891
632.450 .0282763
633.210 .0282635
633.970 .0282512
634.729 .0282393
635.489 .0282279
636.248 .0282163
637.006 .0282040
637.765 .0281905
638.523 .0281750
639.280 .0281579
640.038 .0281386
640.795 .0281180
641.552 .0280968
642.309 .0280749
643.065 .0280540
643.821 .0280343
644.577 .0280155
645.332 .0279976
646.088 .0279802
646.843 .0279626
647.597 .0279444
648.352 .0279266
649.106 .0279095
649.860 .0278933
650.613 .0278787
651.367 .0278654
652.120 .0278533
652.872 .0278422
653.625 .0278318
654.377 .0278219
655.129 .0278123
655.881 .0278019
656.632 .0277906
657.384 .0277794
658.135 .0277680
658.885 .0277564
659.636 .0277453
660.386 .0277340
661.136 .0277223
661.885 .0277098
662.635 .0276972
663.384 .0276844
664.133 .0276722
664.881 .0276602
665.630 .0276477
666.378 .0276353
667.126 .0276224
667.874 .0276089
668.621 .0275948
669.368 .0275796
670.115 .0275629
670.862 .0275445
671.608 .0275254
672.354 .0275054
673.100 .0274857
673.846 .0274673
674.591 .0274499
675.337 .0274336
676.082 .0274181
676.826 .0274034
677.571 .0273891
678.315 .0273755
679.059 .0273619
679.803 .0273479
680.547 .0273343
681.290 .0273208
682.033 .0273078
682.776 .0272951
683.518 .0272827
684.261 .0272702
685.003 .0272573
685.745 .0272434
686.487 .0272280
687.228 .0272115
687.969 .0271934
688.710 .0271742
689.451 .0271537
690.192 .0271328
690.932 .0271119
691.672 .0270914
692.412 .0270722
693.152 .0270541
693.891 .0270369
694.630 .0270207
695.369 .0270055
696.108 .0269910
696.846 .0269764
697.585 .0269618
698.323 .0269473
699.061 .0269333
699.798 .0269199
700.536 .0269072
701.273 .0268959
702.010 .0268860
702.746 .0268764
703.483 .0268669
704.219 .0268573
704.955 .0268467
705.691 .0268344
706.427 .0268205
707.162 .0268051
707.897 .0267885
708.632 .0267713
709.367 .0267546
710.101 .0267390
710.835 .0267253
711.569 .0267127
712.303 .0267012
713.037 .0266912
713.770 .0266818
714.503 .0266721
715.236 .0266620
715.969 .0266517
716.702 .0266410
717.434 .0266303
718.166 .0266203
718.898 .0266111
719.629 .0266031
720.361 .0265963
721.092 .0265900
721.823 .0265839
722.554 .0265772
723.284 .0265688
724.014 .0265585
724.744 .0265462
725.474 .0265314
726.204 .0265145
726.933 .0264966
727.662 .0264779
728.391 .0264586
729.120 .0264389
729.849 .0264189
730.577 .0263992
731.305 .0263798
732.033 .0263606
732.760 .0263418
733.488 .0263239
734.215 .0263063
734.942 .0262890
735.669 .0262722
736.395 .0262561
737.122 .0262402
737.848 .0262245
738.573 .0262092
739.299 .0261941
740.024 .0261802
740.750 .0261671
741.474 .0261552
742.199 .0261441
742.924 .0261334
743.648 .0261226
744.372 .0261114
745.096 .0260998
745.819 .0260871
746.543 .0260740
747.266 .0260607
747.989 .0260473
748.711 .0260348
749.434 .0260233
750.156 .0260133
750.878 .0260049
751.599 .0259976
752.321 .0259912
753.042 .0259858
753.763 .0259809
754.484 .0259760
755.205 .0259712
755.925 .0259666
756.645 .0259614
757.365 .0259559
758.085 .0259493
758.804 .0259417
759.523 .0259327
760.242 .0259223
760.961 .0259096
761.679 .0258953
762.397 .0258796
763.115 .0258625
763.833 .0258439
764.551 .0258240
765.268 .0258027
765.985 .0257805
766.702 .0257570
767.418 .0257328
768.134 .0257079
768.850 .0256833
769.566 .0256592
770.282 .0256363
770.997 .0256148
771.712 .0255950
772.427 .0255765
773.142 .0255590
773.856 .0255421
774.570 .0255255
775.284 .0255085
775.998 .0254913
776.711 .0254741
777.424 .0254568
778.137 .0254395
778.849 .0254224
779.562 .0254056
780.274 .0253887
780.986 .0253714
781.697 .0253538
782.409 .0253359
783.120 .0253180
783.831 .0253006
784.541 .0252836
785.252 .0252676
785.962 .0252528
786.671 .0252390
787.381 .0252260
788.090 .0252139
788.799 .0252018
789.508 .0251897
790.217 .0251774
790.925 .0251648
791.633 .0251517
792.341 .0251389
793.048 .0251261
793.755 .0251132
794.462 .0251000
795.169 .0250863
795.875 .0250720
796.581 .0250576
797.287 .0250431
797.993 .0250288
798.698 .0250149
799.403 .0250015
800.108 .0249886
800.812 .0249764
801.517 .0249645
802.221 .0249529
802.924 .0249417
803.628 .0249305
804.331 .0249196
805.034 .0249089
805.736 .0248989
806.439 .0248901
807.141 .0248822
807.843 .0248746
808.544 .0248667
809.245 .0248584
809.946 .0248490
810.647 .0248383
811.347 .0248265
812.047 .0248137
812.747 .0248006
813.447 .0247873
814.146 .0247738
814.845 .0247611
815.543 .0247490
816.242 .0247368
816.940 .0247247
817.638 .0247123
818.335 .0246992
819.032 .0246857
819.729 .0246721
820.426 .0246588
821.122 .0246454
821.818 .0246322
822.514 .0246190
823.209 .0246057
823.905 .0245926
824.599 .0245789
825.294 .0245651
825.988 .0245514
826.682 .0245374
827.376 .0245231
828.069 .0245091
828.762 .0244953
829.455 .0244813
830.147 .0244674
830.840 .0244535
831.531 .0244400
832.223 .0244272
832.914 .0244150
833.605 .0244038
834.296 .0243934
834.986 .0243841
835.676 .0243749
836.366 .0243663
837.055 .0243579
837.744 .0243497
838.433 .0243414
839.121 .0243337
839.809 .0243264
840.497 .0243200
841.185 .0243147
841.872 .0243106
842.559 .0243072
843.245 .0243046
843.932 .0243022
844.617 .0242999
845.303 .0242974
845.988 .0242948
846.673 .0242918
847.358 .0242891
848.042 .0242868
848.726 .0242846
849.410 .0242827
850.093 .0242810
850.776 .0242795
851.459 .0242774
852.141 .0242740
852.823 .0242695
853.505 .0242637
854.186 .0242567
854.867 .0242489
855.548 .0242406
856.228 .0242326
856.908 .0242250
857.588 .0242181
858.267 .0242120
858.946 .0242064
859.625 .0242009
860.303 .0241947
860.981 .0241883
861.659 .0241813
862.336 .0241734
863.013 .0241657
863.690 .0241588
864.366 .0241524
865.042 .0241465
865.718 .0241413
866.393 .0241369
867.068 .0241327
867.743 .0241284
868.417 .0241231
869.091 .0241172
869.765 .0241106
870.438 .0241034
871.111 .0240956
871.783 .0240883
872.456 .0240806
873.127 .0240729
873.799 .0240656
874.470 .0240583
875.141 .0240510
875.811 .0240446
876.481 .0240388
877.151 .0240337
877.820 .0240289
878.489 .0240248
879.158 .0240210
879.826 .0240183
880.494 .0240153
881.162 .0240123
881.829 .0240097
882.496 .0240068
883.163 .0240034
883.829 .0240004
884.495 .0239977
885.160 .0239951
885.825 .0239931
886.490 .0239914
887.154 .0239894
887.818 .0239873
888.482 .0239848
889.145 .0239814
889.808 .0239775
890.471 .0239728
891.133 .0239674
891.795 .0239620
892.456 .0239565
893.117 .0239506
893.778 .0239450
894.439 .0239396
895.099 .0239337
895.758 .0239273
896.417 .0239202
897.076 .0239124
897.735 .0239040
898.393 .0238950
899.051 .0238856
899.708 .0238766
900.365 .0238679
901.022 .0238594
901.678 .0238518
902.334 .0238450
902.990 .0238389
903.645 .0238335
904.300 .0238289
904.954 .0238248
905.608 .0238209
906.262 .0238173
906.915 .0238143
907.568 .0238118
908.221 .0238095
908.873 .0238073
909.525 .0238051
910.176 .0238024
910.828 .0237989
911.478 .0237948
912.129 .0237897
912.778 .0237833
913.428 .0237751
914.077 .0237653
914.726 .0237540
915.375 .0237420
916.023 .0237292
916.670 .0237164
917.318 .0237045
917.964 .0236931
918.611 .0236819
919.257 .0236713
919.903 .0236607
920.548 .0236497
921.193 .0236385
921.838 .0236269
922.482 .0236150
923.126 .0236031
923.770 .0235912
924.413 .0235797
925.056 .0235689
925.698 .0235592
926.340 .0235502
926.982 .0235418
927.623 .0235342
928.264 .0235261
928.904 .0235174
929.544 .0235082
930.184 .0234973
930.823 .0234849
931.462 .0234713
932.101 .0234561
932.739 .0234400
933.377 .0234237
934.014 .0234075
934.651 .0233916
935.288 .0233764
935.924 .0233619
936.560 .0233469
937.196 .0233319
937.831 .0233167
938.466 .0233009
939.100 .0232851
939.734 .0232688
940.368 .0232525
941.001 .0232368
941.634 .0232220
942.266 .0232082
942.899 .0231956
943.530 .0231838
944.162 .0231721
944.793 .0231595
945.423 .0231458
946.053 .0231301
946.683 .0231123
947.313 .0230921
947.942 .0230695
948.571 .0230447
949.199 .0230184
949.827 .0229909
950.455 .0229634
951.082 .0229360
951.709 .0229095
952.335 .0228833
952.961 .0228575
953.587 .0228316
954.212 .0228049
954.837 .0227773
955.462 .0227491
956.086 .0227209
956.710 .0226937
957.334 .0226684
957.957 .0226463
958.579 .0226272
959.202 .0226115
959.824 .0225982
960.445 .0225863
961.067 .0225748
961.688 .0225627
962.308 .0225492
962.928 .0225347
963.548 .0225195
964.168 .0225039
964.787 .0224884
965.406 .0224733
966.024 .0224591
966.642 .0224449
967.260 .0224307
967.877 .0224161
968.494 .0224009
969.110 .0223852
969.727 .0223690
970.342 .0223529
970.958 .0223369
971.573 .0223217
972.188 .0223077
972.802 .0222953
973.416 .0222846
974.030 .0222753
974.643 .0222673
975.256 .0222606
975.869 .0222552
976.481 .0222505
977.093 .0222466
977.705 .0222437
978.316 .0222410
978.927 .0222379
979.538 .0222339
980.148 .0222283
980.758 .0222208
981.367 .0222118
981.977 .0222010
982.586 .0221891
983.194 .0221766
983.802 .0221639
984.410 .0221511
985.018 .0221391
985.625 .0221275
986.232 .0221162
986.838 .0221053
987.445 .0220945
988.050 .0220838
988.656 .0220731
989.261 .0220629
989.866 .0220525
990.471 .0220433
991.075 .0220353
991.679 .0220283
992.282 .0220235
992.886 .0220203
993.489 .0220190
994.091 .0220190
994.694 .0220201
995.296 .0220213
995.897 .0220221
996.499 .0220225
997.100 .0220216
997.701 .0220202
998.301 .0220183
998.901 .0220160
999.501 .0220139
1000.101 .0220126
1000.700 .0220113
1001.299 .0220095
1001.898 .0220077
1002.496 .0220042
1003.094 .0219995
1003.692 .0219929
1004.289 .0219847
1004.887 .0219755
1005.484 .0219666
1006.080 .0219585
1006.677 .0219516
1007.273 .0219462
1007.868 .0219423
1008.464 .0219398
1009.059 .0219385
1009.654 .0219377
1010.249 .0219375
1010.843 .0219378
1011.437 .0219393
1012.031 .0219412
1012.625 .0219434
1013.218 .0219459
1013.811 .0219491
1014.404 .0219521
1014.997 .0219552
1015.589 .0219584
1016.181 .0219614
1016.773 .0219645
1017.365 .0219685
1017.956 .0219717
1018.547 .0219749
1019.138 .0219779
1019.728 .0219802
1020.319 .0219823
1020.909 .0219842
1021.499 .0219851
1022.088 .0219857
1022.678 .0219864
1023.267 .0219864
1023.856 .0219849
1024.445 .0219836
1025.033 .0219818
1025.621 .0219793
1026.209 .0219763
1026.797 .0219730
1027.385 .0219694
1027.972 .0219664
1028.560 .0219632
1029.147 .0219597
1029.734 .0219571
1030.320 .0219547
1030.907 .0219524
1031.493 .0219517
1032.079 .0219536
1032.665 .0219579
1033.250 .0219646
1033.836 .0219738
1034.421 .0219842
1035.006 .0219943
1035.591 .0220033
1036.176 .0220102
1036.761 .0220143
1037.345 .0220161
1037.929 .0220156
1038.514 .0220140
1039.097 .0220129
1039.681 .0220116
1040.265 .0220108
1040.848 .0220109
1041.432 .0220101
1042.015 .0220079
1042.598 .0220043
1043.181 .0220008
1043.764 .0219974
1044.346 .0219950
1044.929 .0219953
1045.511 .0219990
1046.094 .0220069
1046.676 .0220190
1047.258 .0220345
1047.840 .0220535
1048.422 .0220735
1049.003 .0220935
1049.585 .0221127
1050.166 .0221303
1050.748 .0221460
1051.329 .0221601
1051.910 .0221723
1052.491 .0221836
1053.072 .0221930
1053.653 .0222012
1054.234 .0222079
1054.815 .0222128
1055.396 .0222153
1055.976 .0222155
1056.557 .0222130
1057.138 .0222084
1057.718 .0222015
1058.298 .0221942
1058.879 .0221864
1059.459 .0221790
1060.039 .0221726
1060.620 .0221666
1061.200 .0221615
1061.780 .0221568
1062.360 .0221506
1062.940 .0221448
1063.520 .0221388
1064.101 .0221327
1064.681 .0221263
1065.261 .0221213
1065.841 .0221180
1066.421 .0221177
1067.001 .0221202
1067.581 .0221248
1068.161 .0221315
1068.741 .0221406
1069.321 .0221498
1069.901 .0221589
1070.482 .0221689
1071.062 .0221792
1071.642 .0221901
1072.222 .0222028
1072.803 .0222151
1073.383 .0222274
1073.963 .0222391
1074.544 .0222503
1075.124 .0222595
1075.705 .0222656
1076.286 .0222687
1076.866 .0222687
1077.447 .0222657
1078.028 .0222599
1078.609 .0222516
1079.190 .0222426
1079.771 .0222340
1080.352 .0222255
1080.934 .0222160
1081.515 .0222062
1082.097 .0221973
1082.679 .0221878
1083.260 .0221781
1083.842 .0221696
1084.424 .0221614
1085.007 .0221537
1085.589 .0221482
1086.172 .0221436
1086.754 .0221392
1087.337 .0221366
1087.920 .0221358
1088.503 .0221352
1089.087 .0221366
1089.670 .0221391
1090.254 .0221434
1090.838 .0221510
1091.422 .0221622
1092.006 .0221740
1092.590 .0221892
1093.175 .0222077
1093.760 .0222273
1094.345 .0222485
1094.930 .0222718
1095.516 .0222945
1096.102 .0223172
1096.688 .0223412
1097.274 .0223644
1097.860 .0223857
1098.447 .0224056
1099.034 .0224228
1099.622 .0224366
1100.209 .0224452
1100.797 .0224489
1101.385 .0224466
1101.973 .0224413
1102.562 .0224315
1103.151 .0224173
1103.740 .0224016
1104.330 .0223854
1104.920 .0223676
1105.510 .0223477
1106.101 .0223287
1106.691 .0223104
1107.283 .0222934
1107.874 .0222807
1108.466 .0222742
1109.058 .0222736
1109.651 .0222800
1110.244 .0222926
1110.837 .0223080
1111.431 .0223259
1112.025 .0223432
1112.620 .0223579
1113.215 .0223689
1113.810 .0223762
1114.406 .0223805
1115.002 .0223819
1115.599 .0223838
1116.196 .0223827
1116.793 .0223807
1117.391 .0223775
1117.989 .0223688
1118.588 .0223559
1119.187 .0223393
1119.787 .0223182
1120.387 .0222943
1120.988 .0222709
1121.589 .0222496
1122.190 .0222308
1122.793 .0222164
1123.395 .0222066
1123.998 .0222005
1124.602 .0221988
1125.206 .0222014
1125.811 .0222090
1126.416 .0222253
1127.022 .0222458
1127.628 .0222729
1128.235 .0223077
1128.843 .0223464
1129.451 .0223871
1130.059 .0224277
1130.669 .0224694
1131.278 .0225112
1131.889 .0225522
1132.500 .0225953
1133.112 .0226429
1133.724 .0226984
1134.337 .0227590
1134.950 .0228214
1135.564 .0228871
1136.179 .0229511
1136.795 .0230101
1137.411 .0230633
1138.028 .0231076
1138.645 .0231483
1139.263 .0231853
1139.882 .0232191
1140.502 .0232523
1141.122 .0232804
1141.743 .0233151
1142.365 .0233376
1142.987 .0233903
1143.611 .0234265
1144.235 .0233029
1144.859 .0235418
1145.485 .0232410
