Measurement Sequence started on: 10-20-44-796
Integration time: 35
Scans to Average: 2 
>>>>>Begin Spectral Data<<<<<
432.953 .0477852
433.882 .0458879
434.810 .0448395
435.737 .0424574
436.662 .0414577
437.586 .0413184
438.509 .0405364
439.431 .0399650
440.351 .0395640
441.269 .0393477
442.187 .0392329
443.103 .0392024
444.018 .0392352
444.932 .0392621
445.844 .0392977
446.756 .0393301
447.666 .0393529
448.575 .0393690
449.482 .0393882
450.388 .0394188
451.294 .0394608
452.198 .0395103
453.100 .0395385
454.002 .0395515
454.902 .0395374
455.801 .0394889
456.699 .0394127
457.596 .0393216
458.492 .0392246
459.387 .0391300
460.280 .0390513
461.172 .0389826
462.064 .0389352
462.954 .0389026
463.843 .0388728
464.730 .0388421
465.617 .0388157
466.503 .0387819
467.387 .0387434
468.271 .0387073
469.153 .0386746
470.035 .0386422
470.915 .0386182
471.794 .0385965
472.673 .0385755
473.550 .0385575
474.426 .0385387
475.301 .0385093
476.175 .0384786
477.048 .0384400
477.920 .0383948
478.791 .0383457
479.661 .0382941
480.530 .0382348
481.398 .0381756
482.266 .0381171
483.132 .0380578
483.997 .0379971
484.861 .0379432
485.724 .0378945
486.587 .0378539
487.448 .0378202
488.308 .0377869
489.168 .0377568
490.026 .0377293
490.884 .0376969
491.741 .0376557
492.597 .0376089
493.452 .0375575
494.306 .0375011
495.159 .0374447
496.011 .0373876
496.862 .0373314
497.713 .0372766
498.562 .0372182
499.411 .0371516
500.259 .0370760
501.106 .0369889
501.952 .0368900
502.798 .0367856
503.642 .0366766
504.486 .0365682
505.329 .0364635
506.171 .0363691
507.012 .0362814
507.852 .0361966
508.692 .0361150
509.531 .0360311
510.369 .0359459
511.206 .0358564
512.043 .0357626
512.878 .0356676
513.713 .0355699
514.547 .0354706
515.381 .0353655
516.213 .0352543
517.045 .0351311
517.876 .0349900
518.706 .0348313
519.536 .0346590
520.365 .0344700
521.193 .0342698
522.020 .0340689
522.847 .0338682
523.673 .0336729
524.498 .0334818
525.323 .0332926
526.146 .0331111
526.969 .0329369
527.792 .0327676
528.614 .0325968
529.435 .0324427
530.255 .0322998
531.075 .0321677
531.894 .0320564
532.712 .0319614
533.530 .0318824
534.347 .0318208
535.163 .0317717
535.979 .0317319
536.794 .0317002
537.608 .0316779
538.422 .0316571
539.235 .0316452
540.048 .0316334
540.860 .0316166
541.671 .0315988
542.481 .0315788
543.292 .0315482
544.101 .0315093
544.910 .0314759
545.718 .0314421
546.526 .0314097
547.333 .0313831
548.139 .0313647
548.945 .0313520
549.750 .0313460
550.555 .0313407
551.359 .0313360
552.162 .0313333
552.965 .0313313
553.768 .0313286
554.569 .0313350
555.371 .0313469
556.171 .0313635
556.972 .0313846
557.771 .0314130
558.570 .0314400
559.369 .0314728
560.167 .0315109
560.964 .0315546
561.761 .0316026
562.558 .0316566
563.354 .0317162
564.149 .0317772
564.944 .0318351
565.738 .0318885
566.532 .0319371
567.325 .0319809
568.118 .0320236
568.910 .0320668
569.702 .0321176
570.494 .0321786
571.285 .0322524
572.075 .0323366
572.865 .0324281
573.654 .0325230
574.443 .0326133
575.232 .0326970
576.020 .0327746
576.807 .0328427
577.594 .0329069
578.381 .0329682
579.167 .0330274
579.952 .0330850
580.738 .0331430
581.522 .0331959
582.307 .0332436
583.091 .0332867
583.874 .0333222
584.657 .0333480
585.440 .0333685
586.222 .0333848
587.004 .0333976
587.785 .0334112
588.566 .0334238
589.346 .0334348
590.126 .0334440
590.906 .0334490
591.685 .0334504
592.464 .0334466
593.242 .0334392
594.020 .0334269
594.797 .0334124
595.575 .0333956
596.351 .0333762
597.128 .0333570
597.904 .0333374
598.679 .0333174
599.454 .0332945
600.229 .0332696
601.004 .0332427
601.778 .0332143
602.551 .0331850
603.325 .0331553
604.097 .0331261
604.870 .0330974
605.642 .0330702
606.414 .0330441
607.185 .0330186
607.956 .0329942
608.727 .0329708
609.497 .0329484
610.267 .0329268
611.037 .0329069
611.806 .0328879
612.575 .0328708
613.344 .0328544
614.112 .0328376
614.880 .0328201
615.647 .0328018
616.414 .0327819
617.181 .0327605
617.948 .0327387
618.714 .0327166
619.480 .0326955
620.245 .0326760
621.011 .0326573
621.775 .0326393
622.540 .0326208
623.304 .0326018
624.068 .0325815
624.832 .0325599
625.595 .0325372
626.358 .0325136
627.120 .0324898
627.883 .0324654
628.645 .0324415
629.406 .0324183
630.168 .0323958
630.929 .0323732
631.689 .0323507
632.450 .0323275
633.210 .0323049
633.970 .0322822
634.729 .0322600
635.489 .0322381
636.248 .0322167
637.006 .0321952
637.765 .0321739
638.523 .0321529
639.280 .0321326
640.038 .0321127
640.795 .0320947
641.552 .0320777
642.309 .0320623
643.065 .0320484
643.821 .0320361
644.577 .0320238
645.332 .0320115
646.088 .0319968
646.843 .0319805
647.597 .0319619
648.352 .0319424
649.106 .0319212
649.860 .0318994
650.613 .0318778
651.367 .0318562
652.120 .0318346
652.872 .0318128
653.625 .0317899
654.377 .0317659
655.129 .0317403
655.881 .0317136
656.632 .0316853
657.384 .0316573
658.135 .0316300
658.885 .0316033
659.636 .0315781
660.386 .0315546
661.136 .0315320
661.885 .0315105
662.635 .0314900
663.384 .0314696
664.133 .0314491
664.881 .0314280
665.630 .0314058
666.378 .0313821
667.126 .0313568
667.874 .0313291
668.621 .0312994
669.368 .0312686
670.115 .0312363
670.862 .0312030
671.608 .0311707
672.354 .0311396
673.100 .0311104
673.846 .0310834
674.591 .0310586
675.337 .0310348
676.082 .0310119
676.826 .0309889
677.571 .0309659
678.315 .0309430
679.059 .0309208
679.803 .0308992
680.547 .0308790
681.290 .0308603
682.033 .0308427
682.776 .0308258
683.518 .0308086
684.261 .0307897
685.003 .0307686
685.745 .0307442
686.487 .0307169
687.228 .0306869
687.969 .0306556
688.710 .0306236
689.451 .0305919
690.192 .0305614
690.932 .0305320
691.672 .0305038
692.412 .0304766
693.152 .0304497
693.891 .0304225
694.630 .0303953
695.369 .0303678
696.108 .0303405
696.846 .0303140
697.585 .0302890
698.323 .0302655
699.061 .0302440
699.798 .0302241
700.536 .0302049
701.273 .0301861
702.010 .0301675
702.746 .0301480
703.483 .0301283
704.219 .0301082
704.955 .0300885
705.691 .0300692
706.427 .0300507
707.162 .0300329
707.897 .0300159
708.632 .0299996
709.367 .0299834
710.101 .0299667
710.835 .0299492
711.569 .0299305
712.303 .0299105
713.037 .0298897
713.770 .0298683
714.503 .0298470
715.236 .0298261
715.969 .0298060
716.702 .0297870
717.434 .0297688
718.166 .0297516
718.898 .0297350
719.629 .0297185
720.361 .0297019
721.092 .0296848
721.823 .0296678
722.554 .0296506
723.284 .0296338
724.014 .0296177
724.744 .0296022
725.474 .0295873
726.204 .0295729
726.933 .0295588
727.662 .0295443
728.391 .0295294
729.120 .0295141
729.849 .0294985
730.577 .0294836
731.305 .0294690
732.033 .0294555
732.760 .0294431
733.488 .0294319
734.215 .0294207
734.942 .0294099
735.669 .0293988
736.395 .0293878
737.122 .0293764
737.848 .0293646
738.573 .0293526
739.299 .0293408
740.024 .0293289
740.750 .0293166
741.474 .0293041
742.199 .0292916
742.924 .0292785
743.648 .0292656
744.372 .0292525
745.096 .0292399
745.819 .0292282
746.543 .0292172
747.266 .0292069
747.989 .0291977
748.711 .0291889
749.434 .0291806
750.156 .0291724
750.878 .0291643
751.599 .0291561
752.321 .0291481
753.042 .0291411
753.763 .0291348
754.484 .0291294
755.205 .0291249
755.925 .0291210
756.645 .0291180
757.365 .0291148
758.085 .0291112
758.804 .0291068
759.523 .0291017
760.242 .0290949
760.961 .0290864
761.679 .0290768
762.397 .0290655
763.115 .0290527
763.833 .0290382
764.551 .0290220
765.268 .0290040
765.985 .0289842
766.702 .0289625
767.418 .0289391
768.134 .0289146
768.850 .0288892
769.566 .0288634
770.282 .0288380
770.997 .0288137
771.712 .0287904
772.427 .0287681
773.142 .0287467
773.856 .0287258
774.570 .0287059
775.284 .0286861
775.998 .0286672
776.711 .0286493
777.424 .0286324
778.137 .0286169
778.849 .0286027
779.562 .0285892
780.274 .0285760
780.986 .0285629
781.697 .0285496
782.409 .0285353
783.120 .0285204
783.831 .0285046
784.541 .0284889
785.252 .0284734
785.962 .0284583
786.671 .0284434
787.381 .0284297
788.090 .0284164
788.799 .0284029
789.508 .0283890
790.217 .0283744
790.925 .0283586
791.633 .0283420
792.341 .0283242
793.048 .0283052
793.755 .0282853
794.462 .0282644
795.169 .0282427
795.875 .0282204
796.581 .0281975
797.287 .0281743
797.993 .0281514
798.698 .0281293
799.403 .0281076
800.108 .0280870
800.812 .0280675
801.517 .0280489
802.221 .0280312
802.924 .0280138
803.628 .0279967
804.331 .0279800
805.034 .0279633
805.736 .0279468
806.439 .0279303
807.141 .0279138
807.843 .0278976
808.544 .0278812
809.245 .0278643
809.946 .0278464
810.647 .0278277
811.347 .0278080
812.047 .0277873
812.747 .0277663
813.447 .0277448
814.146 .0277233
814.845 .0277026
815.543 .0276823
816.242 .0276626
816.940 .0276436
817.638 .0276256
818.335 .0276083
819.032 .0275910
819.729 .0275742
820.426 .0275575
821.122 .0275411
821.818 .0275247
822.514 .0275080
823.209 .0274917
823.905 .0274758
824.599 .0274593
825.294 .0274427
825.988 .0274258
826.682 .0274086
827.376 .0273911
828.069 .0273732
828.762 .0273549
829.455 .0273361
830.147 .0273171
830.840 .0272985
831.531 .0272805
832.223 .0272640
832.914 .0272482
833.605 .0272341
834.296 .0272217
834.986 .0272101
835.676 .0271992
836.366 .0271893
837.055 .0271794
837.744 .0271699
838.433 .0271596
839.121 .0271496
839.809 .0271392
840.497 .0271296
841.185 .0271200
841.872 .0271111
842.559 .0271030
843.245 .0270955
843.932 .0270885
844.617 .0270822
845.303 .0270758
845.988 .0270693
846.673 .0270623
847.358 .0270548
848.042 .0270465
848.726 .0270381
849.410 .0270292
850.093 .0270211
850.776 .0270134
851.459 .0270062
852.141 .0269989
852.823 .0269917
853.505 .0269839
854.186 .0269754
854.867 .0269665
855.548 .0269567
856.228 .0269466
856.908 .0269368
857.588 .0269271
858.267 .0269184
858.946 .0269102
859.625 .0269029
860.303 .0268968
860.981 .0268919
861.659 .0268873
862.336 .0268832
863.013 .0268799
863.690 .0268769
864.366 .0268738
865.042 .0268706
865.718 .0268672
866.393 .0268632
867.068 .0268591
867.743 .0268543
868.417 .0268497
869.091 .0268453
869.765 .0268413
870.438 .0268376
871.111 .0268337
871.783 .0268294
872.456 .0268244
873.127 .0268184
873.799 .0268114
874.470 .0268031
875.141 .0267946
875.811 .0267864
876.481 .0267792
877.151 .0267731
877.820 .0267684
878.489 .0267645
879.158 .0267611
879.826 .0267577
880.494 .0267540
881.162 .0267497
881.829 .0267454
882.496 .0267414
883.163 .0267377
883.829 .0267347
884.495 .0267328
885.160 .0267319
885.825 .0267319
886.490 .0267321
887.154 .0267317
887.818 .0267305
888.482 .0267286
889.145 .0267258
889.808 .0267227
890.471 .0267198
891.133 .0267171
891.795 .0267153
892.456 .0267144
893.117 .0267145
893.778 .0267151
894.439 .0267156
895.099 .0267156
895.758 .0267150
896.417 .0267135
897.076 .0267118
897.735 .0267103
898.393 .0267099
899.051 .0267104
899.708 .0267114
900.365 .0267127
901.022 .0267143
901.678 .0267157
902.334 .0267159
902.990 .0267145
903.645 .0267120
904.300 .0267083
904.954 .0267039
905.608 .0266990
906.262 .0266940
906.915 .0266893
907.568 .0266844
908.221 .0266787
908.873 .0266722
909.525 .0266650
910.176 .0266571
910.828 .0266486
911.478 .0266398
912.129 .0266306
912.778 .0266209
913.428 .0266112
914.077 .0266015
914.726 .0265913
915.375 .0265806
916.023 .0265696
916.670 .0265583
917.318 .0265468
917.964 .0265353
918.611 .0265238
919.257 .0265126
919.903 .0265020
920.548 .0264912
921.193 .0264806
921.838 .0264705
922.482 .0264602
923.126 .0264503
923.770 .0264406
924.413 .0264311
925.056 .0264218
925.698 .0264126
926.340 .0264037
926.982 .0263948
927.623 .0263866
928.264 .0263788
928.904 .0263712
929.544 .0263640
930.184 .0263566
930.823 .0263482
931.462 .0263389
932.101 .0263279
932.739 .0263151
933.377 .0263001
934.014 .0262827
934.651 .0262634
935.288 .0262429
935.924 .0262218
936.560 .0261999
937.196 .0261778
937.831 .0261553
938.466 .0261325
939.100 .0261092
939.734 .0260855
940.368 .0260615
941.001 .0260377
941.634 .0260146
942.266 .0259921
942.899 .0259706
943.530 .0259504
944.162 .0259315
944.793 .0259136
945.423 .0258959
946.053 .0258777
946.683 .0258587
947.313 .0258389
947.942 .0258183
948.571 .0257963
949.199 .0257733
949.827 .0257495
950.455 .0257253
951.082 .0257007
951.709 .0256760
952.335 .0256513
952.961 .0256273
953.587 .0256036
954.212 .0255803
954.837 .0255576
955.462 .0255360
956.086 .0255158
956.710 .0254973
957.334 .0254800
957.957 .0254641
958.579 .0254490
959.202 .0254347
959.824 .0254206
960.445 .0254065
961.067 .0253920
961.688 .0253768
962.308 .0253609
962.928 .0253444
963.548 .0253267
964.168 .0253083
964.787 .0252892
965.406 .0252697
966.024 .0252495
966.642 .0252291
967.260 .0252087
967.877 .0251887
968.494 .0251689
969.110 .0251489
969.727 .0251295
970.342 .0251100
970.958 .0250905
971.573 .0250713
972.188 .0250523
972.802 .0250340
973.416 .0250163
974.030 .0249993
974.643 .0249834
975.256 .0249683
975.869 .0249540
976.481 .0249399
977.093 .0249260
977.705 .0249121
978.316 .0248978
978.927 .0248834
979.538 .0248693
980.148 .0248548
980.758 .0248410
981.367 .0248281
981.977 .0248159
982.586 .0248051
983.194 .0247954
983.802 .0247869
984.410 .0247787
985.018 .0247707
985.625 .0247621
986.232 .0247522
986.838 .0247418
987.445 .0247302
988.050 .0247170
988.656 .0247031
989.261 .0246879
989.866 .0246719
990.471 .0246559
991.075 .0246398
991.679 .0246236
992.282 .0246076
992.886 .0245920
993.489 .0245766
994.091 .0245613
994.694 .0245461
995.296 .0245305
995.897 .0245147
996.499 .0244991
997.100 .0244834
997.701 .0244688
998.301 .0244564
998.901 .0244464
999.501 .0244388
1000.101 .0244337
1000.700 .0244306
1001.299 .0244287
1001.898 .0244273
1002.496 .0244257
1003.094 .0244224
1003.692 .0244178
1004.289 .0244120
1004.887 .0244059
1005.484 .0243998
1006.080 .0243942
1006.677 .0243891
1007.273 .0243845
1007.868 .0243801
1008.464 .0243754
1009.059 .0243705
1009.654 .0243657
1010.249 .0243610
1010.843 .0243568
1011.437 .0243525
1012.031 .0243488
1012.625 .0243455
1013.218 .0243421
1013.811 .0243386
1014.404 .0243344
1014.997 .0243296
1015.589 .0243246
1016.181 .0243208
1016.773 .0243182
1017.365 .0243173
1017.956 .0243177
1018.547 .0243193
1019.138 .0243209
1019.728 .0243223
1020.319 .0243223
1020.909 .0243209
1021.499 .0243184
1022.088 .0243143
1022.678 .0243082
1023.267 .0243024
1023.856 .0242966
1024.445 .0242921
1025.033 .0242882
1025.621 .0242856
1026.209 .0242833
1026.797 .0242812
1027.385 .0242787
1027.972 .0242752
1028.560 .0242707
1029.147 .0242653
1029.734 .0242591
1030.320 .0242533
1030.907 .0242475
1031.493 .0242425
1032.079 .0242383
1032.665 .0242362
1033.250 .0242345
1033.836 .0242334
1034.421 .0242326
1035.006 .0242319
1035.591 .0242304
1036.176 .0242270
1036.761 .0242228
1037.345 .0242172
1037.929 .0242110
1038.514 .0242039
1039.097 .0241967
1039.681 .0241902
1040.265 .0241839
1040.848 .0241789
1041.432 .0241749
1042.015 .0241722
1042.598 .0241699
1043.181 .0241679
1043.764 .0241669
1044.346 .0241660
1044.929 .0241663
1045.511 .0241679
1046.094 .0241720
1046.676 .0241781
1047.258 .0241860
1047.840 .0241955
1048.422 .0242064
1049.003 .0242165
1049.585 .0242249
1050.166 .0242305
1050.748 .0242328
1051.329 .0242317
1051.910 .0242284
1052.491 .0242250
1053.072 .0242228
1053.653 .0242218
1054.234 .0242227
1054.815 .0242248
1055.396 .0242283
1055.976 .0242302
1056.557 .0242299
1057.138 .0242275
1057.718 .0242220
1058.298 .0242139
1058.879 .0242056
1059.459 .0241977
1060.039 .0241920
1060.620 .0241883
1061.200 .0241866
1061.780 .0241849
1062.360 .0241832
1062.940 .0241798
1063.520 .0241733
1064.101 .0241641
1064.681 .0241521
1065.261 .0241375
1065.841 .0241233
1066.421 .0241105
1067.001 .0240994
1067.581 .0240917
1068.161 .0240876
1068.741 .0240849
1069.321 .0240836
1069.901 .0240842
1070.482 .0240849
1071.062 .0240850
1071.642 .0240859
1072.222 .0240861
1072.803 .0240873
1073.383 .0240901
1073.963 .0240947
1074.544 .0241012
1075.124 .0241091
1075.705 .0241172
1076.286 .0241239
1076.866 .0241305
1077.447 .0241364
1078.028 .0241398
1078.609 .0241431
1079.190 .0241463
1079.771 .0241507
1080.352 .0241567
1080.934 .0241664
1081.515 .0241796
1082.097 .0241964
1082.679 .0242150
1083.260 .0242343
1083.842 .0242540
1084.424 .0242724
1085.007 .0242887
1085.589 .0243029
1086.172 .0243159
1086.754 .0243273
1087.337 .0243375
1087.920 .0243474
1088.503 .0243565
1089.087 .0243650
1089.670 .0243709
1090.254 .0243739
1090.838 .0243741
1091.422 .0243702
1092.006 .0243625
1092.590 .0243519
1093.175 .0243384
1093.760 .0243214
1094.345 .0243035
1094.930 .0242845
1095.516 .0242666
1096.102 .0242512
1096.688 .0242404
1097.274 .0242347
1097.860 .0242347
1098.447 .0242385
1099.034 .0242434
1099.622 .0242495
1100.209 .0242525
1100.797 .0242510
1101.385 .0242447
1101.973 .0242354
1102.562 .0242249
1103.151 .0242161
1103.740 .0242124
1104.330 .0242154
1104.920 .0242239
1105.510 .0242366
1106.101 .0242496
1106.691 .0242601
1107.283 .0242641
1107.874 .0242630
1108.466 .0242575
1109.058 .0242513
1109.651 .0242462
1110.244 .0242461
1110.837 .0242523
1111.431 .0242681
1112.025 .0242895
1112.620 .0243142
1113.215 .0243409
1113.810 .0243658
1114.406 .0243864
1115.002 .0244048
1115.599 .0244210
1116.196 .0244353
1116.793 .0244481
1117.391 .0244616
1117.989 .0244761
1118.588 .0244924
1119.187 .0245105
1119.787 .0245280
1120.387 .0245496
1120.988 .0245716
1121.589 .0245913
1122.190 .0246083
1122.793 .0246250
1123.395 .0246402
1123.998 .0246543
1124.602 .0246693
1125.206 .0246882
1125.811 .0247113
1126.416 .0247414
1127.022 .0247764
1127.628 .0248189
1128.235 .0248643
1128.843 .0249141
1129.451 .0249654
1130.059 .0250174
1130.669 .0250681
1131.278 .0251187
1131.889 .0251712
1132.500 .0252274
1133.112 .0252845
1133.724 .0253414
1134.337 .0253990
1134.950 .0254544
1135.564 .0255063
1136.179 .0255573
1136.795 .0256089
1137.411 .0256664
1138.028 .0257267
1138.645 .0257930
1139.263 .0258654
1139.882 .0259453
1140.502 .0260328
1141.122 .0261264
1141.743 .0262500
1142.365 .0263972
1142.987 .0263772
1143.611 .0265541
1144.235 .0267149
1144.859 .0274551
1145.485 .0277055
