Measurement Sequence started on: 10-20-44-796
Integration time: 35
Scans to Average: 2 
>>>>>Begin Spectral Data<<<<<
432.953 .0368916
433.882 .0327699
434.810 .0406960
435.737 .0432147
436.662 .0413621
437.586 .0409057
438.509 .0411226
439.431 .0412447
440.351 .0410546
441.269 .0407986
442.187 .0406034
443.103 .0403890
444.018 .0402192
444.932 .0400471
445.844 .0399026
446.756 .0397851
447.666 .0396866
448.575 .0396023
449.482 .0395533
450.388 .0395284
451.294 .0395232
452.198 .0395279
453.100 .0395263
454.002 .0395214
454.902 .0395215
455.801 .0395107
456.699 .0395020
457.596 .0394991
458.492 .0395005
459.387 .0394851
460.280 .0394594
461.172 .0394203
462.064 .0393687
462.954 .0393132
463.843 .0392544
464.730 .0392024
465.617 .0391605
466.503 .0391219
467.387 .0390880
468.271 .0390602
469.153 .0390312
470.035 .0389994
470.915 .0389661
471.794 .0389241
472.673 .0388732
473.550 .0388279
474.426 .0387869
475.301 .0387489
476.175 .0387146
477.048 .0386758
477.920 .0386266
478.791 .0385669
479.661 .0384896
480.530 .0384026
481.398 .0383095
482.266 .0382200
483.132 .0381321
483.997 .0380584
484.861 .0379955
485.724 .0379435
486.587 .0379014
487.448 .0378650
488.308 .0378203
489.168 .0377683
490.026 .0377121
490.884 .0376513
491.741 .0375869
492.597 .0375215
493.452 .0374574
494.306 .0373998
495.159 .0373444
496.011 .0372901
496.862 .0372347
497.713 .0371764
498.562 .0371066
499.411 .0370184
500.259 .0369136
501.106 .0367917
501.952 .0366567
502.798 .0365147
503.642 .0363732
504.486 .0362298
505.329 .0360900
506.171 .0359553
507.012 .0358322
507.852 .0357159
508.692 .0356025
509.531 .0354887
510.369 .0353770
511.206 .0352644
512.043 .0351555
512.878 .0350474
513.713 .0349527
514.547 .0348708
515.381 .0348007
516.213 .0347429
517.045 .0346928
517.876 .0346524
518.706 .0346150
519.536 .0345776
520.365 .0345328
521.193 .0344761
522.020 .0344093
522.847 .0343274
523.673 .0342276
524.498 .0341066
525.323 .0339619
526.146 .0338029
526.969 .0336203
527.792 .0334158
528.614 .0331815
529.435 .0329320
530.255 .0326593
531.075 .0323742
531.894 .0320850
532.712 .0318083
533.530 .0315508
534.347 .0313251
535.163 .0311248
535.979 .0309616
536.794 .0308268
537.608 .0307216
538.422 .0306416
539.235 .0305817
540.048 .0305359
540.860 .0305197
541.671 .0305336
542.481 .0305816
543.292 .0306524
544.101 .0307555
544.910 .0308663
545.718 .0309764
546.526 .0310727
547.333 .0311431
548.139 .0312029
548.945 .0312478
549.750 .0312691
550.555 .0312817
551.359 .0312940
552.162 .0313089
552.965 .0313273
553.768 .0313500
554.569 .0313702
555.371 .0313827
556.171 .0313881
556.972 .0313827
557.771 .0313687
558.570 .0313597
559.369 .0313559
560.167 .0313651
560.964 .0313950
561.761 .0314336
562.558 .0314892
563.354 .0315609
564.149 .0316430
564.944 .0317312
565.738 .0318197
566.532 .0319071
567.325 .0319918
568.118 .0320756
568.910 .0321530
569.702 .0322257
570.494 .0323034
571.285 .0323798
572.075 .0324532
572.865 .0325231
573.654 .0325902
574.443 .0326540
575.232 .0327153
576.020 .0327683
576.807 .0328148
577.594 .0328590
578.381 .0329022
579.167 .0329434
579.952 .0329870
580.738 .0330315
581.522 .0330782
582.307 .0331242
583.091 .0331687
583.874 .0332082
584.657 .0332440
585.440 .0332774
586.222 .0333057
587.004 .0333289
587.785 .0333495
588.566 .0333652
589.346 .0333785
590.126 .0333885
590.906 .0333959
591.685 .0333985
592.464 .0333976
593.242 .0333926
594.020 .0333828
594.797 .0333690
595.575 .0333531
596.351 .0333347
597.128 .0333147
597.904 .0332935
598.679 .0332705
599.454 .0332466
600.229 .0332232
601.004 .0331977
601.778 .0331711
602.551 .0331435
603.325 .0331156
604.097 .0330864
604.870 .0330583
605.642 .0330312
606.414 .0330048
607.185 .0329805
607.956 .0329573
608.727 .0329351
609.497 .0329155
610.267 .0328981
611.037 .0328826
611.806 .0328688
612.575 .0328570
613.344 .0328457
614.112 .0328361
614.880 .0328281
615.647 .0328209
616.414 .0328137
617.181 .0328057
617.948 .0327956
618.714 .0327831
619.480 .0327691
620.245 .0327529
621.011 .0327352
621.775 .0327165
622.540 .0326961
623.304 .0326745
624.068 .0326530
624.832 .0326310
625.595 .0326083
626.358 .0325854
627.120 .0325617
627.883 .0325368
628.645 .0325116
629.406 .0324868
630.168 .0324629
630.929 .0324400
631.689 .0324185
632.450 .0323968
633.210 .0323764
633.970 .0323566
634.729 .0323364
635.489 .0323160
636.248 .0322947
637.006 .0322718
637.765 .0322474
638.523 .0322217
639.280 .0321953
640.038 .0321673
640.795 .0321392
641.552 .0321103
642.309 .0320813
643.065 .0320528
643.821 .0320258
644.577 .0319997
645.332 .0319757
646.088 .0319516
646.843 .0319266
647.597 .0319007
648.352 .0318737
649.106 .0318447
649.860 .0318141
650.613 .0317827
651.367 .0317514
652.120 .0317200
652.872 .0316902
653.625 .0316614
654.377 .0316338
655.129 .0316065
655.881 .0315784
656.632 .0315492
657.384 .0315192
658.135 .0314880
658.885 .0314562
659.636 .0314255
660.386 .0313956
661.136 .0313655
661.885 .0313369
662.635 .0313087
663.384 .0312809
664.133 .0312531
664.881 .0312254
665.630 .0311972
666.378 .0311685
667.126 .0311399
667.874 .0311105
668.621 .0310811
669.368 .0310519
670.115 .0310221
670.862 .0309923
671.608 .0309629
672.354 .0309336
673.100 .0309059
673.846 .0308806
674.591 .0308576
675.337 .0308372
676.082 .0308187
676.826 .0308021
677.571 .0307862
678.315 .0307708
679.059 .0307552
679.803 .0307383
680.547 .0307207
681.290 .0307029
682.033 .0306842
682.776 .0306658
683.518 .0306482
684.261 .0306317
685.003 .0306159
685.745 .0306000
686.487 .0305841
687.228 .0305678
687.969 .0305499
688.710 .0305306
689.451 .0305091
690.192 .0304865
690.932 .0304630
691.672 .0304396
692.412 .0304174
693.152 .0303974
693.891 .0303793
694.630 .0303626
695.369 .0303470
696.108 .0303318
696.846 .0303160
697.585 .0302992
698.323 .0302822
699.061 .0302651
699.798 .0302490
700.536 .0302359
701.273 .0302258
702.010 .0302198
702.746 .0302168
703.483 .0302155
704.219 .0302148
704.955 .0302132
705.691 .0302098
706.427 .0302035
707.162 .0301952
707.897 .0301850
708.632 .0301736
709.367 .0301621
710.101 .0301510
710.835 .0301395
711.569 .0301278
712.303 .0301147
713.037 .0300993
713.770 .0300815
714.503 .0300610
715.236 .0300380
715.969 .0300141
716.702 .0299904
717.434 .0299678
718.166 .0299467
718.898 .0299284
719.629 .0299125
720.361 .0298985
721.092 .0298857
721.823 .0298729
722.554 .0298597
723.284 .0298466
724.014 .0298322
724.744 .0298169
725.474 .0298013
726.204 .0297859
726.933 .0297705
727.662 .0297549
728.391 .0297394
729.120 .0297234
729.849 .0297071
730.577 .0296902
731.305 .0296712
732.033 .0296511
732.760 .0296295
733.488 .0296064
734.215 .0295820
734.942 .0295570
735.669 .0295308
736.395 .0295047
737.122 .0294785
737.848 .0294518
738.573 .0294245
739.299 .0293981
740.024 .0293720
740.750 .0293458
741.474 .0293200
742.199 .0292942
742.924 .0292683
743.648 .0292432
744.372 .0292178
745.096 .0291929
745.819 .0291682
746.543 .0291436
747.266 .0291188
747.989 .0290950
748.711 .0290719
749.434 .0290492
750.156 .0290277
750.878 .0290074
751.599 .0289876
752.321 .0289694
753.042 .0289527
753.763 .0289376
754.484 .0289237
755.205 .0289109
755.925 .0288989
756.645 .0288873
757.365 .0288751
758.085 .0288617
758.804 .0288470
759.523 .0288310
760.242 .0288132
760.961 .0287938
761.679 .0287734
762.397 .0287517
763.115 .0287282
763.833 .0287027
764.551 .0286747
765.268 .0286447
765.985 .0286122
766.702 .0285782
767.418 .0285432
768.134 .0285085
768.850 .0284751
769.566 .0284437
770.282 .0284154
770.997 .0283900
771.712 .0283676
772.427 .0283476
773.142 .0283296
773.856 .0283131
774.570 .0282986
775.284 .0282858
775.998 .0282744
776.711 .0282641
777.424 .0282550
778.137 .0282464
778.849 .0282380
779.562 .0282287
780.274 .0282187
780.986 .0282070
781.697 .0281948
782.409 .0281816
783.120 .0281689
783.831 .0281567
784.541 .0281462
785.252 .0281366
785.962 .0281279
786.671 .0281199
787.381 .0281122
788.090 .0281044
788.799 .0280967
789.508 .0280878
790.217 .0280787
790.925 .0280702
791.633 .0280622
792.341 .0280545
793.048 .0280481
793.755 .0280423
794.462 .0280365
795.169 .0280308
795.875 .0280247
796.581 .0280177
797.287 .0280099
797.993 .0280010
798.698 .0279908
799.403 .0279806
800.108 .0279706
800.812 .0279617
801.517 .0279550
802.221 .0279504
802.924 .0279470
803.628 .0279454
804.331 .0279452
805.034 .0279459
805.736 .0279471
806.439 .0279488
807.141 .0279504
807.843 .0279519
808.544 .0279528
809.245 .0279535
809.946 .0279541
810.647 .0279547
811.347 .0279546
812.047 .0279540
812.747 .0279529
813.447 .0279512
814.146 .0279490
814.845 .0279463
815.543 .0279427
816.242 .0279388
816.940 .0279338
817.638 .0279280
818.335 .0279219
819.032 .0279153
819.729 .0279085
820.426 .0279021
821.122 .0278956
821.818 .0278898
822.514 .0278842
823.209 .0278788
823.905 .0278736
824.599 .0278683
825.294 .0278627
825.988 .0278564
826.682 .0278494
827.376 .0278418
828.069 .0278335
828.762 .0278250
829.455 .0278163
830.147 .0278076
830.840 .0277991
831.531 .0277911
832.223 .0277834
832.914 .0277768
833.605 .0277704
834.296 .0277647
834.986 .0277593
835.676 .0277540
836.366 .0277489
837.055 .0277429
837.744 .0277368
838.433 .0277294
839.121 .0277208
839.809 .0277114
840.497 .0277011
841.185 .0276899
841.872 .0276776
842.559 .0276649
843.245 .0276521
843.932 .0276394
844.617 .0276270
845.303 .0276144
845.988 .0276027
846.673 .0275916
847.358 .0275808
848.042 .0275708
848.726 .0275624
849.410 .0275542
850.093 .0275472
850.776 .0275413
851.459 .0275359
852.141 .0275308
852.823 .0275256
853.505 .0275193
854.186 .0275116
854.867 .0275024
855.548 .0274912
856.228 .0274779
856.908 .0274639
857.588 .0274484
858.267 .0274315
858.946 .0274134
859.625 .0273940
860.303 .0273727
860.981 .0273502
861.659 .0273263
862.336 .0273011
863.013 .0272749
863.690 .0272488
864.366 .0272227
865.042 .0271978
865.718 .0271747
866.393 .0271536
867.068 .0271336
867.743 .0271147
868.417 .0270961
869.091 .0270769
869.765 .0270574
870.438 .0270373
871.111 .0270163
871.783 .0269953
872.456 .0269743
873.127 .0269541
873.799 .0269352
874.470 .0269185
875.141 .0269030
875.811 .0268886
876.481 .0268747
877.151 .0268607
877.820 .0268459
878.489 .0268307
879.158 .0268155
879.826 .0268001
880.494 .0267853
881.162 .0267706
881.829 .0267561
882.496 .0267416
883.163 .0267266
883.829 .0267114
884.495 .0266953
885.160 .0266787
885.825 .0266619
886.490 .0266453
887.154 .0266299
887.818 .0266154
888.482 .0266012
889.145 .0265869
889.808 .0265728
890.471 .0265577
891.133 .0265422
891.795 .0265270
892.456 .0265123
893.117 .0264986
893.778 .0264865
894.439 .0264755
895.099 .0264655
895.758 .0264564
896.417 .0264472
897.076 .0264366
897.735 .0264249
898.393 .0264111
899.051 .0263966
899.708 .0263811
900.365 .0263652
901.022 .0263482
901.678 .0263312
902.334 .0263131
902.990 .0262943
903.645 .0262749
904.300 .0262556
904.954 .0262358
905.608 .0262157
906.262 .0261952
906.915 .0261751
907.568 .0261538
908.221 .0261326
908.873 .0261105
909.525 .0260879
910.176 .0260642
910.828 .0260405
911.478 .0260175
912.129 .0259959
912.778 .0259758
913.428 .0259578
914.077 .0259408
914.726 .0259256
915.375 .0259104
916.023 .0258966
916.670 .0258840
917.318 .0258720
917.964 .0258603
918.611 .0258497
919.257 .0258394
919.903 .0258294
920.548 .0258202
921.193 .0258121
921.838 .0258048
922.482 .0257979
923.126 .0257914
923.770 .0257850
924.413 .0257785
925.056 .0257715
925.698 .0257627
926.340 .0257526
926.982 .0257407
927.623 .0257274
928.264 .0257137
928.904 .0257002
929.544 .0256874
930.184 .0256758
930.823 .0256662
931.462 .0256574
932.101 .0256496
932.739 .0256416
933.377 .0256330
934.014 .0256231
934.651 .0256118
935.288 .0255996
935.924 .0255867
936.560 .0255745
937.196 .0255628
937.831 .0255524
938.466 .0255436
939.100 .0255347
939.734 .0255260
940.368 .0255161
941.001 .0255041
941.634 .0254900
942.266 .0254741
942.899 .0254564
943.530 .0254372
944.162 .0254179
944.793 .0253988
945.423 .0253805
946.053 .0253630
946.683 .0253461
947.313 .0253293
947.942 .0253125
948.571 .0252939
949.199 .0252733
949.827 .0252516
950.455 .0252281
951.082 .0252039
951.709 .0251801
952.335 .0251578
952.961 .0251380
953.587 .0251210
954.212 .0251074
954.837 .0250965
955.462 .0250880
956.086 .0250806
956.710 .0250735
957.334 .0250672
957.957 .0250613
958.579 .0250557
959.202 .0250513
959.824 .0250483
960.445 .0250470
961.067 .0250478
961.688 .0250508
962.308 .0250553
962.928 .0250599
963.548 .0250632
964.168 .0250642
964.787 .0250622
965.406 .0250574
966.024 .0250496
966.642 .0250398
967.260 .0250292
967.877 .0250181
968.494 .0250068
969.110 .0249967
969.727 .0249878
970.342 .0249796
970.958 .0249718
971.573 .0249643
972.188 .0249571
972.802 .0249506
973.416 .0249444
974.030 .0249389
974.643 .0249340
975.256 .0249308
975.869 .0249281
976.481 .0249268
977.093 .0249276
977.705 .0249301
978.316 .0249335
978.927 .0249381
979.538 .0249429
980.148 .0249477
980.758 .0249522
981.367 .0249567
981.977 .0249617
982.586 .0249675
983.194 .0249738
983.802 .0249820
984.410 .0249916
985.018 .0250031
985.625 .0250153
986.232 .0250280
986.838 .0250408
987.445 .0250518
988.050 .0250614
988.656 .0250692
989.261 .0250753
989.866 .0250800
990.471 .0250826
991.075 .0250848
991.679 .0250862
992.282 .0250862
992.886 .0250857
993.489 .0250849
994.091 .0250837
994.694 .0250823
995.296 .0250810
995.897 .0250795
996.499 .0250788
997.100 .0250783
997.701 .0250786
998.301 .0250793
998.901 .0250818
999.501 .0250858
1000.101 .0250916
1000.700 .0250999
1001.299 .0251091
1001.898 .0251190
1002.496 .0251296
1003.094 .0251389
1003.692 .0251474
1004.289 .0251545
1004.887 .0251614
1005.484 .0251673
1006.080 .0251739
1006.677 .0251798
1007.273 .0251861
1007.868 .0251926
1008.464 .0251994
1009.059 .0252051
1009.654 .0252103
1010.249 .0252148
1010.843 .0252191
1011.437 .0252231
1012.031 .0252267
1012.625 .0252297
1013.218 .0252330
1013.811 .0252361
1014.404 .0252394
1014.997 .0252417
1015.589 .0252437
1016.181 .0252452
1016.773 .0252460
1017.365 .0252460
1017.956 .0252455
1018.547 .0252451
1019.138 .0252452
1019.728 .0252456
1020.319 .0252453
1020.909 .0252450
1021.499 .0252443
1022.088 .0252434
1022.678 .0252416
1023.267 .0252391
1023.856 .0252351
1024.445 .0252300
1025.033 .0252238
1025.621 .0252161
1026.209 .0252067
1026.797 .0251976
1027.385 .0251872
1027.972 .0251771
1028.560 .0251664
1029.147 .0251555
1029.734 .0251461
1030.320 .0251382
1030.907 .0251305
1031.493 .0251239
1032.079 .0251191
1032.665 .0251166
1033.250 .0251150
1033.836 .0251153
1034.421 .0251155
1035.006 .0251161
1035.591 .0251168
1036.176 .0251165
1036.761 .0251150
1037.345 .0251138
1037.929 .0251127
1038.514 .0251118
1039.097 .0251118
1039.681 .0251119
1040.265 .0251117
1040.848 .0251116
1041.432 .0251105
1042.015 .0251071
1042.598 .0251018
1043.181 .0250953
1043.764 .0250869
1044.346 .0250783
1044.929 .0250702
1045.511 .0250627
1046.094 .0250580
1046.676 .0250563
1047.258 .0250571
1047.840 .0250589
1048.422 .0250623
1049.003 .0250639
1049.585 .0250632
1050.166 .0250601
1050.748 .0250543
1051.329 .0250465
1051.910 .0250397
1052.491 .0250329
1053.072 .0250286
1053.653 .0250262
1054.234 .0250256
1054.815 .0250251
1055.396 .0250245
1055.976 .0250206
1056.557 .0250124
1057.138 .0249996
1057.718 .0249838
1058.298 .0249629
1058.879 .0249405
1059.459 .0249165
1060.039 .0248929
1060.620 .0248678
1061.200 .0248422
1061.780 .0248148
1062.360 .0247862
1062.940 .0247554
1063.520 .0247250
1064.101 .0246962
1064.681 .0246703
1065.261 .0246473
1065.841 .0246294
1066.421 .0246165
1067.001 .0246095
1067.581 .0246042
1068.161 .0246014
1068.741 .0246004
1069.321 .0245995
1069.901 .0245981
1070.482 .0245991
1071.062 .0246039
1071.642 .0246104
1072.222 .0246172
1072.803 .0246236
1073.383 .0246268
1073.963 .0246265
1074.544 .0246201
1075.124 .0246096
1075.705 .0245943
1076.286 .0245756
1076.866 .0245535
1077.447 .0245324
1078.028 .0245130
1078.609 .0244950
1079.190 .0244778
1079.771 .0244618
1080.352 .0244453
1080.934 .0244250
1081.515 .0244039
1082.097 .0243856
1082.679 .0243709
1083.260 .0243611
1083.842 .0243576
1084.424 .0243629
1085.007 .0243748
1085.589 .0243903
1086.172 .0244066
1086.754 .0244227
1087.337 .0244370
1087.920 .0244465
1088.503 .0244540
1089.087 .0244603
1089.670 .0244654
1090.254 .0244694
1090.838 .0244744
1091.422 .0244752
1092.006 .0244711
1092.590 .0244603
1093.175 .0244408
1093.760 .0244141
1094.345 .0243817
1094.930 .0243461
1095.516 .0243119
1096.102 .0242826
1096.688 .0242570
1097.274 .0242354
1097.860 .0242217
1098.447 .0242098
1099.034 .0241984
1099.622 .0241890
1100.209 .0241784
1100.797 .0241672
1101.385 .0241590
1101.973 .0241534
1102.562 .0241498
1103.151 .0241493
1103.740 .0241461
1104.330 .0241393
1104.920 .0241280
1105.510 .0241124
1106.101 .0240919
1106.691 .0240691
1107.283 .0240462
1107.874 .0240239
1108.466 .0240068
1109.058 .0239963
1109.651 .0239904
1110.244 .0239899
1110.837 .0239920
1111.431 .0239961
1112.025 .0239972
1112.620 .0239974
1113.215 .0240003
1113.810 .0240044
1114.406 .0240119
1115.002 .0240200
1115.599 .0240311
1116.196 .0240442
1116.793 .0240583
1117.391 .0240688
1117.989 .0240739
1118.588 .0240758
1119.187 .0240711
1119.787 .0240626
1120.387 .0240565
1120.988 .0240531
1121.589 .0240556
1122.190 .0240633
1122.793 .0240777
1123.395 .0240986
1123.998 .0241278
1124.602 .0241619
1125.206 .0242024
1125.811 .0242493
1126.416 .0242997
1127.022 .0243537
1127.628 .0244128
1128.235 .0244756
1128.843 .0245336
1129.451 .0245897
1130.059 .0246370
1130.669 .0246768
1131.278 .0247094
1131.889 .0247329
1132.500 .0247524
1133.112 .0247712
1133.724 .0247881
1134.337 .0248102
1134.950 .0248353
1135.564 .0248681
1136.179 .0248994
1136.795 .0249359
1137.411 .0249756
1138.028 .0250157
1138.645 .0250653
1139.263 .0251223
1139.882 .0251915
1140.502 .0252811
1141.122 .0253804
1141.743 .0254916
1142.365 .0256278
1142.987 .0257447
1143.611 .0260330
1144.235 .0260025
1144.859 .0260553
1145.485 .0266520
