Measurement Sequence started on: 10-20-44-796
Integration time: 35
Scans to Average: 2 
>>>>>Begin Spectral Data<<<<<
432.953 .0325791
433.882 .0327114
434.810 .0301482
435.737 .0322250
436.662 .0335935
437.586 .0342759
438.509 .0347565
439.431 .0351670
440.351 .0355391
441.269 .0357654
442.187 .0358952
443.103 .0359536
444.018 .0360021
444.932 .0360508
445.844 .0360563
446.756 .0360198
447.666 .0359687
448.575 .0358956
449.482 .0358193
450.388 .0357468
451.294 .0356909
452.198 .0356613
453.100 .0356481
454.002 .0356621
454.902 .0356914
455.801 .0357403
456.699 .0357918
457.596 .0358430
458.492 .0358902
459.387 .0359256
460.280 .0359569
461.172 .0359704
462.064 .0359736
462.954 .0359569
463.843 .0359273
464.730 .0358910
465.617 .0358492
466.503 .0358117
467.387 .0357769
468.271 .0357489
469.153 .0357262
470.035 .0357041
470.915 .0356839
471.794 .0356569
472.673 .0356274
473.550 .0355886
474.426 .0355483
475.301 .0355074
476.175 .0354693
477.048 .0354346
477.920 .0354087
478.791 .0353907
479.661 .0353755
480.530 .0353611
481.398 .0353453
482.266 .0353260
483.132 .0353050
483.997 .0352799
484.861 .0352555
485.724 .0352307
486.587 .0352117
487.448 .0351922
488.308 .0351716
489.168 .0351490
490.026 .0351215
490.884 .0350896
491.741 .0350528
492.597 .0350119
493.452 .0349672
494.306 .0349220
495.159 .0348781
496.011 .0348292
496.862 .0347748
497.713 .0347119
498.562 .0346379
499.411 .0345526
500.259 .0344584
501.106 .0343543
501.952 .0342472
502.798 .0341432
503.642 .0340395
504.486 .0339347
505.329 .0338327
506.171 .0337331
507.012 .0336326
507.852 .0335311
508.692 .0334255
509.531 .0333155
510.369 .0332071
511.206 .0330979
512.043 .0329876
512.878 .0328768
513.713 .0327675
514.547 .0326571
515.381 .0325515
516.213 .0324502
517.045 .0323520
517.876 .0322562
518.706 .0321628
519.536 .0320628
520.365 .0319540
521.193 .0318319
522.020 .0317006
522.847 .0315632
523.673 .0314211
524.498 .0312731
525.323 .0311290
526.146 .0309887
526.969 .0308546
527.792 .0307152
528.614 .0305682
529.435 .0304116
530.255 .0302446
531.075 .0300659
531.894 .0298833
532.712 .0297051
533.530 .0295314
534.347 .0293672
535.163 .0292151
535.979 .0290730
536.794 .0289472
537.608 .0288376
538.422 .0287457
539.235 .0286700
540.048 .0286121
540.860 .0285720
541.671 .0285560
542.481 .0285654
543.292 .0285853
544.101 .0286192
544.910 .0286635
545.718 .0287145
546.526 .0287688
547.333 .0288295
548.139 .0288920
548.945 .0289576
549.750 .0290278
550.555 .0290942
551.359 .0291595
552.162 .0292285
552.965 .0292905
553.768 .0293427
554.569 .0293857
555.371 .0294153
556.171 .0294274
556.972 .0294330
557.771 .0294272
558.570 .0294155
559.369 .0294094
560.167 .0294091
560.964 .0294140
561.761 .0294306
562.558 .0294614
563.354 .0294988
564.149 .0295427
564.944 .0295909
565.738 .0296368
566.532 .0296835
567.325 .0297282
568.118 .0297702
568.910 .0298137
569.702 .0298589
570.494 .0299053
571.285 .0299509
572.075 .0300019
572.865 .0300536
573.654 .0301058
574.443 .0301614
575.232 .0302195
576.020 .0302795
576.807 .0303439
577.594 .0304097
578.381 .0304782
579.167 .0305472
579.952 .0306162
580.738 .0306846
581.522 .0307563
582.307 .0308273
583.091 .0309000
583.874 .0309731
584.657 .0310471
585.440 .0311178
586.222 .0311833
587.004 .0312416
587.785 .0312925
588.566 .0313353
589.346 .0313704
590.126 .0313979
590.906 .0314218
591.685 .0314410
592.464 .0314564
593.242 .0314685
594.020 .0314761
594.797 .0314791
595.575 .0314784
596.351 .0314740
597.128 .0314664
597.904 .0314562
598.679 .0314451
599.454 .0314328
600.229 .0314205
601.004 .0314080
601.778 .0313949
602.551 .0313815
603.325 .0313680
604.097 .0313537
604.870 .0313382
605.642 .0313224
606.414 .0313059
607.185 .0312884
607.956 .0312706
608.727 .0312519
609.497 .0312327
610.267 .0312130
611.037 .0311935
611.806 .0311736
612.575 .0311540
613.344 .0311346
614.112 .0311149
614.880 .0310939
615.647 .0310719
616.414 .0310477
617.181 .0310221
617.948 .0309961
618.714 .0309694
619.480 .0309429
620.245 .0309181
621.011 .0308939
621.775 .0308709
622.540 .0308484
623.304 .0308264
624.068 .0308036
624.832 .0307799
625.595 .0307552
626.358 .0307293
627.120 .0307035
627.883 .0306775
628.645 .0306518
629.406 .0306276
630.168 .0306037
630.929 .0305803
631.689 .0305577
632.450 .0305354
633.210 .0305134
633.970 .0304917
634.729 .0304702
635.489 .0304485
636.248 .0304265
637.006 .0304046
637.765 .0303820
638.523 .0303587
639.280 .0303348
640.038 .0303095
640.795 .0302846
641.552 .0302594
642.309 .0302345
643.065 .0302110
643.821 .0301889
644.577 .0301679
645.332 .0301470
646.088 .0301260
646.843 .0301044
647.597 .0300820
648.352 .0300590
649.106 .0300357
649.860 .0300123
650.613 .0299898
651.367 .0299686
652.120 .0299495
652.872 .0299326
653.625 .0299177
654.377 .0299049
655.129 .0298933
655.881 .0298818
656.632 .0298707
657.384 .0298594
658.135 .0298485
658.885 .0298376
659.636 .0298264
660.386 .0298150
661.136 .0298039
661.885 .0297934
662.635 .0297832
663.384 .0297735
664.133 .0297647
664.881 .0297552
665.630 .0297456
666.378 .0297354
667.126 .0297242
667.874 .0297120
668.621 .0296990
669.368 .0296849
670.115 .0296701
670.862 .0296553
671.608 .0296414
672.354 .0296284
673.100 .0296168
673.846 .0296062
674.591 .0295959
675.337 .0295858
676.082 .0295758
676.826 .0295653
677.571 .0295545
678.315 .0295437
679.059 .0295325
679.803 .0295212
680.547 .0295095
681.290 .0294973
682.033 .0294839
682.776 .0294695
683.518 .0294536
684.261 .0294357
685.003 .0294168
685.745 .0293967
686.487 .0293758
687.228 .0293547
687.969 .0293337
688.710 .0293126
689.451 .0292911
690.192 .0292697
690.932 .0292479
691.672 .0292261
692.412 .0292044
693.152 .0291831
693.891 .0291624
694.630 .0291424
695.369 .0291231
696.108 .0291042
696.846 .0290854
697.585 .0290664
698.323 .0290463
699.061 .0290252
699.798 .0290030
700.536 .0289799
701.273 .0289561
702.010 .0289326
702.746 .0289097
703.483 .0288874
704.219 .0288653
704.955 .0288434
705.691 .0288209
706.427 .0287975
707.162 .0287739
707.897 .0287495
708.632 .0287252
709.367 .0287016
710.101 .0286787
710.835 .0286571
711.569 .0286363
712.303 .0286161
713.037 .0285960
713.770 .0285757
714.503 .0285545
715.236 .0285324
715.969 .0285096
716.702 .0284869
717.434 .0284641
718.166 .0284418
718.898 .0284205
719.629 .0283999
720.361 .0283800
721.092 .0283603
721.823 .0283403
722.554 .0283199
723.284 .0282990
724.014 .0282773
724.744 .0282545
725.474 .0282311
726.204 .0282071
726.933 .0281827
727.662 .0281581
728.391 .0281334
729.120 .0281087
729.849 .0280846
730.577 .0280609
731.305 .0280374
732.033 .0280145
732.760 .0279918
733.488 .0279692
734.215 .0279470
734.942 .0279254
735.669 .0279044
736.395 .0278847
737.122 .0278664
737.848 .0278493
738.573 .0278338
739.299 .0278192
740.024 .0278050
740.750 .0277907
741.474 .0277765
742.199 .0277614
742.924 .0277458
743.648 .0277303
744.372 .0277144
745.096 .0276991
745.819 .0276845
746.543 .0276699
747.266 .0276556
747.989 .0276419
748.711 .0276290
749.434 .0276164
750.156 .0276048
750.878 .0275941
751.599 .0275848
752.321 .0275772
753.042 .0275711
753.763 .0275665
754.484 .0275640
755.205 .0275630
755.925 .0275626
756.645 .0275625
757.365 .0275626
758.085 .0275621
758.804 .0275610
759.523 .0275588
760.242 .0275549
760.961 .0275492
761.679 .0275421
762.397 .0275330
763.115 .0275221
763.833 .0275094
764.551 .0274951
765.268 .0274787
765.985 .0274606
766.702 .0274403
767.418 .0274184
768.134 .0273958
768.850 .0273724
769.566 .0273487
770.282 .0273256
770.997 .0273038
771.712 .0272832
772.427 .0272642
773.142 .0272470
773.856 .0272308
774.570 .0272158
775.284 .0272015
775.998 .0271880
776.711 .0271754
777.424 .0271642
778.137 .0271543
778.849 .0271454
779.562 .0271379
780.274 .0271308
780.986 .0271238
781.697 .0271168
782.409 .0271094
783.120 .0271015
783.831 .0270931
784.541 .0270852
785.252 .0270770
785.962 .0270698
786.671 .0270635
787.381 .0270576
788.090 .0270523
788.799 .0270466
789.508 .0270404
790.217 .0270328
790.925 .0270244
791.633 .0270153
792.341 .0270051
793.048 .0269950
793.755 .0269845
794.462 .0269737
795.169 .0269629
795.875 .0269517
796.581 .0269399
797.287 .0269276
797.993 .0269143
798.698 .0268998
799.403 .0268848
800.108 .0268692
800.812 .0268536
801.517 .0268382
802.221 .0268241
802.924 .0268108
803.628 .0267985
804.331 .0267879
805.034 .0267784
805.736 .0267695
806.439 .0267615
807.141 .0267534
807.843 .0267459
808.544 .0267378
809.245 .0267298
809.946 .0267218
810.647 .0267143
811.347 .0267071
812.047 .0266999
812.747 .0266927
813.447 .0266848
814.146 .0266754
814.845 .0266649
815.543 .0266527
816.242 .0266393
816.940 .0266245
817.638 .0266087
818.335 .0265921
819.032 .0265755
819.729 .0265586
820.426 .0265417
821.122 .0265249
821.818 .0265074
822.514 .0264888
823.209 .0264693
823.905 .0264490
824.599 .0264280
825.294 .0264066
825.988 .0263849
826.682 .0263633
827.376 .0263421
828.069 .0263216
828.762 .0263016
829.455 .0262823
830.147 .0262635
830.840 .0262444
831.531 .0262253
832.223 .0262061
832.914 .0261867
833.605 .0261676
834.296 .0261487
834.986 .0261301
835.676 .0261113
836.366 .0260923
837.055 .0260728
837.744 .0260525
838.433 .0260313
839.121 .0260093
839.809 .0259861
840.497 .0259623
841.185 .0259387
841.872 .0259155
842.559 .0258936
843.245 .0258733
843.932 .0258542
844.617 .0258365
845.303 .0258195
845.988 .0258037
846.673 .0257884
847.358 .0257742
848.042 .0257610
848.726 .0257487
849.410 .0257376
850.093 .0257271
850.776 .0257172
851.459 .0257077
852.141 .0256978
852.823 .0256873
853.505 .0256755
854.186 .0256625
854.867 .0256484
855.548 .0256333
856.228 .0256173
856.908 .0256009
857.588 .0255841
858.267 .0255673
858.946 .0255504
859.625 .0255333
860.303 .0255164
860.981 .0254998
861.659 .0254833
862.336 .0254667
863.013 .0254499
863.690 .0254338
864.366 .0254178
865.042 .0254020
865.718 .0253865
866.393 .0253713
867.068 .0253565
867.743 .0253418
868.417 .0253269
869.091 .0253121
869.765 .0252973
870.438 .0252827
871.111 .0252678
871.783 .0252533
872.456 .0252387
873.127 .0252242
873.799 .0252102
874.470 .0251966
875.141 .0251831
875.811 .0251698
876.481 .0251568
877.151 .0251444
877.820 .0251325
878.489 .0251210
879.158 .0251101
879.826 .0250999
880.494 .0250897
881.162 .0250794
881.829 .0250689
882.496 .0250583
883.163 .0250470
883.829 .0250356
884.495 .0250239
885.160 .0250130
885.825 .0250029
886.490 .0249938
887.154 .0249860
887.818 .0249791
888.482 .0249726
889.145 .0249663
889.808 .0249607
890.471 .0249551
891.133 .0249497
891.795 .0249450
892.456 .0249409
893.117 .0249377
893.778 .0249352
894.439 .0249339
895.099 .0249330
895.758 .0249324
896.417 .0249317
897.076 .0249308
897.735 .0249298
898.393 .0249285
899.051 .0249272
899.708 .0249257
900.365 .0249241
901.022 .0249220
901.678 .0249196
902.334 .0249168
902.990 .0249135
903.645 .0249098
904.300 .0249056
904.954 .0249013
905.608 .0248967
906.262 .0248921
906.915 .0248877
907.568 .0248829
908.221 .0248778
908.873 .0248722
909.525 .0248669
910.176 .0248615
910.828 .0248564
911.478 .0248520
912.129 .0248481
912.778 .0248448
913.428 .0248416
914.077 .0248385
914.726 .0248357
915.375 .0248331
916.023 .0248309
916.670 .0248292
917.318 .0248287
917.964 .0248289
918.611 .0248301
919.257 .0248320
919.903 .0248337
920.548 .0248345
921.193 .0248343
921.838 .0248330
922.482 .0248307
923.126 .0248279
923.770 .0248250
924.413 .0248225
925.056 .0248206
925.698 .0248191
926.340 .0248184
926.982 .0248177
927.623 .0248171
928.264 .0248160
928.904 .0248144
929.544 .0248125
930.184 .0248103
930.823 .0248079
931.462 .0248056
932.101 .0248032
932.739 .0248001
933.377 .0247956
934.014 .0247901
934.651 .0247832
935.288 .0247754
935.924 .0247669
936.560 .0247580
937.196 .0247488
937.831 .0247398
938.466 .0247303
939.100 .0247203
939.734 .0247099
940.368 .0246986
941.001 .0246862
941.634 .0246734
942.266 .0246605
942.899 .0246482
943.530 .0246367
944.162 .0246261
944.793 .0246161
945.423 .0246067
946.053 .0245969
946.683 .0245860
947.313 .0245738
947.942 .0245600
948.571 .0245443
949.199 .0245271
949.827 .0245083
950.455 .0244887
951.082 .0244691
951.709 .0244493
952.335 .0244297
952.961 .0244107
953.587 .0243923
954.212 .0243742
954.837 .0243570
955.462 .0243400
956.086 .0243236
956.710 .0243084
957.334 .0242941
957.957 .0242810
958.579 .0242697
959.202 .0242605
959.824 .0242532
960.445 .0242483
961.067 .0242451
961.688 .0242429
962.308 .0242417
962.928 .0242406
963.548 .0242387
964.168 .0242361
964.787 .0242326
965.406 .0242283
966.024 .0242236
966.642 .0242183
967.260 .0242129
967.877 .0242077
968.494 .0242021
969.110 .0241956
969.727 .0241881
970.342 .0241799
970.958 .0241706
971.573 .0241601
972.188 .0241488
972.802 .0241371
973.416 .0241255
974.030 .0241139
974.643 .0241027
975.256 .0240920
975.869 .0240817
976.481 .0240716
977.093 .0240619
977.705 .0240523
978.316 .0240427
978.927 .0240337
979.538 .0240247
980.148 .0240159
980.758 .0240067
981.367 .0239976
981.977 .0239891
982.586 .0239812
983.194 .0239740
983.802 .0239674
984.410 .0239615
985.018 .0239561
985.625 .0239503
986.232 .0239443
986.838 .0239379
987.445 .0239309
988.050 .0239232
988.656 .0239150
989.261 .0239063
989.866 .0238974
990.471 .0238885
991.075 .0238798
991.679 .0238712
992.282 .0238629
992.886 .0238548
993.489 .0238472
994.091 .0238404
994.694 .0238341
995.296 .0238277
995.897 .0238215
996.499 .0238146
997.100 .0238072
997.701 .0237996
998.301 .0237919
998.901 .0237851
999.501 .0237797
1000.101 .0237759
1000.700 .0237730
1001.299 .0237712
1001.898 .0237701
1002.496 .0237682
1003.094 .0237656
1003.692 .0237617
1004.289 .0237557
1004.887 .0237484
1005.484 .0237399
1006.080 .0237307
1006.677 .0237209
1007.273 .0237109
1007.868 .0237000
1008.464 .0236886
1009.059 .0236766
1009.654 .0236634
1010.249 .0236491
1010.843 .0236345
1011.437 .0236192
1012.031 .0236034
1012.625 .0235874
1013.218 .0235719
1013.811 .0235571
1014.404 .0235438
1014.997 .0235318
1015.589 .0235220
1016.181 .0235144
1016.773 .0235096
1017.365 .0235066
1017.956 .0235055
1018.547 .0235054
1019.138 .0235057
1019.728 .0235051
1020.319 .0235042
1020.909 .0235027
1021.499 .0235000
1022.088 .0234967
1022.678 .0234926
1023.267 .0234874
1023.856 .0234815
1024.445 .0234742
1025.033 .0234659
1025.621 .0234562
1026.209 .0234455
1026.797 .0234334
1027.385 .0234203
1027.972 .0234069
1028.560 .0233932
1029.147 .0233784
1029.734 .0233640
1030.320 .0233490
1030.907 .0233344
1031.493 .0233210
1032.079 .0233096
1032.665 .0233010
1033.250 .0232948
1033.836 .0232910
1034.421 .0232892
1035.006 .0232880
1035.591 .0232870
1036.176 .0232846
1036.761 .0232813
1037.345 .0232774
1037.929 .0232717
1038.514 .0232659
1039.097 .0232610
1039.681 .0232574
1040.265 .0232549
1040.848 .0232529
1041.432 .0232505
1042.015 .0232467
1042.598 .0232409
1043.181 .0232333
1043.764 .0232234
1044.346 .0232127
1044.929 .0232012
1045.511 .0231897
1046.094 .0231797
1046.676 .0231708
1047.258 .0231626
1047.840 .0231569
1048.422 .0231522
1049.003 .0231484
1049.585 .0231453
1050.166 .0231438
1050.748 .0231430
1051.329 .0231439
1051.910 .0231456
1052.491 .0231472
1053.072 .0231494
1053.653 .0231521
1054.234 .0231544
1054.815 .0231570
1055.396 .0231592
1055.976 .0231604
1056.557 .0231599
1057.138 .0231583
1057.718 .0231534
1058.298 .0231460
1058.879 .0231353
1059.459 .0231211
1060.039 .0231034
1060.620 .0230824
1061.200 .0230582
1061.780 .0230318
1062.360 .0230043
1062.940 .0229759
1063.520 .0229469
1064.101 .0229182
1064.681 .0228901
1065.261 .0228644
1065.841 .0228400
1066.421 .0228193
1067.001 .0228014
1067.581 .0227857
1068.161 .0227730
1068.741 .0227626
1069.321 .0227548
1069.901 .0227495
1070.482 .0227472
1071.062 .0227473
1071.642 .0227501
1072.222 .0227556
1072.803 .0227622
1073.383 .0227703
1073.963 .0227788
1074.544 .0227866
1075.124 .0227917
1075.705 .0227951
1076.286 .0227956
1076.866 .0227949
1077.447 .0227948
1078.028 .0227948
1078.609 .0227982
1079.190 .0228042
1079.771 .0228128
1080.352 .0228228
1080.934 .0228338
1081.515 .0228450
1082.097 .0228561
1082.679 .0228667
1083.260 .0228755
1083.842 .0228830
1084.424 .0228896
1085.007 .0228964
1085.589 .0229037
1086.172 .0229110
1086.754 .0229171
1087.337 .0229219
1087.920 .0229249
1088.503 .0229226
1089.087 .0229146
1089.670 .0229005
1090.254 .0228805
1090.838 .0228561
1091.422 .0228274
1092.006 .0227968
1092.590 .0227677
1093.175 .0227415
1093.760 .0227184
1094.345 .0226988
1094.930 .0226809
1095.516 .0226658
1096.102 .0226513
1096.688 .0226379
1097.274 .0226260
1097.860 .0226162
1098.447 .0226113
1099.034 .0226116
1099.622 .0226161
1100.209 .0226260
1100.797 .0226404
1101.385 .0226588
1101.973 .0226776
1102.562 .0226943
1103.151 .0227089
1103.740 .0227212
1104.330 .0227317
1104.920 .0227421
1105.510 .0227519
1106.101 .0227654
1106.691 .0227799
1107.283 .0227956
1107.874 .0228122
1108.466 .0228258
1109.058 .0228375
1109.651 .0228466
1110.244 .0228528
1110.837 .0228563
1111.431 .0228569
1112.025 .0228575
1112.620 .0228588
1113.215 .0228623
1113.810 .0228671
1114.406 .0228725
1115.002 .0228808
1115.599 .0228888
1116.196 .0228948
1116.793 .0229001
1117.391 .0229054
1117.989 .0229072
1118.588 .0229099
1119.187 .0229105
1119.787 .0229100
1120.387 .0229125
1120.988 .0229181
1121.589 .0229280
1122.190 .0229431
1122.793 .0229611
1123.395 .0229796
1123.998 .0229994
1124.602 .0230219
1125.206 .0230378
1125.811 .0230542
1126.416 .0230680
1127.022 .0230800
1127.628 .0230922
1128.235 .0231066
1128.843 .0231259
1129.451 .0231533
1130.059 .0231884
1130.669 .0232249
1131.278 .0232608
1131.889 .0232973
1132.500 .0233303
1133.112 .0233634
1133.724 .0233937
1134.337 .0234241
1134.950 .0234558
1135.564 .0234943
1136.179 .0235370
1136.795 .0235877
1137.411 .0236483
1138.028 .0237139
1138.645 .0237842
1139.263 .0238588
1139.882 .0239423
1140.502 .0240324
1141.122 .0241318
1141.743 .0242422
1142.365 .0243563
1142.987 .0245530
1143.611 .0245900
1144.235 .0247395
1144.859 .0249052
1145.485 .0249483
