Measurement Sequence started on: 10-20-44-796
Integration time: 35
Scans to Average: 2 
>>>>>Begin Spectral Data<<<<<
432.953 .0368931
433.882 .0331438
434.810 .0341940
435.737 .0357304
436.662 .0353408
437.586 .0347564
438.509 .0345409
439.431 .0343789
440.351 .0341596
441.269 .0339274
442.187 .0337386
443.103 .0335777
444.018 .0334667
444.932 .0333729
445.844 .0332705
446.756 .0331553
447.666 .0330251
448.575 .0328907
449.482 .0327612
450.388 .0326392
451.294 .0325330
452.198 .0324555
453.100 .0324026
454.002 .0323771
454.902 .0323710
455.801 .0323763
456.699 .0323869
457.596 .0324050
458.492 .0324221
459.387 .0324385
460.280 .0324554
461.172 .0324702
462.064 .0324902
462.954 .0325079
463.843 .0325279
464.730 .0325503
465.617 .0325705
466.503 .0325828
467.387 .0325833
468.271 .0325707
469.153 .0325474
470.035 .0325138
470.915 .0324757
471.794 .0324357
472.673 .0323960
473.550 .0323588
474.426 .0323281
475.301 .0323026
476.175 .0322808
477.048 .0322579
477.920 .0322379
478.791 .0322166
479.661 .0321932
480.530 .0321700
481.398 .0321471
482.266 .0321273
483.132 .0321100
483.997 .0320932
484.861 .0320790
485.724 .0320671
486.587 .0320565
487.448 .0320444
488.308 .0320315
489.168 .0320172
490.026 .0319990
490.884 .0319811
491.741 .0319621
492.597 .0319434
493.452 .0319270
494.306 .0319127
495.159 .0319008
496.011 .0318927
496.862 .0318855
497.713 .0318762
498.562 .0318607
499.411 .0318358
500.259 .0317977
501.106 .0317467
501.952 .0316844
502.798 .0316129
503.642 .0315338
504.486 .0314502
505.329 .0313613
506.171 .0312704
507.012 .0311778
507.852 .0310824
508.692 .0309846
509.531 .0308814
510.369 .0307723
511.206 .0306618
512.043 .0305497
512.878 .0304418
513.713 .0303402
514.547 .0302463
515.381 .0301568
516.213 .0300688
517.045 .0299750
517.876 .0298754
518.706 .0297662
519.536 .0296450
520.365 .0295092
521.193 .0293597
522.020 .0291976
522.847 .0290281
523.673 .0288583
524.498 .0286912
525.323 .0285252
526.146 .0283664
526.969 .0282071
527.792 .0280473
528.614 .0278829
529.435 .0277132
530.255 .0275397
531.075 .0273644
531.894 .0271898
532.712 .0270177
533.530 .0268571
534.347 .0267125
535.163 .0265812
535.979 .0264664
536.794 .0263667
537.608 .0262773
538.422 .0262003
539.235 .0261334
540.048 .0260713
540.860 .0260197
541.671 .0259815
542.481 .0259535
543.292 .0259408
544.101 .0259426
544.910 .0259642
545.718 .0260026
546.526 .0260599
547.333 .0261244
548.139 .0261943
548.945 .0262625
549.750 .0263210
550.555 .0263692
551.359 .0264107
552.162 .0264424
552.965 .0264733
553.768 .0265028
554.569 .0265366
555.371 .0265718
556.171 .0266142
556.972 .0266600
557.771 .0267090
558.570 .0267577
559.369 .0268060
560.167 .0268556
560.964 .0269140
561.761 .0269807
562.558 .0270642
563.354 .0271659
564.149 .0272846
564.944 .0274143
565.738 .0275521
566.532 .0276905
567.325 .0278237
568.118 .0279488
568.910 .0280626
569.702 .0281669
570.494 .0282661
571.285 .0283624
572.075 .0284607
572.865 .0285613
573.654 .0286625
574.443 .0287584
575.232 .0288501
576.020 .0289337
576.807 .0290082
577.594 .0290737
578.381 .0291305
579.167 .0291812
579.952 .0292275
580.738 .0292735
581.522 .0293204
582.307 .0293688
583.091 .0294205
583.874 .0294720
584.657 .0295204
585.440 .0295648
586.222 .0296037
587.004 .0296371
587.785 .0296648
588.566 .0296881
589.346 .0297082
590.126 .0297263
590.906 .0297439
591.685 .0297614
592.464 .0297765
593.242 .0297909
594.020 .0298021
594.797 .0298108
595.575 .0298165
596.351 .0298184
597.128 .0298181
597.904 .0298161
598.679 .0298120
599.454 .0298054
600.229 .0297973
601.004 .0297887
601.778 .0297789
602.551 .0297674
603.325 .0297544
604.097 .0297398
604.870 .0297239
605.642 .0297071
606.414 .0296899
607.185 .0296729
607.956 .0296561
608.727 .0296400
609.497 .0296253
610.267 .0296110
611.037 .0295978
611.806 .0295854
612.575 .0295742
613.344 .0295633
614.112 .0295524
614.880 .0295419
615.647 .0295318
616.414 .0295225
617.181 .0295137
617.948 .0295057
618.714 .0294986
619.480 .0294912
620.245 .0294832
621.011 .0294742
621.775 .0294638
622.540 .0294515
623.304 .0294375
624.068 .0294223
624.832 .0294063
625.595 .0293902
626.358 .0293746
627.120 .0293599
627.883 .0293448
628.645 .0293294
629.406 .0293121
630.168 .0292927
630.929 .0292713
631.689 .0292481
632.450 .0292232
633.210 .0291981
633.970 .0291733
634.729 .0291499
635.489 .0291285
636.248 .0291090
637.006 .0290912
637.765 .0290744
638.523 .0290578
639.280 .0290408
640.038 .0290236
640.795 .0290064
641.552 .0289894
642.309 .0289736
643.065 .0289593
643.821 .0289464
644.577 .0289356
645.332 .0289270
646.088 .0289200
646.843 .0289143
647.597 .0289084
648.352 .0289021
649.106 .0288957
649.860 .0288876
650.613 .0288783
651.367 .0288684
652.120 .0288582
652.872 .0288486
653.625 .0288398
654.377 .0288328
655.129 .0288267
655.881 .0288222
656.632 .0288181
657.384 .0288130
658.135 .0288069
658.885 .0287991
659.636 .0287897
660.386 .0287794
661.136 .0287680
661.885 .0287568
662.635 .0287464
663.384 .0287373
664.133 .0287286
664.881 .0287202
665.630 .0287111
666.378 .0287011
667.126 .0286892
667.874 .0286755
668.621 .0286603
669.368 .0286438
670.115 .0286267
670.862 .0286092
671.608 .0285924
672.354 .0285761
673.100 .0285601
673.846 .0285453
674.591 .0285303
675.337 .0285156
676.082 .0285008
676.826 .0284855
677.571 .0284703
678.315 .0284553
679.059 .0284406
679.803 .0284263
680.547 .0284127
681.290 .0284000
682.033 .0283875
682.776 .0283754
683.518 .0283627
684.261 .0283492
685.003 .0283353
685.745 .0283206
686.487 .0283050
687.228 .0282892
687.969 .0282728
688.710 .0282559
689.451 .0282390
690.192 .0282215
690.932 .0282028
691.672 .0281834
692.412 .0281630
693.152 .0281419
693.891 .0281203
694.630 .0280984
695.369 .0280770
696.108 .0280558
696.846 .0280354
697.585 .0280141
698.323 .0279928
699.061 .0279706
699.798 .0279474
700.536 .0279236
701.273 .0278988
702.010 .0278736
702.746 .0278481
703.483 .0278225
704.219 .0277972
704.955 .0277720
705.691 .0277477
706.427 .0277236
707.162 .0277008
707.897 .0276785
708.632 .0276577
709.367 .0276379
710.101 .0276198
710.835 .0276034
711.569 .0275883
712.303 .0275744
713.037 .0275614
713.770 .0275493
714.503 .0275378
715.236 .0275259
715.969 .0275140
716.702 .0275010
717.434 .0274873
718.166 .0274718
718.898 .0274547
719.629 .0274363
720.361 .0274169
721.092 .0273963
721.823 .0273755
722.554 .0273541
723.284 .0273322
724.014 .0273092
724.744 .0272858
725.474 .0272616
726.204 .0272369
726.933 .0272118
727.662 .0271870
728.391 .0271633
729.120 .0271410
729.849 .0271205
730.577 .0271022
731.305 .0270858
732.033 .0270709
732.760 .0270563
733.488 .0270426
734.215 .0270291
734.942 .0270156
735.669 .0270020
736.395 .0269889
737.122 .0269757
737.848 .0269624
738.573 .0269490
739.299 .0269356
740.024 .0269225
740.750 .0269095
741.474 .0268963
742.199 .0268832
742.924 .0268707
743.648 .0268585
744.372 .0268463
745.096 .0268350
745.819 .0268237
746.543 .0268125
747.266 .0268019
747.989 .0267919
748.711 .0267827
749.434 .0267748
750.156 .0267683
750.878 .0267630
751.599 .0267596
752.321 .0267577
753.042 .0267571
753.763 .0267580
754.484 .0267597
755.205 .0267619
755.925 .0267640
756.645 .0267658
757.365 .0267670
758.085 .0267674
758.804 .0267665
759.523 .0267640
760.242 .0267602
760.961 .0267547
761.679 .0267473
762.397 .0267381
763.115 .0267274
763.833 .0267147
764.551 .0267002
765.268 .0266837
765.985 .0266658
766.702 .0266464
767.418 .0266259
768.134 .0266052
768.850 .0265845
769.566 .0265642
770.282 .0265444
770.997 .0265255
771.712 .0265082
772.427 .0264921
773.142 .0264772
773.856 .0264635
774.570 .0264509
775.284 .0264392
775.998 .0264283
776.711 .0264185
777.424 .0264100
778.137 .0264024
778.849 .0263959
779.562 .0263903
780.274 .0263854
780.986 .0263814
781.697 .0263779
782.409 .0263748
783.120 .0263721
783.831 .0263690
784.541 .0263660
785.252 .0263631
785.962 .0263602
786.671 .0263572
787.381 .0263540
788.090 .0263509
788.799 .0263470
789.508 .0263418
790.217 .0263352
790.925 .0263269
791.633 .0263167
792.341 .0263044
793.048 .0262898
793.755 .0262737
794.462 .0262565
795.169 .0262386
795.875 .0262211
796.581 .0262041
797.287 .0261881
797.993 .0261733
798.698 .0261599
799.403 .0261476
800.108 .0261362
800.812 .0261259
801.517 .0261160
802.221 .0261069
802.924 .0260982
803.628 .0260902
804.331 .0260836
805.034 .0260781
805.736 .0260735
806.439 .0260699
807.141 .0260666
807.843 .0260631
808.544 .0260587
809.245 .0260524
809.946 .0260435
810.647 .0260321
811.347 .0260188
812.047 .0260032
812.747 .0259866
813.447 .0259697
814.146 .0259526
814.845 .0259366
815.543 .0259210
816.242 .0259055
816.940 .0258904
817.638 .0258750
818.335 .0258591
819.032 .0258429
819.729 .0258269
820.426 .0258115
821.122 .0257972
821.818 .0257845
822.514 .0257735
823.209 .0257644
823.905 .0257567
824.599 .0257494
825.294 .0257421
825.988 .0257341
826.682 .0257244
827.376 .0257132
828.069 .0257003
828.762 .0256855
829.455 .0256693
830.147 .0256518
830.840 .0256335
831.531 .0256143
832.223 .0255944
832.914 .0255738
833.605 .0255526
834.296 .0255308
834.986 .0255085
835.676 .0254863
836.366 .0254644
837.055 .0254431
837.744 .0254229
838.433 .0254038
839.121 .0253861
839.809 .0253702
840.497 .0253562
841.185 .0253441
841.872 .0253337
842.559 .0253251
843.245 .0253177
843.932 .0253114
844.617 .0253058
845.303 .0253004
845.988 .0252949
846.673 .0252885
847.358 .0252809
848.042 .0252720
848.726 .0252619
849.410 .0252505
850.093 .0252383
850.776 .0252256
851.459 .0252121
852.141 .0251979
852.823 .0251834
853.505 .0251686
854.186 .0251525
854.867 .0251354
855.548 .0251174
856.228 .0250986
856.908 .0250797
857.588 .0250606
858.267 .0250422
858.946 .0250247
859.625 .0250080
860.303 .0249923
860.981 .0249775
861.659 .0249636
862.336 .0249499
863.013 .0249365
863.690 .0249233
864.366 .0249099
865.042 .0248967
865.718 .0248841
866.393 .0248720
867.068 .0248603
867.743 .0248488
868.417 .0248374
869.091 .0248260
869.765 .0248144
870.438 .0248026
871.111 .0247912
871.783 .0247801
872.456 .0247692
873.127 .0247583
873.799 .0247474
874.470 .0247365
875.141 .0247248
875.811 .0247128
876.481 .0246999
877.151 .0246868
877.820 .0246737
878.489 .0246611
879.158 .0246492
879.826 .0246383
880.494 .0246281
881.162 .0246183
881.829 .0246083
882.496 .0245976
883.163 .0245861
883.829 .0245738
884.495 .0245609
885.160 .0245479
885.825 .0245350
886.490 .0245232
887.154 .0245121
887.818 .0245019
888.482 .0244927
889.145 .0244836
889.808 .0244751
890.471 .0244662
891.133 .0244572
891.795 .0244479
892.456 .0244385
893.117 .0244297
893.778 .0244214
894.439 .0244139
895.099 .0244068
895.758 .0243997
896.417 .0243926
897.076 .0243851
897.735 .0243773
898.393 .0243689
899.051 .0243601
899.708 .0243510
900.365 .0243415
901.022 .0243321
901.678 .0243232
902.334 .0243152
902.990 .0243079
903.645 .0243019
904.300 .0242963
904.954 .0242915
905.608 .0242873
906.262 .0242838
906.915 .0242811
907.568 .0242791
908.221 .0242774
908.873 .0242763
909.525 .0242758
910.176 .0242758
910.828 .0242758
911.478 .0242763
912.129 .0242763
912.778 .0242757
913.428 .0242742
914.077 .0242718
914.726 .0242686
915.375 .0242645
916.023 .0242596
916.670 .0242539
917.318 .0242472
917.964 .0242395
918.611 .0242303
919.257 .0242204
919.903 .0242091
920.548 .0241963
921.193 .0241827
921.838 .0241684
922.482 .0241536
923.126 .0241390
923.770 .0241248
924.413 .0241108
925.056 .0240974
925.698 .0240847
926.340 .0240726
926.982 .0240613
927.623 .0240508
928.264 .0240411
928.904 .0240322
929.544 .0240245
930.184 .0240171
930.823 .0240104
931.462 .0240043
932.101 .0239982
932.739 .0239925
933.377 .0239865
934.014 .0239796
934.651 .0239723
935.288 .0239636
935.924 .0239540
936.560 .0239427
937.196 .0239303
937.831 .0239162
938.466 .0239011
939.100 .0238848
939.734 .0238682
940.368 .0238518
941.001 .0238362
941.634 .0238212
942.266 .0238079
942.899 .0237956
943.530 .0237841
944.162 .0237730
944.793 .0237627
945.423 .0237517
946.053 .0237406
946.683 .0237292
947.313 .0237183
947.942 .0237079
948.571 .0236984
949.199 .0236897
949.827 .0236818
950.455 .0236740
951.082 .0236658
951.709 .0236571
952.335 .0236479
952.961 .0236374
953.587 .0236258
954.212 .0236134
954.837 .0236011
955.462 .0235887
956.086 .0235771
956.710 .0235667
957.334 .0235574
957.957 .0235486
958.579 .0235400
959.202 .0235317
959.824 .0235233
960.445 .0235148
961.067 .0235065
961.688 .0234982
962.308 .0234902
962.928 .0234822
963.548 .0234749
964.168 .0234684
964.787 .0234621
965.406 .0234560
966.024 .0234499
966.642 .0234439
967.260 .0234377
967.877 .0234313
968.494 .0234247
969.110 .0234181
969.727 .0234113
970.342 .0234045
970.958 .0233980
971.573 .0233923
972.188 .0233875
972.802 .0233837
973.416 .0233809
974.030 .0233782
974.643 .0233753
975.256 .0233723
975.869 .0233684
976.481 .0233641
977.093 .0233592
977.705 .0233543
978.316 .0233499
978.927 .0233465
979.538 .0233442
980.148 .0233430
980.758 .0233429
981.367 .0233435
981.977 .0233441
982.586 .0233446
983.194 .0233445
983.802 .0233440
984.410 .0233432
985.018 .0233426
985.625 .0233423
986.232 .0233425
986.838 .0233430
987.445 .0233439
988.050 .0233446
988.656 .0233448
989.261 .0233440
989.866 .0233416
990.471 .0233381
991.075 .0233333
991.679 .0233273
992.282 .0233207
992.886 .0233144
993.489 .0233088
994.091 .0233043
994.694 .0233014
995.296 .0232997
995.897 .0232987
996.499 .0232987
997.100 .0232987
997.701 .0232991
998.301 .0232996
998.901 .0233006
999.501 .0233023
1000.101 .0233052
1000.700 .0233088
1001.299 .0233136
1001.898 .0233189
1002.496 .0233248
1003.094 .0233300
1003.692 .0233348
1004.289 .0233385
1004.887 .0233413
1005.484 .0233427
1006.080 .0233432
1006.677 .0233423
1007.273 .0233405
1007.868 .0233376
1008.464 .0233344
1009.059 .0233309
1009.654 .0233276
1010.249 .0233247
1010.843 .0233231
1011.437 .0233214
1012.031 .0233199
1012.625 .0233179
1013.218 .0233155
1013.811 .0233121
1014.404 .0233082
1014.997 .0233042
1015.589 .0233007
1016.181 .0232988
1016.773 .0232988
1017.365 .0233012
1017.956 .0233056
1018.547 .0233107
1019.138 .0233159
1019.728 .0233202
1020.319 .0233233
1020.909 .0233251
1021.499 .0233266
1022.088 .0233285
1022.678 .0233311
1023.267 .0233355
1023.856 .0233409
1024.445 .0233473
1025.033 .0233536
1025.621 .0233586
1026.209 .0233613
1026.797 .0233611
1027.385 .0233579
1027.972 .0233529
1028.560 .0233471
1029.147 .0233412
1029.734 .0233369
1030.320 .0233342
1030.907 .0233331
1031.493 .0233339
1032.079 .0233358
1032.665 .0233388
1033.250 .0233423
1033.836 .0233468
1034.421 .0233516
1035.006 .0233568
1035.591 .0233633
1036.176 .0233701
1036.761 .0233785
1037.345 .0233871
1037.929 .0233952
1038.514 .0234028
1039.097 .0234095
1039.681 .0234157
1040.265 .0234204
1040.848 .0234240
1041.432 .0234258
1042.015 .0234265
1042.598 .0234250
1043.181 .0234214
1043.764 .0234162
1044.346 .0234100
1044.929 .0234030
1045.511 .0233959
1046.094 .0233894
1046.676 .0233843
1047.258 .0233807
1047.840 .0233787
1048.422 .0233773
1049.003 .0233765
1049.585 .0233742
1050.166 .0233711
1050.748 .0233669
1051.329 .0233618
1051.910 .0233555
1052.491 .0233486
1053.072 .0233420
1053.653 .0233356
1054.234 .0233286
1054.815 .0233204
1055.396 .0233107
1055.976 .0232998
1056.557 .0232864
1057.138 .0232719
1057.718 .0232565
1058.298 .0232413
1058.879 .0232265
1059.459 .0232116
1060.039 .0231958
1060.620 .0231793
1061.200 .0231610
1061.780 .0231409
1062.360 .0231198
1062.940 .0230975
1063.520 .0230753
1064.101 .0230555
1064.681 .0230389
1065.261 .0230257
1065.841 .0230156
1066.421 .0230085
1067.001 .0230031
1067.581 .0229991
1068.161 .0229953
1068.741 .0229917
1069.321 .0229901
1069.901 .0229905
1070.482 .0229926
1071.062 .0229968
1071.642 .0230031
1072.222 .0230101
1072.803 .0230178
1073.383 .0230245
1073.963 .0230304
1074.544 .0230359
1075.124 .0230402
1075.705 .0230430
1076.286 .0230456
1076.866 .0230477
1077.447 .0230490
1078.028 .0230503
1078.609 .0230523
1079.190 .0230543
1079.771 .0230578
1080.352 .0230625
1080.934 .0230677
1081.515 .0230749
1082.097 .0230824
1082.679 .0230880
1083.260 .0230914
1083.842 .0230915
1084.424 .0230864
1085.007 .0230772
1085.589 .0230651
1086.172 .0230498
1086.754 .0230332
1087.337 .0230172
1087.920 .0230010
1088.503 .0229857
1089.087 .0229721
1089.670 .0229584
1090.254 .0229430
1090.838 .0229291
1091.422 .0229143
1092.006 .0228990
1092.590 .0228883
1093.175 .0228816
1093.760 .0228776
1094.345 .0228792
1094.930 .0228816
1095.516 .0228836
1096.102 .0228859
1096.688 .0228865
1097.274 .0228845
1097.860 .0228824
1098.447 .0228804
1099.034 .0228762
1099.622 .0228715
1100.209 .0228681
1100.797 .0228609
1101.385 .0228530
1101.973 .0228434
1102.562 .0228286
1103.151 .0228110
1103.740 .0227902
1104.330 .0227660
1104.920 .0227425
1105.510 .0227205
1106.101 .0226995
1106.691 .0226805
1107.283 .0226653
1107.874 .0226536
1108.466 .0226416
1109.058 .0226335
1109.651 .0226265
1110.244 .0226193
1110.837 .0226146
1111.431 .0226094
1112.025 .0226076
1112.620 .0226105
1113.215 .0226180
1113.810 .0226317
1114.406 .0226505
1115.002 .0226743
1115.599 .0227003
1116.196 .0227252
1116.793 .0227494
1117.391 .0227686
1117.989 .0227819
1118.588 .0227912
1119.187 .0227941
1119.787 .0227936
1120.387 .0227907
1120.988 .0227862
1121.589 .0227827
1122.190 .0227769
1122.793 .0227700
1123.395 .0227616
1123.998 .0227547
1124.602 .0227498
1125.206 .0227479
1125.811 .0227487
1126.416 .0227501
1127.022 .0227497
1127.628 .0227473
1128.235 .0227392
1128.843 .0227306
1129.451 .0227252
1130.059 .0227234
1130.669 .0227294
1131.278 .0227486
1131.889 .0227771
1132.500 .0228178
1133.112 .0228647
1133.724 .0229135
1134.337 .0229609
1134.950 .0230055
1135.564 .0230463
1136.179 .0230889
1136.795 .0231402
1137.411 .0232007
1138.028 .0232717
1138.645 .0233544
1139.263 .0234448
1139.882 .0235375
1140.502 .0236345
1141.122 .0237306
1141.743 .0238196
1142.365 .0238778
1142.987 .0239031
1143.611 .0241225
1144.235 .0242202
1144.859 .0241610
1145.485 .0235314
