Measurement Sequence started on: 10-20-44-796
Integration time: 35
Scans to Average: 2 
>>>>>Begin Spectral Data<<<<<
432.953 .0194234
433.882 .0352513
434.810 .0333516
435.737 .0339152
436.662 .0346880
437.586 .0348548
438.509 .0357674
439.431 .0361359
440.351 .0365336
441.269 .0368672
442.187 .0371354
443.103 .0373450
444.018 .0374949
444.932 .0375881
445.844 .0376564
446.756 .0376650
447.666 .0376513
448.575 .0376063
449.482 .0375502
450.388 .0374894
451.294 .0374323
452.198 .0373781
453.100 .0373280
454.002 .0372819
454.902 .0372304
455.801 .0371710
456.699 .0371149
457.596 .0370474
458.492 .0369772
459.387 .0369054
460.280 .0368427
461.172 .0367812
462.064 .0367289
462.954 .0366771
463.843 .0366227
464.730 .0365614
465.617 .0364909
466.503 .0364134
467.387 .0363288
468.271 .0362397
469.153 .0361476
470.035 .0360564
470.915 .0359769
471.794 .0358999
472.673 .0358320
473.550 .0357732
474.426 .0357238
475.301 .0356773
476.175 .0356344
477.048 .0355972
477.920 .0355633
478.791 .0355293
479.661 .0354936
480.530 .0354598
481.398 .0354258
482.266 .0353947
483.132 .0353663
483.997 .0353389
484.861 .0353171
485.724 .0353004
486.587 .0352893
487.448 .0352816
488.308 .0352747
489.168 .0352688
490.026 .0352600
490.884 .0352516
491.741 .0352369
492.597 .0352183
493.452 .0352024
494.306 .0351890
495.159 .0351775
496.011 .0351698
496.862 .0351658
497.713 .0351611
498.562 .0351522
499.411 .0351353
500.259 .0351058
501.106 .0350667
501.952 .0350181
502.798 .0349632
503.642 .0349043
504.486 .0348468
505.329 .0347884
506.171 .0347283
507.012 .0346696
507.852 .0346060
508.692 .0345347
509.531 .0344565
510.369 .0343712
511.206 .0342804
512.043 .0341872
512.878 .0340952
513.713 .0340031
514.547 .0339130
515.381 .0338198
516.213 .0337200
517.045 .0336083
517.876 .0334812
518.706 .0333373
519.536 .0331835
520.365 .0330277
521.193 .0328689
522.020 .0327128
522.847 .0325645
523.673 .0324160
524.498 .0322630
525.323 .0320977
526.146 .0319221
526.969 .0317377
527.792 .0315442
528.614 .0313407
529.435 .0311416
530.255 .0309576
531.075 .0307917
531.894 .0306405
532.712 .0305064
533.530 .0303833
534.347 .0302674
535.163 .0301547
535.979 .0300474
536.794 .0299457
537.608 .0298595
538.422 .0297830
539.235 .0297187
540.048 .0296673
540.860 .0296300
541.671 .0295999
542.481 .0295800
543.292 .0295573
544.101 .0295339
544.910 .0295121
545.718 .0294965
546.526 .0294833
547.333 .0294816
548.139 .0294910
548.945 .0295096
549.750 .0295326
550.555 .0295624
551.359 .0295890
552.162 .0296201
552.965 .0296494
553.768 .0296737
554.569 .0296948
555.371 .0297162
556.171 .0297343
556.972 .0297547
557.771 .0297761
558.570 .0297974
559.369 .0298223
560.167 .0298530
560.964 .0298843
561.761 .0299210
562.558 .0299679
563.354 .0300259
564.149 .0300898
564.944 .0301650
565.738 .0302477
566.532 .0303365
567.325 .0304320
568.118 .0305270
568.910 .0306202
569.702 .0307128
570.494 .0308034
571.285 .0308877
572.075 .0309706
572.865 .0310518
573.654 .0311280
574.443 .0312015
575.232 .0312720
576.020 .0313348
576.807 .0313906
577.594 .0314408
578.381 .0314847
579.167 .0315213
579.952 .0315591
580.738 .0315958
581.522 .0316348
582.307 .0316763
583.091 .0317210
583.874 .0317669
584.657 .0318140
585.440 .0318578
586.222 .0318962
587.004 .0319284
587.785 .0319550
588.566 .0319729
589.346 .0319856
590.126 .0319934
590.906 .0319964
591.685 .0319959
592.464 .0319928
593.242 .0319866
594.020 .0319783
594.797 .0319691
595.575 .0319590
596.351 .0319477
597.128 .0319375
597.904 .0319275
598.679 .0319185
599.454 .0319096
600.229 .0319010
601.004 .0318918
601.778 .0318830
602.551 .0318725
603.325 .0318600
604.097 .0318471
604.870 .0318329
605.642 .0318180
606.414 .0318020
607.185 .0317850
607.956 .0317670
608.727 .0317485
609.497 .0317296
610.267 .0317097
611.037 .0316898
611.806 .0316700
612.575 .0316505
613.344 .0316321
614.112 .0316151
614.880 .0315996
615.647 .0315855
616.414 .0315728
617.181 .0315603
617.948 .0315483
618.714 .0315363
619.480 .0315246
620.245 .0315132
621.011 .0315021
621.775 .0314915
622.540 .0314815
623.304 .0314716
624.068 .0314626
624.832 .0314531
625.595 .0314430
626.358 .0314318
627.120 .0314188
627.883 .0314033
628.645 .0313862
629.406 .0313677
630.168 .0313484
630.929 .0313288
631.689 .0313097
632.450 .0312905
633.210 .0312726
633.970 .0312546
634.729 .0312361
635.489 .0312166
636.248 .0311960
637.006 .0311727
637.765 .0311485
638.523 .0311234
639.280 .0310973
640.038 .0310703
640.795 .0310434
641.552 .0310159
642.309 .0309889
643.065 .0309622
643.821 .0309358
644.577 .0309090
645.332 .0308827
646.088 .0308554
646.843 .0308289
647.597 .0308025
648.352 .0307766
649.106 .0307512
649.860 .0307259
650.613 .0307006
651.367 .0306758
652.120 .0306515
652.872 .0306281
653.625 .0306060
654.377 .0305858
655.129 .0305662
655.881 .0305481
656.632 .0305304
657.384 .0305136
658.135 .0304969
658.885 .0304795
659.636 .0304608
660.386 .0304416
661.136 .0304224
661.885 .0304032
662.635 .0303847
663.384 .0303673
664.133 .0303501
664.881 .0303334
665.630 .0303164
666.378 .0302995
667.126 .0302822
667.874 .0302648
668.621 .0302467
669.368 .0302278
670.115 .0302080
670.862 .0301872
671.608 .0301662
672.354 .0301452
673.100 .0301240
673.846 .0301029
674.591 .0300824
675.337 .0300634
676.082 .0300452
676.826 .0300281
677.571 .0300122
678.315 .0299971
679.059 .0299826
679.803 .0299687
680.547 .0299554
681.290 .0299428
682.033 .0299305
682.776 .0299182
683.518 .0299052
684.261 .0298910
685.003 .0298754
685.745 .0298580
686.487 .0298390
687.228 .0298182
687.969 .0297954
688.710 .0297715
689.451 .0297464
690.192 .0297204
690.932 .0296939
691.672 .0296664
692.412 .0296380
693.152 .0296095
693.891 .0295804
694.630 .0295521
695.369 .0295248
696.108 .0294994
696.846 .0294762
697.585 .0294548
698.323 .0294358
699.061 .0294180
699.798 .0294013
700.536 .0293847
701.273 .0293677
702.010 .0293503
702.746 .0293320
703.483 .0293132
704.219 .0292943
704.955 .0292755
705.691 .0292568
706.427 .0292381
707.162 .0292198
707.897 .0292018
708.632 .0291840
709.367 .0291660
710.101 .0291488
710.835 .0291313
711.569 .0291138
712.303 .0290962
713.037 .0290794
713.770 .0290631
714.503 .0290474
715.236 .0290329
715.969 .0290191
716.702 .0290060
717.434 .0289930
718.166 .0289793
718.898 .0289649
719.629 .0289494
720.361 .0289326
721.092 .0289144
721.823 .0288955
722.554 .0288758
723.284 .0288555
724.014 .0288353
724.744 .0288150
725.474 .0287943
726.204 .0287736
726.933 .0287532
727.662 .0287326
728.391 .0287123
729.120 .0286929
729.849 .0286745
730.577 .0286580
731.305 .0286427
732.033 .0286285
732.760 .0286154
733.488 .0286034
734.215 .0285917
734.942 .0285802
735.669 .0285692
736.395 .0285582
737.122 .0285474
737.848 .0285368
738.573 .0285264
739.299 .0285166
740.024 .0285068
740.750 .0284975
741.474 .0284877
742.199 .0284776
742.924 .0284670
743.648 .0284561
744.372 .0284445
745.096 .0284326
745.819 .0284203
746.543 .0284080
747.266 .0283962
747.989 .0283851
748.711 .0283749
749.434 .0283663
750.156 .0283589
750.878 .0283525
751.599 .0283468
752.321 .0283420
753.042 .0283373
753.763 .0283330
754.484 .0283291
755.205 .0283253
755.925 .0283225
756.645 .0283197
757.365 .0283163
758.085 .0283124
758.804 .0283069
759.523 .0282992
760.242 .0282886
760.961 .0282751
761.679 .0282585
762.397 .0282389
763.115 .0282176
763.833 .0281942
764.551 .0281697
765.268 .0281446
765.985 .0281189
766.702 .0280925
767.418 .0280656
768.134 .0280378
768.850 .0280101
769.566 .0279827
770.282 .0279561
770.997 .0279306
771.712 .0279069
772.427 .0278853
773.142 .0278652
773.856 .0278467
774.570 .0278296
775.284 .0278130
775.998 .0277971
776.711 .0277814
777.424 .0277658
778.137 .0277504
778.849 .0277352
779.562 .0277201
780.274 .0277050
780.986 .0276897
781.697 .0276748
782.409 .0276604
783.120 .0276472
783.831 .0276350
784.541 .0276239
785.252 .0276143
785.962 .0276055
786.671 .0275965
787.381 .0275871
788.090 .0275769
788.799 .0275656
789.508 .0275527
790.217 .0275386
790.925 .0275238
791.633 .0275083
792.341 .0274924
793.048 .0274764
793.755 .0274598
794.462 .0274425
795.169 .0274240
795.875 .0274045
796.581 .0273846
797.287 .0273646
797.993 .0273450
798.698 .0273267
799.403 .0273102
800.108 .0272950
800.812 .0272814
801.517 .0272698
802.221 .0272595
802.924 .0272502
803.628 .0272416
804.331 .0272338
805.034 .0272267
805.736 .0272200
806.439 .0272132
807.141 .0272063
807.843 .0271991
808.544 .0271902
809.245 .0271794
809.946 .0271672
810.647 .0271534
811.347 .0271380
812.047 .0271219
812.747 .0271048
813.447 .0270873
814.146 .0270691
814.845 .0270506
815.543 .0270319
816.242 .0270135
816.940 .0269953
817.638 .0269779
818.335 .0269619
819.032 .0269475
819.729 .0269344
820.426 .0269232
821.122 .0269133
821.818 .0269040
822.514 .0268951
823.209 .0268864
823.905 .0268776
824.599 .0268691
825.294 .0268607
825.988 .0268524
826.682 .0268444
827.376 .0268368
828.069 .0268285
828.762 .0268196
829.455 .0268102
830.147 .0267998
830.840 .0267887
831.531 .0267773
832.223 .0267654
832.914 .0267539
833.605 .0267428
834.296 .0267320
834.986 .0267217
835.676 .0267122
836.366 .0267035
837.055 .0266956
837.744 .0266883
838.433 .0266820
839.121 .0266769
839.809 .0266732
840.497 .0266703
841.185 .0266679
841.872 .0266658
842.559 .0266639
843.245 .0266615
843.932 .0266584
844.617 .0266544
845.303 .0266498
845.988 .0266447
846.673 .0266393
847.358 .0266337
848.042 .0266283
848.726 .0266230
849.410 .0266179
850.093 .0266125
850.776 .0266069
851.459 .0266013
852.141 .0265956
852.823 .0265898
853.505 .0265838
854.186 .0265780
854.867 .0265727
855.548 .0265683
856.228 .0265650
856.908 .0265626
857.588 .0265613
858.267 .0265606
858.946 .0265602
859.625 .0265592
860.303 .0265570
860.981 .0265539
861.659 .0265496
862.336 .0265440
863.013 .0265372
863.690 .0265299
864.366 .0265225
865.042 .0265151
865.718 .0265076
866.393 .0264999
867.068 .0264920
867.743 .0264838
868.417 .0264748
869.091 .0264648
869.765 .0264546
870.438 .0264435
871.111 .0264324
871.783 .0264211
872.456 .0264093
873.127 .0263975
873.799 .0263860
874.470 .0263747
875.141 .0263637
875.811 .0263533
876.481 .0263439
877.151 .0263351
877.820 .0263280
878.489 .0263216
879.158 .0263165
879.826 .0263123
880.494 .0263090
881.162 .0263060
881.829 .0263042
882.496 .0263023
883.163 .0263010
883.829 .0263003
884.495 .0262999
885.160 .0262997
885.825 .0262998
886.490 .0263000
887.154 .0262998
887.818 .0262987
888.482 .0262969
889.145 .0262934
889.808 .0262893
890.471 .0262842
891.133 .0262786
891.795 .0262730
892.456 .0262676
893.117 .0262622
893.778 .0262571
894.439 .0262526
895.099 .0262482
895.758 .0262438
896.417 .0262394
897.076 .0262351
897.735 .0262310
898.393 .0262272
899.051 .0262240
899.708 .0262209
900.365 .0262187
901.022 .0262167
901.678 .0262151
902.334 .0262139
902.990 .0262135
903.645 .0262140
904.300 .0262151
904.954 .0262170
905.608 .0262190
906.262 .0262214
906.915 .0262238
907.568 .0262256
908.221 .0262268
908.873 .0262272
909.525 .0262268
910.176 .0262257
910.828 .0262240
911.478 .0262216
912.129 .0262179
912.778 .0262133
913.428 .0262073
914.077 .0261993
914.726 .0261896
915.375 .0261785
916.023 .0261667
916.670 .0261552
917.318 .0261437
917.964 .0261326
918.611 .0261220
919.257 .0261115
919.903 .0261006
920.548 .0260891
921.193 .0260774
921.838 .0260651
922.482 .0260527
923.126 .0260407
923.770 .0260289
924.413 .0260180
925.056 .0260075
925.698 .0259970
926.340 .0259861
926.982 .0259746
927.623 .0259621
928.264 .0259487
928.904 .0259343
929.544 .0259191
930.184 .0259032
930.823 .0258875
931.462 .0258720
932.101 .0258567
932.739 .0258423
933.377 .0258285
934.014 .0258149
934.651 .0258018
935.288 .0257884
935.924 .0257748
936.560 .0257608
937.196 .0257468
937.831 .0257319
938.466 .0257166
939.100 .0257012
939.734 .0256854
940.368 .0256693
941.001 .0256535
941.634 .0256375
942.266 .0256216
942.899 .0256054
943.530 .0255885
944.162 .0255705
944.793 .0255517
945.423 .0255313
946.053 .0255088
946.683 .0254849
947.313 .0254597
947.942 .0254326
948.571 .0254046
949.199 .0253756
949.827 .0253459
950.455 .0253161
951.082 .0252871
951.709 .0252587
952.335 .0252311
952.961 .0252047
953.587 .0251793
954.212 .0251547
954.837 .0251308
955.462 .0251076
956.086 .0250856
956.710 .0250654
957.334 .0250465
957.957 .0250290
958.579 .0250135
959.202 .0249997
959.824 .0249871
960.445 .0249751
961.067 .0249633
961.688 .0249515
962.308 .0249392
962.928 .0249263
963.548 .0249124
964.168 .0248980
964.787 .0248831
965.406 .0248675
966.024 .0248515
966.642 .0248351
967.260 .0248181
967.877 .0248009
968.494 .0247837
969.110 .0247659
969.727 .0247476
970.342 .0247298
970.958 .0247127
971.573 .0246964
972.188 .0246811
972.802 .0246667
973.416 .0246535
974.030 .0246410
974.643 .0246291
975.256 .0246181
975.869 .0246082
976.481 .0245995
977.093 .0245920
977.705 .0245860
978.316 .0245817
978.927 .0245791
979.538 .0245780
980.148 .0245779
980.758 .0245781
981.367 .0245781
981.977 .0245780
982.586 .0245776
983.194 .0245765
983.802 .0245741
984.410 .0245709
985.018 .0245668
985.625 .0245619
986.232 .0245564
986.838 .0245508
987.445 .0245452
988.050 .0245393
988.656 .0245328
989.261 .0245255
989.866 .0245166
990.471 .0245064
991.075 .0244946
991.679 .0244813
992.282 .0244666
992.886 .0244513
993.489 .0244367
994.091 .0244232
994.694 .0244112
995.296 .0244010
995.897 .0243916
996.499 .0243827
997.100 .0243732
997.701 .0243636
998.301 .0243534
998.901 .0243432
999.501 .0243330
1000.101 .0243241
1000.700 .0243164
1001.299 .0243105
1001.898 .0243058
1002.496 .0243026
1003.094 .0242998
1003.692 .0242967
1004.289 .0242931
1004.887 .0242891
1005.484 .0242843
1006.080 .0242789
1006.677 .0242725
1007.273 .0242657
1007.868 .0242575
1008.464 .0242492
1009.059 .0242405
1009.654 .0242317
1010.249 .0242235
1010.843 .0242159
1011.437 .0242091
1012.031 .0242036
1012.625 .0241994
1013.218 .0241961
1013.811 .0241935
1014.404 .0241917
1014.997 .0241903
1015.589 .0241893
1016.181 .0241890
1016.773 .0241890
1017.365 .0241894
1017.956 .0241903
1018.547 .0241911
1019.138 .0241921
1019.728 .0241938
1020.319 .0241963
1020.909 .0241990
1021.499 .0242017
1022.088 .0242046
1022.678 .0242067
1023.267 .0242084
1023.856 .0242094
1024.445 .0242097
1025.033 .0242097
1025.621 .0242093
1026.209 .0242095
1026.797 .0242105
1027.385 .0242127
1027.972 .0242161
1028.560 .0242201
1029.147 .0242244
1029.734 .0242289
1030.320 .0242327
1030.907 .0242363
1031.493 .0242399
1032.079 .0242441
1032.665 .0242489
1033.250 .0242552
1033.836 .0242629
1034.421 .0242717
1035.006 .0242811
1035.591 .0242907
1036.176 .0242989
1036.761 .0243062
1037.345 .0243126
1037.929 .0243179
1038.514 .0243237
1039.097 .0243308
1039.681 .0243389
1040.265 .0243483
1040.848 .0243592
1041.432 .0243698
1042.015 .0243797
1042.598 .0243877
1043.181 .0243932
1043.764 .0243963
1044.346 .0243980
1044.929 .0243988
1045.511 .0244001
1046.094 .0244029
1046.676 .0244073
1047.258 .0244122
1047.840 .0244189
1048.422 .0244254
1049.003 .0244309
1049.585 .0244358
1050.166 .0244395
1050.748 .0244417
1051.329 .0244437
1051.910 .0244464
1052.491 .0244496
1053.072 .0244543
1053.653 .0244600
1054.234 .0244657
1054.815 .0244708
1055.396 .0244750
1055.976 .0244768
1056.557 .0244770
1057.138 .0244764
1057.718 .0244735
1058.298 .0244693
1058.879 .0244650
1059.459 .0244596
1060.039 .0244540
1060.620 .0244479
1061.200 .0244411
1061.780 .0244330
1062.360 .0244244
1062.940 .0244153
1063.520 .0244056
1064.101 .0243968
1064.681 .0243894
1065.261 .0243836
1065.841 .0243799
1066.421 .0243777
1067.001 .0243768
1067.581 .0243773
1068.161 .0243789
1068.741 .0243802
1069.321 .0243818
1069.901 .0243852
1070.482 .0243900
1071.062 .0243973
1071.642 .0244075
1072.222 .0244213
1072.803 .0244388
1073.383 .0244594
1073.963 .0244812
1074.544 .0245036
1075.124 .0245253
1075.705 .0245466
1076.286 .0245666
1076.866 .0245854
1077.447 .0246043
1078.028 .0246235
1078.609 .0246431
1079.190 .0246632
1079.771 .0246836
1080.352 .0247039
1080.934 .0247230
1081.515 .0247402
1082.097 .0247532
1082.679 .0247618
1083.260 .0247671
1083.842 .0247685
1084.424 .0247674
1085.007 .0247641
1085.589 .0247598
1086.172 .0247571
1086.754 .0247563
1087.337 .0247572
1087.920 .0247603
1088.503 .0247655
1089.087 .0247715
1089.670 .0247755
1090.254 .0247781
1090.838 .0247777
1091.422 .0247744
1092.006 .0247683
1092.590 .0247593
1093.175 .0247482
1093.760 .0247352
1094.345 .0247203
1094.930 .0247044
1095.516 .0246879
1096.102 .0246716
1096.688 .0246547
1097.274 .0246400
1097.860 .0246274
1098.447 .0246170
1099.034 .0246099
1099.622 .0246078
1100.209 .0246083
1100.797 .0246129
1101.385 .0246203
1101.973 .0246319
1102.562 .0246471
1103.151 .0246674
1103.740 .0246918
1104.330 .0247201
1104.920 .0247529
1105.510 .0247881
1106.101 .0248225
1106.691 .0248569
1107.283 .0248861
1107.874 .0249116
1108.466 .0249308
1109.058 .0249462
1109.651 .0249577
1110.244 .0249688
1110.837 .0249789
1111.431 .0249903
1112.025 .0250024
1112.620 .0250176
1113.215 .0250333
1113.810 .0250520
1114.406 .0250736
1115.002 .0250954
1115.599 .0251160
1116.196 .0251333
1116.793 .0251448
1117.391 .0251508
1117.989 .0251484
1118.588 .0251409
1119.187 .0251253
1119.787 .0251069
1120.387 .0250849
1120.988 .0250636
1121.589 .0250440
1122.190 .0250244
1122.793 .0250054
1123.395 .0249862
1123.998 .0249653
1124.602 .0249403
1125.206 .0249120
1125.811 .0248844
1126.416 .0248596
1127.022 .0248403
1127.628 .0248293
1128.235 .0248277
1128.843 .0248367
1129.451 .0248567
1130.059 .0248806
1130.669 .0249121
1131.278 .0249454
1131.889 .0249780
1132.500 .0250103
1133.112 .0250351
1133.724 .0250593
1134.337 .0250812
1134.950 .0251020
1135.564 .0251234
1136.179 .0251459
1136.795 .0251739
1137.411 .0252078
1138.028 .0252505
1138.645 .0253029
1139.263 .0253613
1139.882 .0254238
1140.502 .0254880
1141.122 .0255598
1141.743 .0256541
1142.365 .0257504
1142.987 .0256594
1143.611 .0258285
1144.235 .0260841
1144.859 .0266119
1145.485 .0263452
