Measurement Sequence started on: 10-20-44-796
Integration time: 35
Scans to Average: 2 
>>>>>Begin Spectral Data<<<<<
432.953 .0441705
433.882 .0412917
434.810 .0379902
435.737 .0384244
436.662 .0377057
437.586 .0381755
438.509 .0377215
439.431 .0374077
440.351 .0371973
441.269 .0369631
442.187 .0367465
443.103 .0365308
444.018 .0363292
444.932 .0361475
445.844 .0359793
446.756 .0358341
447.666 .0356971
448.575 .0355576
449.482 .0354427
450.388 .0353372
451.294 .0352479
452.198 .0351721
453.100 .0351066
454.002 .0350514
454.902 .0350145
455.801 .0349911
456.699 .0349809
457.596 .0349835
458.492 .0349912
459.387 .0349913
460.280 .0349894
461.172 .0349806
462.064 .0349587
462.954 .0349262
463.843 .0348893
464.730 .0348463
465.617 .0347986
466.503 .0347507
467.387 .0347019
468.271 .0346523
469.153 .0346046
470.035 .0345548
470.915 .0345068
471.794 .0344607
472.673 .0344174
473.550 .0343814
474.426 .0343535
475.301 .0343337
476.175 .0343205
477.048 .0343108
477.920 .0343079
478.791 .0343072
479.661 .0343076
480.530 .0343103
481.398 .0343135
482.266 .0343203
483.132 .0343296
483.997 .0343415
484.861 .0343570
485.724 .0343737
486.587 .0343892
487.448 .0343996
488.308 .0343986
489.168 .0343905
490.026 .0343752
490.884 .0343537
491.741 .0343295
492.597 .0343039
493.452 .0342811
494.306 .0342613
495.159 .0342432
496.011 .0342289
496.862 .0342097
497.713 .0341847
498.562 .0341481
499.411 .0340995
500.259 .0340379
501.106 .0339677
501.952 .0338936
502.798 .0338206
503.642 .0337484
504.486 .0336775
505.329 .0336044
506.171 .0335289
507.012 .0334457
507.852 .0333490
508.692 .0332356
509.531 .0331079
510.369 .0329645
511.206 .0328139
512.043 .0326598
512.878 .0325051
513.713 .0323543
514.547 .0322106
515.381 .0320711
516.213 .0319327
517.045 .0317991
517.876 .0316644
518.706 .0315262
519.536 .0313882
520.365 .0312492
521.193 .0311067
522.020 .0309637
522.847 .0308217
523.673 .0306816
524.498 .0305395
525.323 .0303956
526.146 .0302549
526.969 .0301190
527.792 .0299755
528.614 .0298247
529.435 .0296674
530.255 .0295086
531.075 .0293424
531.894 .0291740
532.712 .0290046
533.530 .0288436
534.347 .0286909
535.163 .0285442
535.979 .0284172
536.794 .0283135
537.608 .0282219
538.422 .0281495
539.235 .0280954
540.048 .0280510
540.860 .0280158
541.671 .0279959
542.481 .0279903
543.292 .0279972
544.101 .0280137
544.910 .0280442
545.718 .0280888
546.526 .0281433
547.333 .0282015
548.139 .0282607
548.945 .0283265
549.750 .0283865
550.555 .0284417
551.359 .0284938
552.162 .0285437
552.965 .0285956
553.768 .0286450
554.569 .0286943
555.371 .0287407
556.171 .0287795
556.972 .0288134
557.771 .0288413
558.570 .0288631
559.369 .0288827
560.167 .0289036
560.964 .0289300
561.761 .0289606
562.558 .0289962
563.354 .0290375
564.149 .0290849
564.944 .0291361
565.738 .0291854
566.532 .0292326
567.325 .0292795
568.118 .0293259
568.910 .0293774
569.702 .0294338
570.494 .0294994
571.285 .0295739
572.075 .0296553
572.865 .0297376
573.654 .0298216
574.443 .0299061
575.232 .0299879
576.020 .0300678
576.807 .0301463
577.594 .0302232
578.381 .0303025
579.167 .0303832
579.952 .0304658
580.738 .0305496
581.522 .0306334
582.307 .0307101
583.091 .0307795
583.874 .0308394
584.657 .0308892
585.440 .0309304
586.222 .0309653
587.004 .0309950
587.785 .0310210
588.566 .0310441
589.346 .0310647
590.126 .0310836
590.906 .0310998
591.685 .0311119
592.464 .0311195
593.242 .0311217
594.020 .0311185
594.797 .0311111
595.575 .0311016
596.351 .0310913
597.128 .0310812
597.904 .0310720
598.679 .0310641
599.454 .0310566
600.229 .0310495
601.004 .0310424
601.778 .0310338
602.551 .0310236
603.325 .0310110
604.097 .0309967
604.870 .0309812
605.642 .0309649
606.414 .0309482
607.185 .0309313
607.956 .0309144
608.727 .0308962
609.497 .0308767
610.267 .0308561
611.037 .0308342
611.806 .0308103
612.575 .0307848
613.344 .0307582
614.112 .0307302
614.880 .0307016
615.647 .0306721
616.414 .0306431
617.181 .0306146
617.948 .0305859
618.714 .0305580
619.480 .0305309
620.245 .0305048
621.011 .0304788
621.775 .0304532
622.540 .0304288
623.304 .0304046
624.068 .0303807
624.832 .0303570
625.595 .0303343
626.358 .0303120
627.120 .0302903
627.883 .0302689
628.645 .0302486
629.406 .0302279
630.168 .0302064
630.929 .0301846
631.689 .0301619
632.450 .0301385
633.210 .0301139
633.970 .0300890
634.729 .0300641
635.489 .0300387
636.248 .0300137
637.006 .0299889
637.765 .0299649
638.523 .0299412
639.280 .0299173
640.038 .0298937
640.795 .0298706
641.552 .0298472
642.309 .0298246
643.065 .0298028
643.821 .0297822
644.577 .0297630
645.332 .0297447
646.088 .0297281
646.843 .0297123
647.597 .0296976
648.352 .0296835
649.106 .0296704
649.860 .0296588
650.613 .0296480
651.367 .0296388
652.120 .0296309
652.872 .0296232
653.625 .0296155
654.377 .0296071
655.129 .0295977
655.881 .0295871
656.632 .0295747
657.384 .0295613
658.135 .0295472
658.885 .0295325
659.636 .0295181
660.386 .0295043
661.136 .0294914
661.885 .0294785
662.635 .0294652
663.384 .0294514
664.133 .0294368
664.881 .0294215
665.630 .0294055
666.378 .0293899
667.126 .0293751
667.874 .0293608
668.621 .0293478
669.368 .0293364
670.115 .0293261
670.862 .0293166
671.608 .0293073
672.354 .0292981
673.100 .0292887
673.846 .0292789
674.591 .0292696
675.337 .0292607
676.082 .0292519
676.826 .0292431
677.571 .0292340
678.315 .0292246
679.059 .0292143
679.803 .0292037
680.547 .0291924
681.290 .0291806
682.033 .0291683
682.776 .0291545
683.518 .0291398
684.261 .0291242
685.003 .0291073
685.745 .0290893
686.487 .0290708
687.228 .0290514
687.969 .0290309
688.710 .0290106
689.451 .0289901
690.192 .0289696
690.932 .0289492
691.672 .0289285
692.412 .0289067
693.152 .0288844
693.891 .0288610
694.630 .0288367
695.369 .0288123
696.108 .0287877
696.846 .0287627
697.585 .0287378
698.323 .0287132
699.061 .0286889
699.798 .0286648
700.536 .0286413
701.273 .0286178
702.010 .0285948
702.746 .0285717
703.483 .0285491
704.219 .0285270
704.955 .0285059
705.691 .0284855
706.427 .0284661
707.162 .0284476
707.897 .0284305
708.632 .0284144
709.367 .0283993
710.101 .0283844
710.835 .0283696
711.569 .0283538
712.303 .0283370
713.037 .0283191
713.770 .0283003
714.503 .0282798
715.236 .0282586
715.969 .0282364
716.702 .0282140
717.434 .0281914
718.166 .0281686
718.898 .0281452
719.629 .0281216
720.361 .0280970
721.092 .0280717
721.823 .0280456
722.554 .0280189
723.284 .0279914
724.014 .0279633
724.744 .0279345
725.474 .0279051
726.204 .0278755
726.933 .0278465
727.662 .0278180
728.391 .0277900
729.120 .0277626
729.849 .0277359
730.577 .0277103
731.305 .0276855
732.033 .0276614
732.760 .0276378
733.488 .0276149
734.215 .0275926
734.942 .0275713
735.669 .0275510
736.395 .0275319
737.122 .0275138
737.848 .0274967
738.573 .0274797
739.299 .0274629
740.024 .0274463
740.750 .0274301
741.474 .0274141
742.199 .0273984
742.924 .0273826
743.648 .0273674
744.372 .0273526
745.096 .0273384
745.819 .0273249
746.543 .0273120
747.266 .0272998
747.989 .0272886
748.711 .0272783
749.434 .0272690
750.156 .0272604
750.878 .0272531
751.599 .0272463
752.321 .0272402
753.042 .0272341
753.763 .0272286
754.484 .0272233
755.205 .0272180
755.925 .0272128
756.645 .0272069
757.365 .0272006
758.085 .0271939
758.804 .0271858
759.523 .0271769
760.242 .0271664
760.961 .0271548
761.679 .0271420
762.397 .0271281
763.115 .0271128
763.833 .0270965
764.551 .0270789
765.268 .0270607
765.985 .0270412
766.702 .0270212
767.418 .0270010
768.134 .0269810
768.850 .0269620
769.566 .0269440
770.282 .0269272
770.997 .0269123
771.712 .0268983
772.427 .0268854
773.142 .0268732
773.856 .0268621
774.570 .0268522
775.284 .0268430
775.998 .0268348
776.711 .0268274
777.424 .0268209
778.137 .0268155
778.849 .0268104
779.562 .0268055
780.274 .0268005
780.986 .0267954
781.697 .0267900
782.409 .0267846
783.120 .0267793
783.831 .0267746
784.541 .0267703
785.252 .0267665
785.962 .0267628
786.671 .0267597
787.381 .0267568
788.090 .0267543
788.799 .0267517
789.508 .0267484
790.217 .0267442
790.925 .0267395
791.633 .0267338
792.341 .0267271
793.048 .0267197
793.755 .0267113
794.462 .0267018
795.169 .0266919
795.875 .0266820
796.581 .0266725
797.287 .0266637
797.993 .0266556
798.698 .0266478
799.403 .0266404
800.108 .0266329
800.812 .0266252
801.517 .0266175
802.221 .0266094
802.924 .0266009
803.628 .0265925
804.331 .0265850
805.034 .0265780
805.736 .0265716
806.439 .0265659
807.141 .0265606
807.843 .0265551
808.544 .0265490
809.245 .0265420
809.946 .0265341
810.647 .0265253
811.347 .0265155
812.047 .0265051
812.747 .0264950
813.447 .0264852
814.146 .0264763
814.845 .0264684
815.543 .0264619
816.242 .0264560
816.940 .0264509
817.638 .0264463
818.335 .0264417
819.032 .0264363
819.729 .0264306
820.426 .0264239
821.122 .0264166
821.818 .0264081
822.514 .0263989
823.209 .0263893
823.905 .0263793
824.599 .0263686
825.294 .0263578
825.988 .0263465
826.682 .0263345
827.376 .0263213
828.069 .0263070
828.762 .0262915
829.455 .0262751
830.147 .0262580
830.840 .0262409
831.531 .0262240
832.223 .0262081
832.914 .0261929
833.605 .0261793
834.296 .0261666
834.986 .0261547
835.676 .0261433
836.366 .0261322
837.055 .0261210
837.744 .0261100
838.433 .0260988
839.121 .0260877
839.809 .0260764
840.497 .0260654
841.185 .0260545
841.872 .0260437
842.559 .0260329
843.245 .0260224
843.932 .0260119
844.617 .0260012
845.303 .0259900
845.988 .0259785
846.673 .0259667
847.358 .0259549
848.042 .0259428
848.726 .0259307
849.410 .0259188
850.093 .0259070
850.776 .0258951
851.459 .0258836
852.141 .0258715
852.823 .0258589
853.505 .0258457
854.186 .0258314
854.867 .0258159
855.548 .0258000
856.228 .0257838
856.908 .0257681
857.588 .0257532
858.267 .0257391
858.946 .0257256
859.625 .0257134
860.303 .0257014
860.981 .0256897
861.659 .0256781
862.336 .0256667
863.013 .0256551
863.690 .0256440
864.366 .0256329
865.042 .0256221
865.718 .0256122
866.393 .0256020
867.068 .0255913
867.743 .0255797
868.417 .0255668
869.091 .0255522
869.765 .0255365
870.438 .0255198
871.111 .0255019
871.783 .0254836
872.456 .0254650
873.127 .0254461
873.799 .0254272
874.470 .0254079
875.141 .0253885
875.811 .0253689
876.481 .0253497
877.151 .0253310
877.820 .0253131
878.489 .0252970
879.158 .0252822
879.826 .0252690
880.494 .0252570
881.162 .0252457
881.829 .0252348
882.496 .0252238
883.163 .0252127
883.829 .0252010
884.495 .0251885
885.160 .0251762
885.825 .0251642
886.490 .0251526
887.154 .0251415
887.818 .0251305
888.482 .0251203
889.145 .0251102
889.808 .0250995
890.471 .0250887
891.133 .0250774
891.795 .0250659
892.456 .0250541
893.117 .0250420
893.778 .0250304
894.439 .0250193
895.099 .0250089
895.758 .0249992
896.417 .0249896
897.076 .0249806
897.735 .0249714
898.393 .0249627
899.051 .0249538
899.708 .0249445
900.365 .0249354
901.022 .0249266
901.678 .0249181
902.334 .0249098
902.990 .0249015
903.645 .0248934
904.300 .0248852
904.954 .0248767
905.608 .0248677
906.262 .0248587
906.915 .0248500
907.568 .0248416
908.221 .0248334
908.873 .0248260
909.525 .0248189
910.176 .0248119
910.828 .0248046
911.478 .0247963
912.129 .0247866
912.778 .0247758
913.428 .0247639
914.077 .0247512
914.726 .0247382
915.375 .0247253
916.023 .0247130
916.670 .0247011
917.318 .0246893
917.964 .0246770
918.611 .0246637
919.257 .0246487
919.903 .0246317
920.548 .0246127
921.193 .0245924
921.838 .0245713
922.482 .0245506
923.126 .0245311
923.770 .0245130
924.413 .0244969
925.056 .0244826
925.698 .0244695
926.340 .0244581
926.982 .0244472
927.623 .0244372
928.264 .0244281
928.904 .0244199
929.544 .0244127
930.184 .0244067
930.823 .0244022
931.462 .0243990
932.101 .0243968
932.739 .0243951
933.377 .0243926
934.014 .0243893
934.651 .0243846
935.288 .0243780
935.924 .0243696
936.560 .0243600
937.196 .0243489
937.831 .0243368
938.466 .0243238
939.100 .0243108
939.734 .0242971
940.368 .0242835
941.001 .0242699
941.634 .0242558
942.266 .0242417
942.899 .0242272
943.530 .0242127
944.162 .0241985
944.793 .0241845
945.423 .0241702
946.053 .0241556
946.683 .0241414
947.313 .0241268
947.942 .0241119
948.571 .0240973
949.199 .0240827
949.827 .0240677
950.455 .0240528
951.082 .0240383
951.709 .0240241
952.335 .0240105
952.961 .0239973
953.587 .0239844
954.212 .0239716
954.837 .0239594
955.462 .0239478
956.086 .0239372
956.710 .0239284
957.334 .0239206
957.957 .0239141
958.579 .0239089
959.202 .0239041
959.824 .0238994
960.445 .0238942
961.067 .0238883
961.688 .0238813
962.308 .0238737
962.928 .0238662
963.548 .0238585
964.168 .0238515
964.787 .0238450
965.406 .0238388
966.024 .0238327
966.642 .0238261
967.260 .0238190
967.877 .0238112
968.494 .0238030
969.110 .0237941
969.727 .0237844
970.342 .0237753
970.958 .0237668
971.573 .0237590
972.188 .0237524
972.802 .0237468
973.416 .0237419
974.030 .0237383
974.643 .0237350
975.256 .0237319
975.869 .0237287
976.481 .0237253
977.093 .0237218
977.705 .0237182
978.316 .0237144
978.927 .0237105
979.538 .0237073
980.148 .0237043
980.758 .0237009
981.367 .0236977
981.977 .0236955
982.586 .0236938
983.194 .0236930
983.802 .0236927
984.410 .0236928
985.018 .0236939
985.625 .0236952
986.232 .0236956
986.838 .0236962
987.445 .0236962
988.050 .0236960
988.656 .0236957
989.261 .0236958
989.866 .0236956
990.471 .0236961
991.075 .0236975
991.679 .0236991
992.282 .0237003
992.886 .0237016
993.489 .0237024
994.091 .0237029
994.694 .0237032
995.296 .0237030
995.897 .0237028
996.499 .0237040
997.100 .0237053
997.701 .0237080
998.301 .0237115
998.901 .0237167
999.501 .0237229
1000.101 .0237299
1000.700 .0237382
1001.299 .0237468
1001.898 .0237561
1002.496 .0237657
1003.094 .0237743
1003.692 .0237826
1004.289 .0237902
1004.887 .0237972
1005.484 .0238041
1006.080 .0238111
1006.677 .0238183
1007.273 .0238256
1007.868 .0238331
1008.464 .0238409
1009.059 .0238482
1009.654 .0238549
1010.249 .0238612
1010.843 .0238663
1011.437 .0238713
1012.031 .0238752
1012.625 .0238784
1013.218 .0238811
1013.811 .0238825
1014.404 .0238830
1014.997 .0238823
1015.589 .0238807
1016.181 .0238782
1016.773 .0238746
1017.365 .0238716
1017.956 .0238690
1018.547 .0238672
1019.138 .0238664
1019.728 .0238670
1020.319 .0238687
1020.909 .0238712
1021.499 .0238738
1022.088 .0238767
1022.678 .0238799
1023.267 .0238836
1023.856 .0238871
1024.445 .0238908
1025.033 .0238948
1025.621 .0238991
1026.209 .0239038
1026.797 .0239089
1027.385 .0239136
1027.972 .0239181
1028.560 .0239220
1029.147 .0239253
1029.734 .0239274
1030.320 .0239288
1030.907 .0239297
1031.493 .0239302
1032.079 .0239308
1032.665 .0239310
1033.250 .0239314
1033.836 .0239336
1034.421 .0239365
1035.006 .0239412
1035.591 .0239466
1036.176 .0239534
1036.761 .0239608
1037.345 .0239684
1037.929 .0239760
1038.514 .0239829
1039.097 .0239891
1039.681 .0239949
1040.265 .0239991
1040.848 .0240028
1041.432 .0240053
1042.015 .0240082
1042.598 .0240118
1043.181 .0240160
1043.764 .0240201
1044.346 .0240244
1044.929 .0240280
1045.511 .0240315
1046.094 .0240325
1046.676 .0240318
1047.258 .0240288
1047.840 .0240234
1048.422 .0240155
1049.003 .0240053
1049.585 .0239943
1050.166 .0239839
1050.748 .0239738
1051.329 .0239653
1051.910 .0239563
1052.491 .0239474
1053.072 .0239383
1053.653 .0239281
1054.234 .0239172
1054.815 .0239054
1055.396 .0238932
1055.976 .0238814
1056.557 .0238700
1057.138 .0238601
1057.718 .0238523
1058.298 .0238479
1058.879 .0238467
1059.459 .0238475
1060.039 .0238500
1060.620 .0238525
1061.200 .0238546
1061.780 .0238558
1062.360 .0238545
1062.940 .0238515
1063.520 .0238476
1064.101 .0238433
1064.681 .0238390
1065.261 .0238349
1065.841 .0238317
1066.421 .0238302
1067.001 .0238289
1067.581 .0238272
1068.161 .0238231
1068.741 .0238175
1069.321 .0238087
1069.901 .0237969
1070.482 .0237823
1071.062 .0237663
1071.642 .0237492
1072.222 .0237327
1072.803 .0237170
1073.383 .0237033
1073.963 .0236909
1074.544 .0236807
1075.124 .0236718
1075.705 .0236645
1076.286 .0236585
1076.866 .0236542
1077.447 .0236508
1078.028 .0236502
1078.609 .0236511
1079.190 .0236546
1079.771 .0236602
1080.352 .0236673
1080.934 .0236749
1081.515 .0236838
1082.097 .0236928
1082.679 .0237018
1083.260 .0237107
1083.842 .0237193
1084.424 .0237261
1085.007 .0237309
1085.589 .0237327
1086.172 .0237323
1086.754 .0237294
1087.337 .0237237
1087.920 .0237156
1088.503 .0237065
1089.087 .0236968
1089.670 .0236870
1090.254 .0236793
1090.838 .0236722
1091.422 .0236656
1092.006 .0236587
1092.590 .0236518
1093.175 .0236441
1093.760 .0236356
1094.345 .0236257
1094.930 .0236163
1095.516 .0236067
1096.102 .0235984
1096.688 .0235900
1097.274 .0235849
1097.860 .0235823
1098.447 .0235818
1099.034 .0235809
1099.622 .0235820
1100.209 .0235833
1100.797 .0235858
1101.385 .0235874
1101.973 .0235909
1102.562 .0235924
1103.151 .0235935
1103.740 .0235925
1104.330 .0235904
1104.920 .0235850
1105.510 .0235792
1106.101 .0235678
1106.691 .0235545
1107.283 .0235376
1107.874 .0235180
1108.466 .0234963
1109.058 .0234778
1109.651 .0234598
1110.244 .0234411
1110.837 .0234220
1111.431 .0234057
1112.025 .0233875
1112.620 .0233715
1113.215 .0233553
1113.810 .0233407
1114.406 .0233291
1115.002 .0233208
1115.599 .0233134
1116.196 .0233106
1116.793 .0233105
1117.391 .0233110
1117.989 .0233092
1118.588 .0233079
1119.187 .0233050
1119.787 .0233038
1120.387 .0233074
1120.988 .0233168
1121.589 .0233317
1122.190 .0233534
1122.793 .0233813
1123.395 .0234134
1123.998 .0234477
1124.602 .0234822
1125.206 .0235165
1125.811 .0235498
1126.416 .0235813
1127.022 .0236132
1127.628 .0236474
1128.235 .0236847
1128.843 .0237258
1129.451 .0237665
1130.059 .0238052
1130.669 .0238408
1131.278 .0238734
1131.889 .0238992
1132.500 .0239192
1133.112 .0239308
1133.724 .0239361
1134.337 .0239396
1134.950 .0239405
1135.564 .0239409
1136.179 .0239472
1136.795 .0239627
1137.411 .0239821
1138.028 .0240071
1138.645 .0240367
1139.263 .0240706
1139.882 .0241046
1140.502 .0241411
1141.122 .0241879
1141.743 .0242503
1142.365 .0243110
1142.987 .0241976
1143.611 .0244138
1144.235 .0247585
1144.859 .0249326
1145.485 .0244955
