Measurement Sequence started on: 10-20-44-796
Integration time: 35
Scans to Average: 2 
>>>>>Begin Spectral Data<<<<<
432.953 .0295249
433.882 .0406884
434.810 .0382192
435.737 .0378819
436.662 .0364748
437.586 .0379298
438.509 .0381855
439.431 .0380854
440.351 .0380451
441.269 .0379905
442.187 .0379488
443.103 .0378517
444.018 .0377744
444.932 .0377203
445.844 .0376721
446.756 .0376088
447.666 .0375358
448.575 .0374242
449.482 .0372822
450.388 .0371363
451.294 .0369937
452.198 .0368615
453.100 .0367500
454.002 .0366529
454.902 .0365758
455.801 .0365081
456.699 .0364394
457.596 .0363699
458.492 .0362926
459.387 .0362058
460.280 .0361168
461.172 .0360255
462.064 .0359410
462.954 .0358617
463.843 .0357946
464.730 .0357399
465.617 .0356938
466.503 .0356545
467.387 .0356233
468.271 .0356042
469.153 .0355941
470.035 .0355862
470.915 .0355867
471.794 .0355925
472.673 .0355941
473.550 .0355996
474.426 .0356092
475.301 .0356256
476.175 .0356485
477.048 .0356709
477.920 .0356902
478.791 .0357053
479.661 .0357112
480.530 .0357052
481.398 .0356896
482.266 .0356693
483.132 .0356412
483.997 .0356162
484.861 .0355967
485.724 .0355834
486.587 .0355768
487.448 .0355756
488.308 .0355717
489.168 .0355635
490.026 .0355453
490.884 .0355203
491.741 .0354909
492.597 .0354613
493.452 .0354311
494.306 .0354051
495.159 .0353865
496.011 .0353688
496.862 .0353501
497.713 .0353229
498.562 .0352800
499.411 .0352171
500.259 .0351318
501.106 .0350263
501.952 .0349076
502.798 .0347833
503.642 .0346585
504.486 .0345372
505.329 .0344222
506.171 .0343132
507.012 .0342064
507.852 .0341006
508.692 .0339975
509.531 .0338865
510.369 .0337735
511.206 .0336585
512.043 .0335460
512.878 .0334367
513.713 .0333393
514.547 .0332520
515.381 .0331682
516.213 .0330898
517.045 .0330043
517.876 .0329026
518.706 .0327851
519.536 .0326428
520.365 .0324753
521.193 .0322901
522.020 .0320917
522.847 .0318795
523.673 .0316682
524.498 .0314536
525.323 .0312337
526.146 .0310132
526.969 .0307930
527.792 .0305715
528.614 .0303539
529.435 .0301585
530.255 .0299808
531.075 .0298317
531.894 .0297213
532.712 .0296471
533.530 .0296042
534.347 .0295840
535.163 .0295746
535.979 .0295701
536.794 .0295590
537.608 .0295380
538.422 .0294998
539.235 .0294586
540.048 .0294078
540.860 .0293502
541.671 .0292917
542.481 .0292484
543.292 .0292025
544.101 .0291556
544.910 .0291125
545.718 .0290716
546.526 .0290281
547.333 .0289889
548.139 .0289579
548.945 .0289436
549.750 .0289426
550.555 .0289571
551.359 .0289780
552.162 .0290199
552.965 .0290720
553.768 .0291266
554.569 .0291889
555.371 .0292557
556.171 .0293189
556.972 .0293866
557.771 .0294539
558.570 .0295163
559.369 .0295732
560.167 .0296268
560.964 .0296750
561.761 .0297196
562.558 .0297681
563.354 .0298223
564.149 .0298811
564.944 .0299515
565.738 .0300252
566.532 .0301063
567.325 .0301943
568.118 .0302848
568.910 .0303770
569.702 .0304666
570.494 .0305575
571.285 .0306453
572.075 .0307351
572.865 .0308249
573.654 .0309079
574.443 .0309862
575.232 .0310583
576.020 .0311259
576.807 .0311890
577.594 .0312502
578.381 .0313114
579.167 .0313755
579.952 .0314413
580.738 .0315081
581.522 .0315770
582.307 .0316448
583.091 .0317098
583.874 .0317706
584.657 .0318273
585.440 .0318821
586.222 .0319344
587.004 .0319863
587.785 .0320359
588.566 .0320834
589.346 .0321253
590.126 .0321590
590.906 .0321849
591.685 .0322038
592.464 .0322167
593.242 .0322263
594.020 .0322327
594.797 .0322390
595.575 .0322444
596.351 .0322481
597.128 .0322493
597.904 .0322473
598.679 .0322410
599.454 .0322305
600.229 .0322169
601.004 .0322027
601.778 .0321894
602.551 .0321788
603.325 .0321708
604.097 .0321659
604.870 .0321619
605.642 .0321563
606.414 .0321484
607.185 .0321374
607.956 .0321233
608.727 .0321079
609.497 .0320927
610.267 .0320769
611.037 .0320612
611.806 .0320443
612.575 .0320257
613.344 .0320042
614.112 .0319787
614.880 .0319488
615.647 .0319154
616.414 .0318804
617.181 .0318452
617.948 .0318118
618.714 .0317828
619.480 .0317583
620.245 .0317382
621.011 .0317204
621.775 .0317040
622.540 .0316889
623.304 .0316747
624.068 .0316612
624.832 .0316477
625.595 .0316349
626.358 .0316236
627.120 .0316129
627.883 .0316026
628.645 .0315929
629.406 .0315833
630.168 .0315733
630.929 .0315618
631.689 .0315487
632.450 .0315333
633.210 .0315167
633.970 .0314978
634.729 .0314768
635.489 .0314528
636.248 .0314258
637.006 .0313966
637.765 .0313663
638.523 .0313350
639.280 .0313040
640.038 .0312746
640.795 .0312476
641.552 .0312222
642.309 .0311986
643.065 .0311748
643.821 .0311511
644.577 .0311256
645.332 .0310975
646.088 .0310668
646.843 .0310344
647.597 .0310014
648.352 .0309692
649.106 .0309392
649.860 .0309109
650.613 .0308855
651.367 .0308629
652.120 .0308420
652.872 .0308220
653.625 .0308027
654.377 .0307835
655.129 .0307644
655.881 .0307457
656.632 .0307275
657.384 .0307107
658.135 .0306963
658.885 .0306829
659.636 .0306711
660.386 .0306600
661.136 .0306494
661.885 .0306387
662.635 .0306286
663.384 .0306179
664.133 .0306070
664.881 .0305951
665.630 .0305828
666.378 .0305701
667.126 .0305568
667.874 .0305426
668.621 .0305284
669.368 .0305129
670.115 .0304967
670.862 .0304803
671.608 .0304647
672.354 .0304493
673.100 .0304352
673.846 .0304217
674.591 .0304092
675.337 .0303978
676.082 .0303873
676.826 .0303770
677.571 .0303681
678.315 .0303588
679.059 .0303490
679.803 .0303392
680.547 .0303290
681.290 .0303178
682.033 .0303058
682.776 .0302928
683.518 .0302781
684.261 .0302619
685.003 .0302450
685.745 .0302262
686.487 .0302075
687.228 .0301876
687.969 .0301665
688.710 .0301453
689.451 .0301241
690.192 .0301029
690.932 .0300827
691.672 .0300639
692.412 .0300461
693.152 .0300301
693.891 .0300159
694.630 .0300031
695.369 .0299920
696.108 .0299815
696.846 .0299713
697.585 .0299616
698.323 .0299528
699.061 .0299441
699.798 .0299367
700.536 .0299301
701.273 .0299228
702.010 .0299155
702.746 .0299064
703.483 .0298953
704.219 .0298825
704.955 .0298669
705.691 .0298484
706.427 .0298279
707.162 .0298064
707.897 .0297838
708.632 .0297616
709.367 .0297398
710.101 .0297173
710.835 .0296944
711.569 .0296707
712.303 .0296452
713.037 .0296186
713.770 .0295919
714.503 .0295641
715.236 .0295366
715.969 .0295099
716.702 .0294831
717.434 .0294580
718.166 .0294340
718.898 .0294104
719.629 .0293861
720.361 .0293619
721.092 .0293363
721.823 .0293085
722.554 .0292799
723.284 .0292502
724.014 .0292194
724.744 .0291892
725.474 .0291595
726.204 .0291315
726.933 .0291059
727.662 .0290827
728.391 .0290603
729.120 .0290394
729.849 .0290185
730.577 .0289970
731.305 .0289754
732.033 .0289547
732.760 .0289332
733.488 .0289130
734.215 .0288950
734.942 .0288791
735.669 .0288646
736.395 .0288519
737.122 .0288402
737.848 .0288292
738.573 .0288175
739.299 .0288049
740.024 .0287903
740.750 .0287752
741.474 .0287579
742.199 .0287386
742.924 .0287183
743.648 .0286970
744.372 .0286743
745.096 .0286519
745.819 .0286292
746.543 .0286074
747.266 .0285858
747.989 .0285665
748.711 .0285478
749.434 .0285297
750.156 .0285122
750.878 .0284947
751.599 .0284781
752.321 .0284628
753.042 .0284480
753.763 .0284359
754.484 .0284262
755.205 .0284188
755.925 .0284132
756.645 .0284093
757.365 .0284054
758.085 .0284010
758.804 .0283942
759.523 .0283846
760.242 .0283712
760.961 .0283553
761.679 .0283365
762.397 .0283155
763.115 .0282932
763.833 .0282693
764.551 .0282450
765.268 .0282209
765.985 .0281959
766.702 .0281714
767.418 .0281467
768.134 .0281223
768.850 .0280982
769.566 .0280756
770.282 .0280547
770.997 .0280367
771.712 .0280217
772.427 .0280095
773.142 .0279997
773.856 .0279919
774.570 .0279852
775.284 .0279794
775.998 .0279733
776.711 .0279667
777.424 .0279586
778.137 .0279502
778.849 .0279401
779.562 .0279293
780.274 .0279182
780.986 .0279070
781.697 .0278963
782.409 .0278855
783.120 .0278747
783.831 .0278648
784.541 .0278557
785.252 .0278474
785.962 .0278396
786.671 .0278335
787.381 .0278280
788.090 .0278240
788.799 .0278215
789.508 .0278207
790.217 .0278214
790.925 .0278236
791.633 .0278265
792.341 .0278295
793.048 .0278325
793.755 .0278340
794.462 .0278340
795.169 .0278326
795.875 .0278286
796.581 .0278220
797.287 .0278128
797.993 .0278018
798.698 .0277891
799.403 .0277749
800.108 .0277596
800.812 .0277430
801.517 .0277262
802.221 .0277089
802.924 .0276915
803.628 .0276743
804.331 .0276582
805.034 .0276428
805.736 .0276282
806.439 .0276150
807.141 .0276029
807.843 .0275924
808.544 .0275831
809.245 .0275747
809.946 .0275670
810.647 .0275597
811.347 .0275533
812.047 .0275469
812.747 .0275415
813.447 .0275366
814.146 .0275324
814.845 .0275296
815.543 .0275282
816.242 .0275280
816.940 .0275282
817.638 .0275288
818.335 .0275292
819.032 .0275286
819.729 .0275271
820.426 .0275238
821.122 .0275193
821.818 .0275130
822.514 .0275052
823.209 .0274950
823.905 .0274836
824.599 .0274697
825.294 .0274535
825.988 .0274344
826.682 .0274130
827.376 .0273886
828.069 .0273619
828.762 .0273337
829.455 .0273044
830.147 .0272743
830.840 .0272454
831.531 .0272173
832.223 .0271920
832.914 .0271688
833.605 .0271482
834.296 .0271297
834.986 .0271135
835.676 .0270982
836.366 .0270834
837.055 .0270682
837.744 .0270524
838.433 .0270350
839.121 .0270170
839.809 .0269984
840.497 .0269800
841.185 .0269628
841.872 .0269467
842.559 .0269320
843.245 .0269191
843.932 .0269076
844.617 .0268969
845.303 .0268859
845.988 .0268748
846.673 .0268630
847.358 .0268509
848.042 .0268389
848.726 .0268279
849.410 .0268185
850.093 .0268104
850.776 .0268036
851.459 .0267973
852.141 .0267908
852.823 .0267832
853.505 .0267744
854.186 .0267634
854.867 .0267502
855.548 .0267350
856.228 .0267182
856.908 .0267010
857.588 .0266832
858.267 .0266652
858.946 .0266468
859.625 .0266278
860.303 .0266083
860.981 .0265880
861.659 .0265674
862.336 .0265468
863.013 .0265259
863.690 .0265054
864.366 .0264845
865.042 .0264635
865.718 .0264425
866.393 .0264215
867.068 .0264000
867.743 .0263783
868.417 .0263564
869.091 .0263349
869.765 .0263137
870.438 .0262932
871.111 .0262733
871.783 .0262548
872.456 .0262366
873.127 .0262182
873.799 .0261998
874.470 .0261816
875.141 .0261630
875.811 .0261450
876.481 .0261274
877.151 .0261105
877.820 .0260941
878.489 .0260783
879.158 .0260625
879.826 .0260471
880.494 .0260313
881.162 .0260153
881.829 .0259992
882.496 .0259829
883.163 .0259661
883.829 .0259502
884.495 .0259353
885.160 .0259218
885.825 .0259088
886.490 .0258971
887.154 .0258860
887.818 .0258754
888.482 .0258649
889.145 .0258544
889.808 .0258448
890.471 .0258358
891.133 .0258272
891.795 .0258198
892.456 .0258135
893.117 .0258084
893.778 .0258035
894.439 .0257986
895.099 .0257927
895.758 .0257856
896.417 .0257769
897.076 .0257673
897.735 .0257574
898.393 .0257473
899.051 .0257373
899.708 .0257274
900.365 .0257176
901.022 .0257071
901.678 .0256961
902.334 .0256842
902.990 .0256715
903.645 .0256580
904.300 .0256450
904.954 .0256331
905.608 .0256216
906.262 .0256117
906.915 .0256033
907.568 .0255956
908.221 .0255891
908.873 .0255823
909.525 .0255753
910.176 .0255686
910.828 .0255619
911.478 .0255546
912.129 .0255472
912.778 .0255404
913.428 .0255332
914.077 .0255257
914.726 .0255179
915.375 .0255087
916.023 .0254992
916.670 .0254906
917.318 .0254817
917.964 .0254734
918.611 .0254664
919.257 .0254600
919.903 .0254543
920.548 .0254488
921.193 .0254432
921.838 .0254375
922.482 .0254320
923.126 .0254270
923.770 .0254219
924.413 .0254178
925.056 .0254142
925.698 .0254111
926.340 .0254089
926.982 .0254068
927.623 .0254039
928.264 .0254009
928.904 .0253974
929.544 .0253927
930.184 .0253866
930.823 .0253793
931.462 .0253711
932.101 .0253618
932.739 .0253513
933.377 .0253405
934.014 .0253289
934.651 .0253178
935.288 .0253069
935.924 .0252964
936.560 .0252869
937.196 .0252783
937.831 .0252698
938.466 .0252618
939.100 .0252542
939.734 .0252462
940.368 .0252368
941.001 .0252273
941.634 .0252170
942.266 .0252061
942.899 .0251951
943.530 .0251840
944.162 .0251724
944.793 .0251610
945.423 .0251489
946.053 .0251362
946.683 .0251231
947.313 .0251096
947.942 .0250952
948.571 .0250806
949.199 .0250657
949.827 .0250506
950.455 .0250356
951.082 .0250222
951.709 .0250096
952.335 .0249989
952.961 .0249901
953.587 .0249830
954.212 .0249777
954.837 .0249730
955.462 .0249683
956.086 .0249631
956.710 .0249571
957.334 .0249503
957.957 .0249423
958.579 .0249343
959.202 .0249264
959.824 .0249190
960.445 .0249121
961.067 .0249054
961.688 .0248990
962.308 .0248928
962.928 .0248860
963.548 .0248786
964.168 .0248710
964.787 .0248629
965.406 .0248554
966.024 .0248487
966.642 .0248433
967.260 .0248391
967.877 .0248356
968.494 .0248328
969.110 .0248296
969.727 .0248259
970.342 .0248214
970.958 .0248168
971.573 .0248137
972.188 .0248117
972.802 .0248112
973.416 .0248124
974.030 .0248152
974.643 .0248177
975.256 .0248192
975.869 .0248186
976.481 .0248167
977.093 .0248132
977.705 .0248093
978.316 .0248054
978.927 .0248033
979.538 .0248029
980.148 .0248040
980.758 .0248059
981.367 .0248081
981.977 .0248090
982.586 .0248089
983.194 .0248066
983.802 .0248034
984.410 .0247989
985.018 .0247951
985.625 .0247928
986.232 .0247921
986.838 .0247922
987.445 .0247937
988.050 .0247961
988.656 .0247990
989.261 .0248010
989.866 .0248018
990.471 .0248013
991.075 .0247997
991.679 .0247970
992.282 .0247929
992.886 .0247882
993.489 .0247832
994.091 .0247772
994.694 .0247713
995.296 .0247647
995.897 .0247583
996.499 .0247521
997.100 .0247465
997.701 .0247413
998.301 .0247358
998.901 .0247304
999.501 .0247251
1000.101 .0247200
1000.700 .0247145
1001.299 .0247080
1001.898 .0247010
1002.496 .0246935
1003.094 .0246854
1003.692 .0246771
1004.289 .0246695
1004.887 .0246628
1005.484 .0246572
1006.080 .0246524
1006.677 .0246489
1007.273 .0246458
1007.868 .0246426
1008.464 .0246400
1009.059 .0246367
1009.654 .0246330
1010.249 .0246289
1010.843 .0246254
1011.437 .0246233
1012.031 .0246218
1012.625 .0246218
1013.218 .0246224
1013.811 .0246239
1014.404 .0246250
1014.997 .0246246
1015.589 .0246234
1016.181 .0246207
1016.773 .0246170
1017.365 .0246124
1017.956 .0246074
1018.547 .0246019
1019.138 .0245957
1019.728 .0245890
1020.319 .0245816
1020.909 .0245734
1021.499 .0245636
1022.088 .0245527
1022.678 .0245401
1023.267 .0245269
1023.856 .0245126
1024.445 .0244979
1025.033 .0244839
1025.621 .0244695
1026.209 .0244562
1026.797 .0244434
1027.385 .0244313
1027.972 .0244210
1028.560 .0244115
1029.147 .0244032
1029.734 .0243954
1030.320 .0243885
1030.907 .0243824
1031.493 .0243781
1032.079 .0243758
1032.665 .0243755
1033.250 .0243782
1033.836 .0243832
1034.421 .0243893
1035.006 .0243956
1035.591 .0244020
1036.176 .0244058
1036.761 .0244068
1037.345 .0244051
1037.929 .0243993
1038.514 .0243918
1039.097 .0243839
1039.681 .0243760
1040.265 .0243701
1040.848 .0243661
1041.432 .0243638
1042.015 .0243622
1042.598 .0243612
1043.181 .0243592
1043.764 .0243555
1044.346 .0243514
1044.929 .0243467
1045.511 .0243412
1046.094 .0243373
1046.676 .0243343
1047.258 .0243315
1047.840 .0243293
1048.422 .0243270
1049.003 .0243239
1049.585 .0243204
1050.166 .0243153
1050.748 .0243085
1051.329 .0242995
1051.910 .0242899
1052.491 .0242780
1053.072 .0242650
1053.653 .0242520
1054.234 .0242380
1054.815 .0242229
1055.396 .0242077
1055.976 .0241918
1056.557 .0241764
1057.138 .0241609
1057.718 .0241446
1058.298 .0241277
1058.879 .0241098
1059.459 .0240906
1060.039 .0240710
1060.620 .0240512
1061.200 .0240305
1061.780 .0240082
1062.360 .0239838
1062.940 .0239587
1063.520 .0239328
1064.101 .0239063
1064.681 .0238789
1065.261 .0238537
1065.841 .0238285
1066.421 .0238051
1067.001 .0237843
1067.581 .0237675
1068.161 .0237536
1068.741 .0237439
1069.321 .0237364
1069.901 .0237314
1070.482 .0237289
1071.062 .0237293
1071.642 .0237318
1072.222 .0237390
1072.803 .0237477
1073.383 .0237594
1073.963 .0237740
1074.544 .0237911
1075.124 .0238056
1075.705 .0238191
1076.286 .0238283
1076.866 .0238330
1077.447 .0238327
1078.028 .0238278
1078.609 .0238200
1079.190 .0238106
1079.771 .0237992
1080.352 .0237882
1080.934 .0237752
1081.515 .0237626
1082.097 .0237509
1082.679 .0237393
1083.260 .0237251
1083.842 .0237115
1084.424 .0236980
1085.007 .0236858
1085.589 .0236756
1086.172 .0236694
1086.754 .0236651
1087.337 .0236651
1087.920 .0236669
1088.503 .0236671
1089.087 .0236694
1089.670 .0236720
1090.254 .0236696
1090.838 .0236658
1091.422 .0236593
1092.006 .0236473
1092.590 .0236325
1093.175 .0236160
1093.760 .0235975
1094.345 .0235774
1094.930 .0235563
1095.516 .0235341
1096.102 .0235135
1096.688 .0234963
1097.274 .0234813
1097.860 .0234693
1098.447 .0234633
1099.034 .0234584
1099.622 .0234561
1100.209 .0234571
1100.797 .0234608
1101.385 .0234661
1101.973 .0234744
1102.562 .0234829
1103.151 .0234953
1103.740 .0235074
1104.330 .0235210
1104.920 .0235347
1105.510 .0235478
1106.101 .0235576
1106.691 .0235630
1107.283 .0235608
1107.874 .0235542
1108.466 .0235390
1109.058 .0235174
1109.651 .0234894
1110.244 .0234596
1110.837 .0234274
1111.431 .0233954
1112.025 .0233638
1112.620 .0233361
1113.215 .0233069
1113.810 .0232823
1114.406 .0232593
1115.002 .0232387
1115.599 .0232216
1116.196 .0232009
1116.793 .0231793
1117.391 .0231573
1117.989 .0231317
1118.588 .0231072
1119.187 .0230827
1119.787 .0230633
1120.387 .0230466
1120.988 .0230358
1121.589 .0230359
1122.190 .0230430
1122.793 .0230619
1123.395 .0230882
1123.998 .0231205
1124.602 .0231607
1125.206 .0232057
1125.811 .0232549
1126.416 .0233112
1127.022 .0233716
1127.628 .0234357
1128.235 .0235003
1128.843 .0235667
1129.451 .0236347
1130.059 .0237013
1130.669 .0237669
1131.278 .0238316
1131.889 .0238941
1132.500 .0239586
1133.112 .0240183
1133.724 .0240810
1134.337 .0241424
1134.950 .0241978
1135.564 .0242461
1136.179 .0242876
1136.795 .0243273
1137.411 .0243665
1138.028 .0244080
1138.645 .0244605
1139.263 .0245257
1139.882 .0246068
1140.502 .0246914
1141.122 .0247726
1141.743 .0248610
1142.365 .0249444
1142.987 .0251364
1143.611 .0250482
1144.235 .0248719
1144.859 .0252746
1145.485 .0253753
