Measurement Sequence started on: 10-20-44-796
Integration time: 35
Scans to Average: 2 
>>>>>Begin Spectral Data<<<<<
432.953 .0471190
433.882 .0433508
434.810 .0353352
435.737 .0344822
436.662 .0347393
437.586 .0360895
438.509 .0354537
439.431 .0351139
440.351 .0350661
441.269 .0350340
442.187 .0350046
443.103 .0349853
444.018 .0350250
444.932 .0350831
445.844 .0351582
446.756 .0352232
447.666 .0352649
448.575 .0352679
449.482 .0352421
450.388 .0351822
451.294 .0351354
452.198 .0351034
453.100 .0350861
454.002 .0350839
454.902 .0351033
455.801 .0351233
456.699 .0351378
457.596 .0351432
458.492 .0351291
459.387 .0350797
460.280 .0350141
461.172 .0349254
462.064 .0348272
462.954 .0347249
463.843 .0346199
464.730 .0345188
465.617 .0344248
466.503 .0343296
467.387 .0342296
468.271 .0341283
469.153 .0340241
470.035 .0339076
470.915 .0337890
471.794 .0336750
472.673 .0335714
473.550 .0334868
474.426 .0334302
475.301 .0333950
476.175 .0333893
477.048 .0334023
477.920 .0334215
478.791 .0334436
479.661 .0334641
480.530 .0334763
481.398 .0334750
482.266 .0334676
483.132 .0334583
483.997 .0334487
484.861 .0334538
485.724 .0334693
486.587 .0334955
487.448 .0335278
488.308 .0335557
489.168 .0335726
490.026 .0335777
490.884 .0335689
491.741 .0335442
492.597 .0335124
493.452 .0334805
494.306 .0334498
495.159 .0334294
496.011 .0334212
496.862 .0334204
497.713 .0334208
498.562 .0334169
499.411 .0333951
500.259 .0333555
501.106 .0332966
501.952 .0332195
502.798 .0331301
503.642 .0330354
504.486 .0329415
505.329 .0328509
506.171 .0327708
507.012 .0326972
507.852 .0326275
508.692 .0325591
509.531 .0324775
510.369 .0323882
511.206 .0322844
512.043 .0321671
512.878 .0320376
513.713 .0319040
514.547 .0317715
515.381 .0316430
516.213 .0315218
517.045 .0314035
517.876 .0312855
518.706 .0311574
519.536 .0310060
520.365 .0308342
521.193 .0306428
522.020 .0304318
522.847 .0302048
523.673 .0299785
524.498 .0297542
525.323 .0295416
526.146 .0293427
526.969 .0291549
527.792 .0289677
528.614 .0287704
529.435 .0285633
530.255 .0283421
531.075 .0281136
531.894 .0278840
532.712 .0276515
533.530 .0274302
534.347 .0272286
535.163 .0270489
535.979 .0269070
536.794 .0268091
537.608 .0267544
538.422 .0267303
539.235 .0267434
540.048 .0267834
540.860 .0268469
541.671 .0269324
542.481 .0270313
543.292 .0271261
544.101 .0272290
544.910 .0273306
545.718 .0274300
546.526 .0275290
547.333 .0276400
548.139 .0277491
548.945 .0278593
549.750 .0279600
550.555 .0280446
551.359 .0281097
552.162 .0281630
552.965 .0281955
553.768 .0282162
554.569 .0282396
555.371 .0282644
556.171 .0282910
556.972 .0283336
557.771 .0283813
558.570 .0284326
559.369 .0284877
560.167 .0285406
560.964 .0285840
561.761 .0286271
562.558 .0286769
563.354 .0287338
564.149 .0288023
564.944 .0288779
565.738 .0289596
566.532 .0290465
567.325 .0291384
568.118 .0292290
568.910 .0293215
569.702 .0294210
570.494 .0295195
571.285 .0296162
572.075 .0297121
572.865 .0298040
573.654 .0298900
574.443 .0299667
575.232 .0300343
576.020 .0300869
576.807 .0301291
577.594 .0301650
578.381 .0301993
579.167 .0302351
579.952 .0302756
580.738 .0303201
581.522 .0303663
582.307 .0304116
583.091 .0304500
583.874 .0304827
584.657 .0305103
585.440 .0305334
586.222 .0305527
587.004 .0305715
587.785 .0305937
588.566 .0306178
589.346 .0306442
590.126 .0306712
590.906 .0306958
591.685 .0307162
592.464 .0307299
593.242 .0307378
594.020 .0307394
594.797 .0307358
595.575 .0307288
596.351 .0307204
597.128 .0307106
597.904 .0306995
598.679 .0306898
599.454 .0306794
600.229 .0306685
601.004 .0306561
601.778 .0306413
602.551 .0306259
603.325 .0306098
604.097 .0305936
604.870 .0305787
605.642 .0305662
606.414 .0305558
607.185 .0305467
607.956 .0305393
608.727 .0305319
609.497 .0305241
610.267 .0305156
611.037 .0305073
611.806 .0304976
612.575 .0304874
613.344 .0304776
614.112 .0304674
614.880 .0304567
615.647 .0304441
616.414 .0304302
617.181 .0304144
617.948 .0303965
618.714 .0303767
619.480 .0303553
620.245 .0303345
621.011 .0303141
621.775 .0302946
622.540 .0302760
623.304 .0302578
624.068 .0302395
624.832 .0302193
625.595 .0301981
626.358 .0301749
627.120 .0301507
627.883 .0301258
628.645 .0301011
629.406 .0300768
630.168 .0300532
630.929 .0300312
631.689 .0300107
632.450 .0299903
633.210 .0299701
633.970 .0299489
634.729 .0299274
635.489 .0299046
636.248 .0298806
637.006 .0298556
637.765 .0298312
638.523 .0298062
639.280 .0297815
640.038 .0297574
640.795 .0297355
641.552 .0297156
642.309 .0296971
643.065 .0296795
643.821 .0296615
644.577 .0296427
645.332 .0296229
646.088 .0296011
646.843 .0295784
647.597 .0295547
648.352 .0295315
649.106 .0295105
649.860 .0294909
650.613 .0294741
651.367 .0294608
652.120 .0294498
652.872 .0294397
653.625 .0294290
654.377 .0294173
655.129 .0294040
655.881 .0293895
656.632 .0293740
657.384 .0293573
658.135 .0293427
658.885 .0293298
659.636 .0293189
660.386 .0293105
661.136 .0293032
661.885 .0292961
662.635 .0292897
663.384 .0292822
664.133 .0292730
664.881 .0292633
665.630 .0292543
666.378 .0292451
667.126 .0292365
667.874 .0292282
668.621 .0292197
669.368 .0292106
670.115 .0292010
670.862 .0291890
671.608 .0291763
672.354 .0291631
673.100 .0291486
673.846 .0291342
674.591 .0291203
675.337 .0291062
676.082 .0290926
676.826 .0290795
677.571 .0290663
678.315 .0290524
679.059 .0290390
679.803 .0290253
680.547 .0290122
681.290 .0289996
682.033 .0289864
682.776 .0289730
683.518 .0289585
684.261 .0289422
685.003 .0289239
685.745 .0289042
686.487 .0288837
687.228 .0288627
687.969 .0288414
688.710 .0288200
689.451 .0287990
690.192 .0287779
690.932 .0287565
691.672 .0287347
692.412 .0287125
693.152 .0286905
693.891 .0286694
694.630 .0286502
695.369 .0286334
696.108 .0286198
696.846 .0286079
697.585 .0285975
698.323 .0285878
699.061 .0285777
699.798 .0285665
700.536 .0285537
701.273 .0285392
702.010 .0285227
702.746 .0285037
703.483 .0284835
704.219 .0284617
704.955 .0284389
705.691 .0284151
706.427 .0283907
707.162 .0283662
707.897 .0283416
708.632 .0283162
709.367 .0282903
710.101 .0282642
710.835 .0282380
711.569 .0282112
712.303 .0281847
713.037 .0281600
713.770 .0281367
714.503 .0281158
715.236 .0280979
715.969 .0280825
716.702 .0280690
717.434 .0280569
718.166 .0280447
718.898 .0280318
719.629 .0280176
720.361 .0280019
721.092 .0279850
721.823 .0279679
722.554 .0279501
723.284 .0279324
724.014 .0279150
724.744 .0278975
725.474 .0278790
726.204 .0278600
726.933 .0278403
727.662 .0278192
728.391 .0277972
729.120 .0277750
729.849 .0277531
730.577 .0277328
731.305 .0277133
732.033 .0276951
732.760 .0276784
733.488 .0276624
734.215 .0276464
734.942 .0276306
735.669 .0276150
736.395 .0276000
737.122 .0275854
737.848 .0275714
738.573 .0275582
739.299 .0275455
740.024 .0275336
740.750 .0275209
741.474 .0275077
742.199 .0274930
742.924 .0274762
743.648 .0274582
744.372 .0274389
745.096 .0274193
745.819 .0274007
746.543 .0273831
747.266 .0273669
747.989 .0273515
748.711 .0273371
749.434 .0273224
750.156 .0273078
750.878 .0272927
751.599 .0272773
752.321 .0272623
753.042 .0272490
753.763 .0272377
754.484 .0272293
755.205 .0272234
755.925 .0272197
756.645 .0272169
757.365 .0272142
758.085 .0272104
758.804 .0272055
759.523 .0271991
760.242 .0271912
760.961 .0271821
761.679 .0271725
762.397 .0271620
763.115 .0271510
763.833 .0271399
764.551 .0271279
765.268 .0271148
765.985 .0271012
766.702 .0270871
767.418 .0270723
768.134 .0270576
768.850 .0270427
769.566 .0270275
770.282 .0270126
770.997 .0269976
771.712 .0269825
772.427 .0269683
773.142 .0269547
773.856 .0269415
774.570 .0269290
775.284 .0269178
775.998 .0269069
776.711 .0268959
777.424 .0268844
778.137 .0268720
778.849 .0268581
779.562 .0268431
780.274 .0268270
780.986 .0268112
781.697 .0267960
782.409 .0267816
783.120 .0267687
783.831 .0267575
784.541 .0267477
785.252 .0267393
785.962 .0267315
786.671 .0267242
787.381 .0267169
788.090 .0267095
788.799 .0267017
789.508 .0266936
790.217 .0266850
790.925 .0266757
791.633 .0266656
792.341 .0266544
793.048 .0266417
793.755 .0266277
794.462 .0266126
795.169 .0265963
795.875 .0265788
796.581 .0265608
797.287 .0265428
797.993 .0265258
798.698 .0265100
799.403 .0264956
800.108 .0264829
800.812 .0264723
801.517 .0264637
802.221 .0264571
802.924 .0264518
803.628 .0264484
804.331 .0264465
805.034 .0264462
805.736 .0264469
806.439 .0264479
807.141 .0264494
807.843 .0264510
808.544 .0264513
809.245 .0264494
809.946 .0264456
810.647 .0264400
811.347 .0264324
812.047 .0264236
812.747 .0264140
813.447 .0264042
814.146 .0263941
814.845 .0263836
815.543 .0263720
816.242 .0263598
816.940 .0263462
817.638 .0263316
818.335 .0263169
819.032 .0263021
819.729 .0262887
820.426 .0262774
821.122 .0262680
821.818 .0262604
822.514 .0262535
823.209 .0262468
823.905 .0262393
824.599 .0262311
825.294 .0262214
825.988 .0262106
826.682 .0261997
827.376 .0261885
828.069 .0261773
828.762 .0261665
829.455 .0261552
830.147 .0261429
830.840 .0261295
831.531 .0261143
832.223 .0260973
832.914 .0260793
833.605 .0260607
834.296 .0260420
834.986 .0260242
835.676 .0260071
836.366 .0259908
837.055 .0259756
837.744 .0259608
838.433 .0259462
839.121 .0259322
839.809 .0259190
840.497 .0259066
841.185 .0258957
841.872 .0258865
842.559 .0258792
843.245 .0258735
843.932 .0258687
844.617 .0258642
845.303 .0258594
845.988 .0258537
846.673 .0258466
847.358 .0258382
848.042 .0258287
848.726 .0258176
849.410 .0258064
850.093 .0257948
850.776 .0257832
851.459 .0257709
852.141 .0257584
852.823 .0257448
853.505 .0257306
854.186 .0257152
854.867 .0256993
855.548 .0256839
856.228 .0256697
856.908 .0256566
857.588 .0256454
858.267 .0256362
858.946 .0256286
859.625 .0256219
860.303 .0256165
860.981 .0256109
861.659 .0256056
862.336 .0255997
863.013 .0255941
863.690 .0255881
864.366 .0255827
865.042 .0255770
865.718 .0255714
866.393 .0255650
867.068 .0255572
867.743 .0255479
868.417 .0255372
869.091 .0255246
869.765 .0255105
870.438 .0254954
871.111 .0254805
871.783 .0254653
872.456 .0254512
873.127 .0254385
873.799 .0254273
874.470 .0254169
875.141 .0254073
875.811 .0253981
876.481 .0253893
877.151 .0253806
877.820 .0253716
878.489 .0253625
879.158 .0253534
879.826 .0253443
880.494 .0253355
881.162 .0253273
881.829 .0253198
882.496 .0253124
883.163 .0253052
883.829 .0252973
884.495 .0252881
885.160 .0252784
885.825 .0252682
886.490 .0252584
887.154 .0252489
887.818 .0252402
888.482 .0252327
889.145 .0252266
889.808 .0252214
890.471 .0252162
891.133 .0252107
891.795 .0252044
892.456 .0251969
893.117 .0251885
893.778 .0251794
894.439 .0251706
895.099 .0251624
895.758 .0251555
896.417 .0251495
897.076 .0251447
897.735 .0251406
898.393 .0251373
899.051 .0251339
899.708 .0251297
900.365 .0251247
901.022 .0251189
901.678 .0251134
902.334 .0251086
902.990 .0251047
903.645 .0251023
904.300 .0251009
904.954 .0251003
905.608 .0250995
906.262 .0250989
906.915 .0250974
907.568 .0250948
908.221 .0250911
908.873 .0250855
909.525 .0250778
910.176 .0250691
910.828 .0250592
911.478 .0250484
912.129 .0250365
912.778 .0250235
913.428 .0250087
914.077 .0249931
914.726 .0249762
915.375 .0249583
916.023 .0249399
916.670 .0249214
917.318 .0249024
917.964 .0248836
918.611 .0248648
919.257 .0248457
919.903 .0248265
920.548 .0248078
921.193 .0247891
921.838 .0247723
922.482 .0247582
923.126 .0247474
923.770 .0247399
924.413 .0247356
925.056 .0247328
925.698 .0247316
926.340 .0247307
926.982 .0247289
927.623 .0247262
928.264 .0247227
928.904 .0247184
929.544 .0247141
930.184 .0247104
930.823 .0247074
931.462 .0247045
932.101 .0247015
932.739 .0246969
933.377 .0246902
934.014 .0246810
934.651 .0246694
935.288 .0246556
935.924 .0246402
936.560 .0246241
937.196 .0246079
937.831 .0245925
938.466 .0245781
939.100 .0245644
939.734 .0245507
940.368 .0245367
941.001 .0245221
941.634 .0245066
942.266 .0244907
942.899 .0244744
943.530 .0244576
944.162 .0244405
944.793 .0244237
945.423 .0244070
946.053 .0243906
946.683 .0243754
947.313 .0243604
947.942 .0243452
948.571 .0243294
949.199 .0243122
949.827 .0242936
950.455 .0242736
951.082 .0242523
951.709 .0242300
952.335 .0242075
952.961 .0241852
953.587 .0241636
954.212 .0241430
954.837 .0241235
955.462 .0241041
956.086 .0240853
956.710 .0240670
957.334 .0240494
957.957 .0240328
958.579 .0240181
959.202 .0240052
959.824 .0239948
960.445 .0239863
961.067 .0239794
961.688 .0239740
962.308 .0239698
962.928 .0239660
963.548 .0239613
964.168 .0239554
964.787 .0239485
965.406 .0239402
966.024 .0239308
966.642 .0239200
967.260 .0239081
967.877 .0238948
968.494 .0238796
969.110 .0238629
969.727 .0238446
970.342 .0238251
970.958 .0238051
971.573 .0237849
972.188 .0237652
972.802 .0237473
973.416 .0237312
974.030 .0237176
974.643 .0237071
975.256 .0236992
975.869 .0236930
976.481 .0236889
977.093 .0236861
977.705 .0236838
978.316 .0236816
978.927 .0236800
979.538 .0236780
980.148 .0236763
980.758 .0236747
981.367 .0236732
981.977 .0236725
982.586 .0236727
983.194 .0236726
983.802 .0236729
984.410 .0236725
985.018 .0236714
985.625 .0236688
986.232 .0236656
986.838 .0236611
987.445 .0236553
988.050 .0236488
988.656 .0236412
989.261 .0236329
989.866 .0236239
990.471 .0236139
991.075 .0236039
991.679 .0235931
992.282 .0235816
992.886 .0235695
993.489 .0235569
994.091 .0235434
994.694 .0235302
995.296 .0235167
995.897 .0235035
996.499 .0234912
997.100 .0234800
997.701 .0234708
998.301 .0234643
998.901 .0234613
999.501 .0234605
1000.101 .0234623
1000.700 .0234656
1001.299 .0234686
1001.898 .0234719
1002.496 .0234744
1003.094 .0234756
1003.692 .0234748
1004.289 .0234725
1004.887 .0234689
1005.484 .0234642
1006.080 .0234595
1006.677 .0234539
1007.273 .0234478
1007.868 .0234407
1008.464 .0234334
1009.059 .0234255
1009.654 .0234183
1010.249 .0234124
1010.843 .0234070
1011.437 .0234030
1012.031 .0233990
1012.625 .0233959
1013.218 .0233929
1013.811 .0233910
1014.404 .0233894
1014.997 .0233887
1015.589 .0233904
1016.181 .0233934
1016.773 .0233979
1017.365 .0234046
1017.956 .0234122
1018.547 .0234193
1019.138 .0234242
1019.728 .0234271
1020.319 .0234268
1020.909 .0234248
1021.499 .0234211
1022.088 .0234173
1022.678 .0234147
1023.267 .0234144
1023.856 .0234162
1024.445 .0234219
1025.033 .0234300
1025.621 .0234399
1026.209 .0234503
1026.797 .0234604
1027.385 .0234689
1027.972 .0234763
1028.560 .0234814
1029.147 .0234856
1029.734 .0234893
1030.320 .0234922
1030.907 .0234946
1031.493 .0234975
1032.079 .0235001
1032.665 .0235015
1033.250 .0235015
1033.836 .0234994
1034.421 .0234944
1035.006 .0234872
1035.591 .0234770
1036.176 .0234643
1036.761 .0234513
1037.345 .0234386
1037.929 .0234260
1038.514 .0234150
1039.097 .0234060
1039.681 .0233980
1040.265 .0233924
1040.848 .0233892
1041.432 .0233874
1042.015 .0233867
1042.598 .0233870
1043.181 .0233866
1043.764 .0233856
1044.346 .0233840
1044.929 .0233811
1045.511 .0233775
1046.094 .0233745
1046.676 .0233711
1047.258 .0233673
1047.840 .0233648
1048.422 .0233633
1049.003 .0233618
1049.585 .0233609
1050.166 .0233604
1050.748 .0233592
1051.329 .0233582
1051.910 .0233581
1052.491 .0233575
1053.072 .0233569
1053.653 .0233567
1054.234 .0233564
1054.815 .0233559
1055.396 .0233545
1055.976 .0233516
1056.557 .0233477
1057.138 .0233437
1057.718 .0233373
1058.298 .0233293
1058.879 .0233204
1059.459 .0233119
1060.039 .0233012
1060.620 .0232888
1061.200 .0232745
1061.780 .0232585
1062.360 .0232405
1062.940 .0232225
1063.520 .0232054
1064.101 .0231913
1064.681 .0231815
1065.261 .0231788
1065.841 .0231805
1066.421 .0231879
1067.001 .0231971
1067.581 .0232078
1068.161 .0232164
1068.741 .0232224
1069.321 .0232225
1069.901 .0232207
1070.482 .0232160
1071.062 .0232100
1071.642 .0232035
1072.222 .0232015
1072.803 .0232007
1073.383 .0232014
1073.963 .0232006
1074.544 .0231975
1075.124 .0231889
1075.705 .0231771
1076.286 .0231594
1076.866 .0231417
1077.447 .0231254
1078.028 .0231155
1078.609 .0231127
1079.190 .0231190
1079.771 .0231307
1080.352 .0231468
1080.934 .0231635
1081.515 .0231786
1082.097 .0231874
1082.679 .0231940
1083.260 .0231971
1083.842 .0231990
1084.424 .0232018
1085.007 .0232050
1085.589 .0232105
1086.172 .0232183
1086.754 .0232262
1087.337 .0232335
1087.920 .0232386
1088.503 .0232427
1089.087 .0232458
1089.670 .0232496
1090.254 .0232548
1090.838 .0232613
1091.422 .0232724
1092.006 .0232863
1092.590 .0233030
1093.175 .0233207
1093.760 .0233398
1094.345 .0233567
1094.930 .0233730
1095.516 .0233855
1096.102 .0233962
1096.688 .0234063
1097.274 .0234154
1097.860 .0234229
1098.447 .0234293
1099.034 .0234311
1099.622 .0234297
1100.209 .0234245
1100.797 .0234185
1101.385 .0234071
1101.973 .0233950
1102.562 .0233816
1103.151 .0233702
1103.740 .0233618
1104.330 .0233558
1104.920 .0233501
1105.510 .0233482
1106.101 .0233479
1106.691 .0233428
1107.283 .0233317
1107.874 .0233179
1108.466 .0233004
1109.058 .0232839
1109.651 .0232666
1110.244 .0232538
1110.837 .0232463
1111.431 .0232466
1112.025 .0232511
1112.620 .0232572
1113.215 .0232667
1113.810 .0232744
1114.406 .0232827
1115.002 .0232940
1115.599 .0233078
1116.196 .0233270
1116.793 .0233528
1117.391 .0233883
1117.989 .0234297
1118.588 .0234749
1119.187 .0235166
1119.787 .0235555
1120.387 .0235876
1120.988 .0236099
1121.589 .0236236
1122.190 .0236326
1122.793 .0236384
1123.395 .0236424
1123.998 .0236424
1124.602 .0236401
1125.206 .0236365
1125.811 .0236317
1126.416 .0236219
1127.022 .0236108
1127.628 .0235962
1128.235 .0235807
1128.843 .0235691
1129.451 .0235672
1130.059 .0235733
1130.669 .0235910
1131.278 .0236183
1131.889 .0236495
1132.500 .0236829
1133.112 .0237142
1133.724 .0237465
1134.337 .0237819
1134.950 .0238160
1135.564 .0238507
1136.179 .0238918
1136.795 .0239384
1137.411 .0239939
1138.028 .0240573
1138.645 .0241268
1139.263 .0242003
1139.882 .0242734
1140.502 .0243569
1141.122 .0244422
1141.743 .0245474
1142.365 .0246466
1142.987 .0246222
1143.611 .0250542
1144.235 .0249579
1144.859 .0253273
1145.485 .0249303
