Measurement Sequence started on: 10-20-44-796
Integration time: 35
Scans to Average: 2 
>>>>>Begin Spectral Data<<<<<
432.953 .0361169
433.882 .0401216
434.810 .0369268
435.737 .0380007
436.662 .0386289
437.586 .0385276
438.509 .0386893
439.431 .0387311
440.351 .0388341
441.269 .0388700
442.187 .0388634
443.103 .0388381
444.018 .0388053
444.932 .0387537
445.844 .0386924
446.756 .0386342
447.666 .0385726
448.575 .0385143
449.482 .0384364
450.388 .0383532
451.294 .0382631
452.198 .0381730
453.100 .0380829
454.002 .0380081
454.902 .0379287
455.801 .0378467
456.699 .0377809
457.596 .0377338
458.492 .0377082
459.387 .0377125
460.280 .0377338
461.172 .0377717
462.064 .0378190
462.954 .0378650
463.843 .0378932
464.730 .0379154
465.617 .0379201
466.503 .0379058
467.387 .0378857
468.271 .0378627
469.153 .0378417
470.035 .0378329
470.915 .0378370
471.794 .0378422
472.673 .0378426
473.550 .0378321
474.426 .0378124
475.301 .0377864
476.175 .0377492
477.048 .0377065
477.920 .0376671
478.791 .0376361
479.661 .0376122
480.530 .0375984
481.398 .0375963
482.266 .0376022
483.132 .0376129
483.997 .0376204
484.861 .0376286
485.724 .0376365
486.587 .0376415
487.448 .0376397
488.308 .0376313
489.168 .0376092
490.026 .0375745
490.884 .0375289
491.741 .0374754
492.597 .0374197
493.452 .0373640
494.306 .0373103
495.159 .0372604
496.011 .0372104
496.862 .0371575
497.713 .0370967
498.562 .0370252
499.411 .0369369
500.259 .0368363
501.106 .0367256
501.952 .0366131
502.798 .0365038
503.642 .0364013
504.486 .0363077
505.329 .0362246
506.171 .0361447
507.012 .0360616
507.852 .0359701
508.692 .0358669
509.531 .0357433
510.369 .0356033
511.206 .0354476
512.043 .0352837
512.878 .0351174
513.713 .0349534
514.547 .0347920
515.381 .0346370
516.213 .0344868
517.045 .0343435
517.876 .0342058
518.706 .0340732
519.536 .0339463
520.365 .0338266
521.193 .0337115
522.020 .0336044
522.847 .0334977
523.673 .0333950
524.498 .0332856
525.323 .0331650
526.146 .0330308
526.969 .0328854
527.792 .0327250
528.614 .0325502
529.435 .0323652
530.255 .0321814
531.075 .0319892
531.894 .0318015
532.712 .0316178
533.530 .0314388
534.347 .0312706
535.163 .0311046
535.979 .0309513
536.794 .0308215
537.608 .0307143
538.422 .0306378
539.235 .0305915
540.048 .0305731
540.860 .0305770
541.671 .0305910
542.481 .0306168
543.292 .0306391
544.101 .0306599
544.910 .0306718
545.718 .0306741
546.526 .0306689
547.333 .0306588
548.139 .0306405
548.945 .0306280
549.750 .0306082
550.555 .0305907
551.359 .0305685
552.162 .0305499
552.965 .0305391
553.768 .0305333
554.569 .0305340
555.371 .0305430
556.171 .0305574
556.972 .0305840
557.771 .0306140
558.570 .0306569
559.369 .0307030
560.167 .0307560
560.964 .0308089
561.761 .0308595
562.558 .0309057
563.354 .0309522
564.149 .0309900
564.944 .0310274
565.738 .0310637
566.532 .0311000
567.325 .0311412
568.118 .0311907
568.910 .0312500
569.702 .0313191
570.494 .0313949
571.285 .0314773
572.075 .0315615
572.865 .0316464
573.654 .0317233
574.443 .0317925
575.232 .0318586
576.020 .0319160
576.807 .0319703
577.594 .0320202
578.381 .0320711
579.167 .0321244
579.952 .0321782
580.738 .0322303
581.522 .0322806
582.307 .0323252
583.091 .0323616
583.874 .0323884
584.657 .0324061
585.440 .0324167
586.222 .0324236
587.004 .0324278
587.785 .0324331
588.566 .0324380
589.346 .0324437
590.126 .0324497
590.906 .0324535
591.685 .0324532
592.464 .0324479
593.242 .0324408
594.020 .0324301
594.797 .0324167
595.575 .0324020
596.351 .0323882
597.128 .0323751
597.904 .0323620
598.679 .0323495
599.454 .0323369
600.229 .0323238
601.004 .0323094
601.778 .0322950
602.551 .0322805
603.325 .0322661
604.097 .0322529
604.870 .0322402
605.642 .0322286
606.414 .0322165
607.185 .0322038
607.956 .0321907
608.727 .0321774
609.497 .0321612
610.267 .0321434
611.037 .0321257
611.806 .0321060
612.575 .0320838
613.344 .0320606
614.112 .0320360
614.880 .0320111
615.647 .0319852
616.414 .0319599
617.181 .0319354
617.948 .0319137
618.714 .0318934
619.480 .0318747
620.245 .0318576
621.011 .0318410
621.775 .0318229
622.540 .0318066
623.304 .0317891
624.068 .0317719
624.832 .0317549
625.595 .0317403
626.358 .0317271
627.120 .0317153
627.883 .0317032
628.645 .0316920
629.406 .0316799
630.168 .0316658
630.929 .0316479
631.689 .0316283
632.450 .0316060
633.210 .0315823
633.970 .0315566
634.729 .0315315
635.489 .0315049
636.248 .0314783
637.006 .0314496
637.765 .0314200
638.523 .0313883
639.280 .0313551
640.038 .0313207
640.795 .0312859
641.552 .0312499
642.309 .0312142
643.065 .0311794
643.821 .0311459
644.577 .0311119
645.332 .0310781
646.088 .0310434
646.843 .0310087
647.597 .0309730
648.352 .0309366
649.106 .0309007
649.860 .0308658
650.613 .0308314
651.367 .0307979
652.120 .0307657
652.872 .0307340
653.625 .0307017
654.377 .0306699
655.129 .0306381
655.881 .0306060
656.632 .0305742
657.384 .0305432
658.135 .0305138
658.885 .0304858
659.636 .0304591
660.386 .0304338
661.136 .0304099
661.885 .0303865
662.635 .0303627
663.384 .0303397
664.133 .0303173
664.881 .0302944
665.630 .0302711
666.378 .0302481
667.126 .0302244
667.874 .0301993
668.621 .0301733
669.368 .0301467
670.115 .0301199
670.862 .0300939
671.608 .0300689
672.354 .0300459
673.100 .0300255
673.846 .0300065
674.591 .0299884
675.337 .0299713
676.082 .0299544
676.826 .0299363
677.571 .0299180
678.315 .0298997
679.059 .0298812
679.803 .0298637
680.547 .0298482
681.290 .0298343
682.033 .0298222
682.776 .0298108
683.518 .0297995
684.261 .0297877
685.003 .0297753
685.745 .0297604
686.487 .0297439
687.228 .0297269
687.969 .0297096
688.710 .0296921
689.451 .0296757
690.192 .0296609
690.932 .0296480
691.672 .0296365
692.412 .0296259
693.152 .0296149
693.891 .0296034
694.630 .0295909
695.369 .0295771
696.108 .0295618
696.846 .0295458
697.585 .0295293
698.323 .0295135
699.061 .0294988
699.798 .0294854
700.536 .0294733
701.273 .0294627
702.010 .0294541
702.746 .0294458
703.483 .0294380
704.219 .0294315
704.955 .0294252
705.691 .0294194
706.427 .0294134
707.162 .0294071
707.897 .0294005
708.632 .0293937
709.367 .0293868
710.101 .0293794
710.835 .0293729
711.569 .0293667
712.303 .0293607
713.037 .0293552
713.770 .0293487
714.503 .0293402
715.236 .0293296
715.969 .0293162
716.702 .0293001
717.434 .0292821
718.166 .0292633
718.898 .0292446
719.629 .0292268
720.361 .0292105
721.092 .0291951
721.823 .0291799
722.554 .0291644
723.284 .0291468
724.014 .0291269
724.744 .0291045
725.474 .0290799
726.204 .0290548
726.933 .0290295
727.662 .0290050
728.391 .0289818
729.120 .0289601
729.849 .0289398
730.577 .0289208
731.305 .0289022
732.033 .0288836
732.760 .0288638
733.488 .0288435
734.215 .0288218
734.942 .0287986
735.669 .0287739
736.395 .0287476
737.122 .0287203
737.848 .0286913
738.573 .0286612
739.299 .0286305
740.024 .0285999
740.750 .0285695
741.474 .0285387
742.199 .0285076
742.924 .0284759
743.648 .0284436
744.372 .0284105
745.096 .0283780
745.819 .0283461
746.543 .0283158
747.266 .0282879
747.989 .0282632
748.711 .0282421
749.434 .0282243
750.156 .0282093
750.878 .0281961
751.599 .0281841
752.321 .0281717
753.042 .0281585
753.763 .0281453
754.484 .0281317
755.205 .0281176
755.925 .0281030
756.645 .0280883
757.365 .0280732
758.085 .0280579
758.804 .0280417
759.523 .0280243
760.242 .0280054
760.961 .0279844
761.679 .0279610
762.397 .0279355
763.115 .0279090
763.833 .0278816
764.551 .0278545
765.268 .0278275
765.985 .0278005
766.702 .0277740
767.418 .0277482
768.134 .0277237
768.850 .0277001
769.566 .0276776
770.282 .0276557
770.997 .0276351
771.712 .0276159
772.427 .0275985
773.142 .0275829
773.856 .0275691
774.570 .0275566
775.284 .0275447
775.998 .0275329
776.711 .0275215
777.424 .0275101
778.137 .0274991
778.849 .0274876
779.562 .0274760
780.274 .0274643
780.986 .0274534
781.697 .0274434
782.409 .0274347
783.120 .0274273
783.831 .0274214
784.541 .0274165
785.252 .0274134
785.962 .0274116
786.671 .0274112
787.381 .0274120
788.090 .0274136
788.799 .0274149
789.508 .0274157
790.217 .0274156
790.925 .0274150
791.633 .0274138
792.341 .0274124
793.048 .0274101
793.755 .0274073
794.462 .0274044
795.169 .0274005
795.875 .0273955
796.581 .0273888
797.287 .0273803
797.993 .0273698
798.698 .0273574
799.403 .0273439
800.108 .0273294
800.812 .0273162
801.517 .0273042
802.221 .0272936
802.924 .0272855
803.628 .0272792
804.331 .0272750
805.034 .0272719
805.736 .0272693
806.439 .0272663
807.141 .0272635
807.843 .0272612
808.544 .0272594
809.245 .0272583
809.946 .0272582
810.647 .0272597
811.347 .0272621
812.047 .0272650
812.747 .0272672
813.447 .0272690
814.146 .0272700
814.845 .0272693
815.543 .0272678
816.242 .0272653
816.940 .0272635
817.638 .0272624
818.335 .0272616
819.032 .0272611
819.729 .0272605
820.426 .0272598
821.122 .0272575
821.818 .0272537
822.514 .0272477
823.209 .0272398
823.905 .0272310
824.599 .0272214
825.294 .0272113
825.988 .0272012
826.682 .0271919
827.376 .0271827
828.069 .0271735
828.762 .0271635
829.455 .0271525
830.147 .0271404
830.840 .0271273
831.531 .0271131
832.223 .0270979
832.914 .0270828
833.605 .0270681
834.296 .0270547
834.986 .0270431
835.676 .0270334
836.366 .0270259
837.055 .0270199
837.744 .0270146
838.433 .0270089
839.121 .0270024
839.809 .0269948
840.497 .0269857
841.185 .0269754
841.872 .0269645
842.559 .0269540
843.245 .0269442
843.932 .0269365
844.617 .0269305
845.303 .0269260
845.988 .0269221
846.673 .0269183
847.358 .0269142
848.042 .0269089
848.726 .0269022
849.410 .0268945
850.093 .0268861
850.776 .0268771
851.459 .0268672
852.141 .0268570
852.823 .0268464
853.505 .0268352
854.186 .0268228
854.867 .0268089
855.548 .0267935
856.228 .0267771
856.908 .0267596
857.588 .0267409
858.267 .0267214
858.946 .0267008
859.625 .0266793
860.303 .0266573
860.981 .0266347
861.659 .0266122
862.336 .0265902
863.013 .0265696
863.690 .0265497
864.366 .0265307
865.042 .0265129
865.718 .0264957
866.393 .0264792
867.068 .0264627
867.743 .0264462
868.417 .0264300
869.091 .0264145
869.765 .0263998
870.438 .0263854
871.111 .0263719
871.783 .0263582
872.456 .0263444
873.127 .0263299
873.799 .0263141
874.470 .0262972
875.141 .0262795
875.811 .0262613
876.481 .0262425
877.151 .0262235
877.820 .0262048
878.489 .0261868
879.158 .0261690
879.826 .0261510
880.494 .0261327
881.162 .0261140
881.829 .0260946
882.496 .0260741
883.163 .0260536
883.829 .0260327
884.495 .0260122
885.160 .0259928
885.825 .0259741
886.490 .0259571
887.154 .0259414
887.818 .0259271
888.482 .0259143
889.145 .0259021
889.808 .0258904
890.471 .0258783
891.133 .0258667
891.795 .0258545
892.456 .0258419
893.117 .0258296
893.778 .0258176
894.439 .0258059
895.099 .0257940
895.758 .0257814
896.417 .0257680
897.076 .0257533
897.735 .0257368
898.393 .0257184
899.051 .0256992
899.708 .0256789
900.365 .0256579
901.022 .0256368
901.678 .0256164
902.334 .0255968
902.990 .0255782
903.645 .0255603
904.300 .0255436
904.954 .0255277
905.608 .0255123
906.262 .0254982
906.915 .0254854
907.568 .0254739
908.221 .0254637
908.873 .0254541
909.525 .0254454
910.176 .0254364
910.828 .0254273
911.478 .0254180
912.129 .0254074
912.778 .0253961
913.428 .0253830
914.077 .0253685
914.726 .0253530
915.375 .0253362
916.023 .0253188
916.670 .0253012
917.318 .0252835
917.964 .0252653
918.611 .0252469
919.257 .0252288
919.903 .0252111
920.548 .0251933
921.193 .0251758
921.838 .0251581
922.482 .0251404
923.126 .0251237
923.770 .0251069
924.413 .0250916
925.056 .0250777
925.698 .0250647
926.340 .0250529
926.982 .0250421
927.623 .0250330
928.264 .0250250
928.904 .0250176
929.544 .0250107
930.184 .0250035
930.823 .0249961
931.462 .0249879
932.101 .0249790
932.739 .0249703
933.377 .0249622
934.014 .0249546
934.651 .0249488
935.288 .0249440
935.924 .0249412
936.560 .0249394
937.196 .0249380
937.831 .0249362
938.466 .0249331
939.100 .0249282
939.734 .0249217
940.368 .0249138
941.001 .0249050
941.634 .0248965
942.266 .0248889
942.899 .0248819
943.530 .0248759
944.162 .0248701
944.793 .0248643
945.423 .0248566
946.053 .0248474
946.683 .0248358
947.313 .0248234
947.942 .0248107
948.571 .0247982
949.199 .0247867
949.827 .0247763
950.455 .0247674
951.082 .0247588
951.709 .0247507
952.335 .0247425
952.961 .0247332
953.587 .0247234
954.212 .0247128
954.837 .0247020
955.462 .0246912
956.086 .0246809
956.710 .0246711
957.334 .0246611
957.957 .0246511
958.579 .0246406
959.202 .0246300
959.824 .0246191
960.445 .0246079
961.067 .0245967
961.688 .0245863
962.308 .0245767
962.928 .0245680
963.548 .0245607
964.168 .0245537
964.787 .0245469
965.406 .0245398
966.024 .0245322
966.642 .0245245
967.260 .0245168
967.877 .0245092
968.494 .0245021
969.110 .0244951
969.727 .0244877
970.342 .0244802
970.958 .0244735
971.573 .0244669
972.188 .0244611
972.802 .0244559
973.416 .0244515
974.030 .0244484
974.643 .0244469
975.256 .0244465
975.869 .0244468
976.481 .0244480
977.093 .0244496
977.705 .0244519
978.316 .0244555
978.927 .0244596
979.538 .0244654
980.148 .0244724
980.758 .0244797
981.367 .0244873
981.977 .0244956
982.586 .0245043
983.194 .0245128
983.802 .0245206
984.410 .0245274
985.018 .0245334
985.625 .0245387
986.232 .0245436
986.838 .0245485
987.445 .0245535
988.050 .0245583
988.656 .0245629
989.261 .0245668
989.866 .0245687
990.471 .0245694
991.075 .0245686
991.679 .0245661
992.282 .0245627
992.886 .0245585
993.489 .0245546
994.091 .0245518
994.694 .0245498
995.296 .0245482
995.897 .0245470
996.499 .0245461
997.100 .0245439
997.701 .0245409
998.301 .0245375
998.901 .0245344
999.501 .0245324
1000.101 .0245323
1000.700 .0245341
1001.299 .0245381
1001.898 .0245436
1002.496 .0245504
1003.094 .0245576
1003.692 .0245653
1004.289 .0245725
1004.887 .0245797
1005.484 .0245873
1006.080 .0245952
1006.677 .0246034
1007.273 .0246118
1007.868 .0246194
1008.464 .0246265
1009.059 .0246316
1009.654 .0246356
1010.249 .0246390
1010.843 .0246433
1011.437 .0246492
1012.031 .0246564
1012.625 .0246655
1013.218 .0246757
1013.811 .0246860
1014.404 .0246960
1014.997 .0247043
1015.589 .0247101
1016.181 .0247146
1016.773 .0247183
1017.365 .0247221
1017.956 .0247268
1018.547 .0247329
1019.138 .0247400
1019.728 .0247476
1020.319 .0247542
1020.909 .0247578
1021.499 .0247571
1022.088 .0247528
1022.678 .0247425
1023.267 .0247285
1023.856 .0247125
1024.445 .0246956
1025.033 .0246798
1025.621 .0246667
1026.209 .0246553
1026.797 .0246451
1027.385 .0246366
1027.972 .0246302
1028.560 .0246247
1029.147 .0246203
1029.734 .0246166
1030.320 .0246142
1030.907 .0246135
1031.493 .0246147
1032.079 .0246161
1032.665 .0246190
1033.250 .0246217
1033.836 .0246224
1034.421 .0246205
1035.006 .0246169
1035.591 .0246117
1036.176 .0246051
1036.761 .0245979
1037.345 .0245898
1037.929 .0245805
1038.514 .0245708
1039.097 .0245610
1039.681 .0245517
1040.265 .0245430
1040.848 .0245348
1041.432 .0245272
1042.015 .0245214
1042.598 .0245176
1043.181 .0245159
1043.764 .0245166
1044.346 .0245181
1044.929 .0245195
1045.511 .0245195
1046.094 .0245190
1046.676 .0245161
1047.258 .0245112
1047.840 .0245037
1048.422 .0244942
1049.003 .0244817
1049.585 .0244671
1050.166 .0244506
1050.748 .0244337
1051.329 .0244171
1051.910 .0244004
1052.491 .0243828
1053.072 .0243660
1053.653 .0243497
1054.234 .0243336
1054.815 .0243169
1055.396 .0243010
1055.976 .0242842
1056.557 .0242690
1057.138 .0242557
1057.718 .0242442
1058.298 .0242346
1058.879 .0242288
1059.459 .0242246
1060.039 .0242215
1060.620 .0242178
1061.200 .0242130
1061.780 .0242067
1062.360 .0242008
1062.940 .0241934
1063.520 .0241861
1064.101 .0241804
1064.681 .0241766
1065.261 .0241724
1065.841 .0241677
1066.421 .0241608
1067.001 .0241514
1067.581 .0241391
1068.161 .0241230
1068.741 .0241046
1069.321 .0240853
1069.901 .0240655
1070.482 .0240453
1071.062 .0240248
1071.642 .0240047
1072.222 .0239847
1072.803 .0239639
1073.383 .0239444
1073.963 .0239259
1074.544 .0239108
1075.124 .0238989
1075.705 .0238906
1076.286 .0238860
1076.866 .0238838
1077.447 .0238812
1078.028 .0238798
1078.609 .0238753
1079.190 .0238707
1079.771 .0238656
1080.352 .0238627
1080.934 .0238628
1081.515 .0238667
1082.097 .0238732
1082.679 .0238835
1083.260 .0238928
1083.842 .0238997
1084.424 .0238994
1085.007 .0238927
1085.589 .0238789
1086.172 .0238590
1086.754 .0238358
1087.337 .0238131
1087.920 .0237912
1088.503 .0237732
1089.087 .0237553
1089.670 .0237406
1090.254 .0237243
1090.838 .0237045
1091.422 .0236832
1092.006 .0236586
1092.590 .0236307
1093.175 .0236031
1093.760 .0235777
1094.345 .0235576
1094.930 .0235416
1095.516 .0235291
1096.102 .0235182
1096.688 .0235079
1097.274 .0234955
1097.860 .0234782
1098.447 .0234576
1099.034 .0234347
1099.622 .0234067
1100.209 .0233784
1100.797 .0233525
1101.385 .0233281
1101.973 .0233102
1102.562 .0232933
1103.151 .0232811
1103.740 .0232695
1104.330 .0232579
1104.920 .0232466
1105.510 .0232396
1106.101 .0232365
1106.691 .0232358
1107.283 .0232423
1107.874 .0232541
1108.466 .0232651
1109.058 .0232803
1109.651 .0232903
1110.244 .0232945
1110.837 .0232903
1111.431 .0232783
1112.025 .0232570
1112.620 .0232380
1113.215 .0232198
1113.810 .0232062
1114.406 .0232014
1115.002 .0232051
1115.599 .0232093
1116.196 .0232162
1116.793 .0232227
1117.391 .0232225
1117.989 .0232160
1118.588 .0232093
1119.187 .0231941
1119.787 .0231854
1120.387 .0231850
1120.988 .0231981
1121.589 .0232223
1122.190 .0232613
1122.793 .0233046
1123.395 .0233527
1123.998 .0234014
1124.602 .0234447
1125.206 .0234772
1125.811 .0235052
1126.416 .0235254
1127.022 .0235394
1127.628 .0235515
1128.235 .0235698
1128.843 .0235901
1129.451 .0236223
1130.059 .0236527
1130.669 .0236859
1131.278 .0237180
1131.889 .0237450
1132.500 .0237640
1133.112 .0237836
1133.724 .0237976
1134.337 .0238128
1134.950 .0238308
1135.564 .0238601
1136.179 .0239044
1136.795 .0239713
1137.411 .0240557
1138.028 .0241568
1138.645 .0242742
1139.263 .0244073
1139.882 .0245401
1140.502 .0246902
1141.122 .0248395
1141.743 .0249969
1142.365 .0251504
1142.987 .0251879
1143.611 .0255518
1144.235 .0255639
1144.859 .0259254
1145.485 .0258601
