Measurement Sequence started on: 10-20-44-796
Integration time: 35
Scans to Average: 2 
>>>>>Begin Spectral Data<<<<<
432.953 .0385971
433.882 .0399198
434.810 .0409688
435.737 .0397390
436.662 .0379885
437.586 .0393786
438.509 .0393747
439.431 .0393442
440.351 .0393110
441.269 .0393223
442.187 .0393666
443.103 .0393873
444.018 .0394165
444.932 .0394467
445.844 .0394958
446.756 .0395370
447.666 .0395641
448.575 .0395510
449.482 .0395019
450.388 .0394257
451.294 .0393385
452.198 .0392510
453.100 .0391701
454.002 .0391025
454.902 .0390555
455.801 .0390105
456.699 .0389616
457.596 .0389072
458.492 .0388393
459.387 .0387582
460.280 .0386647
461.172 .0385619
462.064 .0384631
462.954 .0383687
463.843 .0382793
464.730 .0382007
465.617 .0381306
466.503 .0380644
467.387 .0380000
468.271 .0379331
469.153 .0378625
470.035 .0377855
470.915 .0377104
471.794 .0376364
472.673 .0375644
473.550 .0374989
474.426 .0374416
475.301 .0373931
476.175 .0373556
477.048 .0373173
477.920 .0372820
478.791 .0372466
479.661 .0372095
480.530 .0371665
481.398 .0371195
482.266 .0370718
483.132 .0370261
483.997 .0369838
484.861 .0369479
485.724 .0369167
486.587 .0368950
487.448 .0368742
488.308 .0368538
489.168 .0368297
490.026 .0368024
490.884 .0367700
491.741 .0367339
492.597 .0366930
493.452 .0366501
494.306 .0366090
495.159 .0365714
496.011 .0365340
496.862 .0364980
497.713 .0364565
498.562 .0364072
499.411 .0363473
500.259 .0362758
501.106 .0361915
501.952 .0361031
502.798 .0360139
503.642 .0359233
504.486 .0358360
505.329 .0357516
506.171 .0356746
507.012 .0356009
507.852 .0355256
508.692 .0354417
509.531 .0353512
510.369 .0352562
511.206 .0351507
512.043 .0350432
512.878 .0349389
513.713 .0348351
514.547 .0347348
515.381 .0346350
516.213 .0345350
517.045 .0344269
517.876 .0343111
518.706 .0341811
519.536 .0340378
520.365 .0338786
521.193 .0337057
522.020 .0335256
522.847 .0333417
523.673 .0331467
524.498 .0329398
525.323 .0327321
526.146 .0325269
526.969 .0323269
527.792 .0321383
528.614 .0319661
529.435 .0318153
530.255 .0316780
531.075 .0315490
531.894 .0314299
532.712 .0313187
533.530 .0312063
534.347 .0310929
535.163 .0309866
535.979 .0308895
536.794 .0308102
537.608 .0307592
538.422 .0307352
539.235 .0307306
540.048 .0307350
540.860 .0307412
541.671 .0307416
542.481 .0307350
543.292 .0307116
544.101 .0306824
544.910 .0306530
545.718 .0306287
546.526 .0306143
547.333 .0306230
548.139 .0306549
548.945 .0307047
549.750 .0307591
550.555 .0308200
551.359 .0308742
552.162 .0309254
552.965 .0309693
553.768 .0310133
554.569 .0310543
555.371 .0310974
556.171 .0311428
556.972 .0311950
557.771 .0312479
558.570 .0313030
559.369 .0313561
560.167 .0314098
560.964 .0314569
561.761 .0314988
562.558 .0315402
563.354 .0315879
564.149 .0316380
564.944 .0316944
565.738 .0317556
566.532 .0318269
567.325 .0318997
568.118 .0319725
568.910 .0320453
569.702 .0321157
570.494 .0321840
571.285 .0322494
572.075 .0323155
572.865 .0323810
573.654 .0324464
574.443 .0325118
575.232 .0325747
576.020 .0326340
576.807 .0326873
577.594 .0327343
578.381 .0327767
579.167 .0328133
579.952 .0328429
580.738 .0328691
581.522 .0328952
582.307 .0329202
583.091 .0329444
583.874 .0329679
584.657 .0329930
585.440 .0330186
586.222 .0330442
587.004 .0330671
587.785 .0330878
588.566 .0331066
589.346 .0331210
590.126 .0331324
590.906 .0331420
591.685 .0331498
592.464 .0331576
593.242 .0331670
594.020 .0331764
594.797 .0331863
595.575 .0331971
596.351 .0332074
597.128 .0332152
597.904 .0332203
598.679 .0332207
599.454 .0332169
600.229 .0332096
601.004 .0331978
601.778 .0331817
602.551 .0331638
603.325 .0331429
604.097 .0331194
604.870 .0330944
605.642 .0330680
606.414 .0330398
607.185 .0330107
607.956 .0329807
608.727 .0329502
609.497 .0329196
610.267 .0328896
611.037 .0328599
611.806 .0328316
612.575 .0328043
613.344 .0327777
614.112 .0327526
614.880 .0327285
615.647 .0327054
616.414 .0326830
617.181 .0326606
617.948 .0326377
618.714 .0326143
619.480 .0325898
620.245 .0325642
621.011 .0325369
621.775 .0325086
622.540 .0324791
623.304 .0324492
624.068 .0324185
624.832 .0323874
625.595 .0323558
626.358 .0323239
627.120 .0322911
627.883 .0322578
628.645 .0322236
629.406 .0321903
630.168 .0321576
630.929 .0321269
631.689 .0320978
632.450 .0320705
633.210 .0320445
633.970 .0320197
634.729 .0319952
635.489 .0319703
636.248 .0319450
637.006 .0319197
637.765 .0318938
638.523 .0318686
639.280 .0318442
640.038 .0318221
640.795 .0318020
641.552 .0317840
642.309 .0317677
643.065 .0317530
643.821 .0317392
644.577 .0317261
645.332 .0317133
646.088 .0317008
646.843 .0316888
647.597 .0316769
648.352 .0316659
649.106 .0316564
649.860 .0316479
650.613 .0316405
651.367 .0316342
652.120 .0316283
652.872 .0316223
653.625 .0316159
654.377 .0316093
655.129 .0316013
655.881 .0315928
656.632 .0315822
657.384 .0315701
658.135 .0315569
658.885 .0315428
659.636 .0315280
660.386 .0315130
661.136 .0314972
661.885 .0314810
662.635 .0314644
663.384 .0314482
664.133 .0314316
664.881 .0314153
665.630 .0313990
666.378 .0313826
667.126 .0313658
667.874 .0313487
668.621 .0313312
669.368 .0313133
670.115 .0312943
670.862 .0312748
671.608 .0312552
672.354 .0312363
673.100 .0312182
673.846 .0312007
674.591 .0311836
675.337 .0311667
676.082 .0311490
676.826 .0311304
677.571 .0311109
678.315 .0310904
679.059 .0310689
679.803 .0310471
680.547 .0310251
681.290 .0310032
682.033 .0309815
682.776 .0309602
683.518 .0309383
684.261 .0309152
685.003 .0308903
685.745 .0308631
686.487 .0308345
687.228 .0308041
687.969 .0307721
688.710 .0307393
689.451 .0307065
690.192 .0306739
690.932 .0306413
691.672 .0306097
692.412 .0305788
693.152 .0305482
693.891 .0305175
694.630 .0304865
695.369 .0304555
696.108 .0304249
696.846 .0303947
697.585 .0303653
698.323 .0303376
699.061 .0303116
699.798 .0302870
700.536 .0302637
701.273 .0302418
702.010 .0302200
702.746 .0301981
703.483 .0301757
704.219 .0301527
704.955 .0301288
705.691 .0301048
706.427 .0300804
707.162 .0300567
707.897 .0300338
708.632 .0300114
709.367 .0299893
710.101 .0299677
710.835 .0299459
711.569 .0299239
712.303 .0299022
713.037 .0298812
713.770 .0298606
714.503 .0298410
715.236 .0298221
715.969 .0298041
716.702 .0297869
717.434 .0297704
718.166 .0297539
718.898 .0297373
719.629 .0297205
720.361 .0297034
721.092 .0296867
721.823 .0296708
722.554 .0296555
723.284 .0296408
724.014 .0296263
724.744 .0296118
725.474 .0295968
726.204 .0295817
726.933 .0295659
727.662 .0295499
728.391 .0295342
729.120 .0295181
729.849 .0295024
730.577 .0294876
731.305 .0294737
732.033 .0294606
732.760 .0294478
733.488 .0294352
734.215 .0294226
734.942 .0294100
735.669 .0293968
736.395 .0293836
737.122 .0293709
737.848 .0293581
738.573 .0293453
739.299 .0293330
740.024 .0293207
740.750 .0293088
741.474 .0292974
742.199 .0292861
742.924 .0292749
743.648 .0292643
744.372 .0292539
745.096 .0292443
745.819 .0292353
746.543 .0292266
747.266 .0292182
747.989 .0292106
748.711 .0292033
749.434 .0291959
750.156 .0291897
750.878 .0291842
751.599 .0291795
752.321 .0291755
753.042 .0291716
753.763 .0291684
754.484 .0291652
755.205 .0291621
755.925 .0291584
756.645 .0291545
757.365 .0291497
758.085 .0291439
758.804 .0291369
759.523 .0291285
760.242 .0291180
760.961 .0291060
761.679 .0290919
762.397 .0290755
763.115 .0290575
763.833 .0290385
764.551 .0290182
765.268 .0289976
765.985 .0289759
766.702 .0289542
767.418 .0289318
768.134 .0289093
768.850 .0288863
769.566 .0288634
770.282 .0288411
770.997 .0288186
771.712 .0287967
772.427 .0287758
773.142 .0287557
773.856 .0287367
774.570 .0287183
775.284 .0286999
775.998 .0286811
776.711 .0286620
777.424 .0286427
778.137 .0286228
778.849 .0286024
779.562 .0285815
780.274 .0285600
780.986 .0285382
781.697 .0285164
782.409 .0284948
783.120 .0284745
783.831 .0284551
784.541 .0284369
785.252 .0284196
785.962 .0284028
786.671 .0283862
787.381 .0283693
788.090 .0283514
788.799 .0283324
789.508 .0283117
790.217 .0282902
790.925 .0282680
791.633 .0282460
792.341 .0282240
793.048 .0282020
793.755 .0281799
794.462 .0281568
795.169 .0281325
795.875 .0281068
796.581 .0280794
797.287 .0280509
797.993 .0280219
798.698 .0279931
799.403 .0279654
800.108 .0279395
800.812 .0279159
801.517 .0278946
802.221 .0278752
802.924 .0278569
803.628 .0278394
804.331 .0278227
805.034 .0278070
805.736 .0277912
806.439 .0277761
807.141 .0277617
807.843 .0277480
808.544 .0277347
809.245 .0277215
809.946 .0277077
810.647 .0276931
811.347 .0276774
812.047 .0276605
812.747 .0276427
813.447 .0276244
814.146 .0276054
814.845 .0275868
815.543 .0275682
816.242 .0275501
816.940 .0275321
817.638 .0275146
818.335 .0274974
819.032 .0274805
819.729 .0274637
820.426 .0274472
821.122 .0274310
821.818 .0274157
822.514 .0274009
823.209 .0273873
823.905 .0273743
824.599 .0273619
825.294 .0273496
825.988 .0273373
826.682 .0273247
827.376 .0273117
828.069 .0272985
828.762 .0272852
829.455 .0272718
830.147 .0272586
830.840 .0272456
831.531 .0272332
832.223 .0272214
832.914 .0272100
833.605 .0271985
834.296 .0271872
834.986 .0271759
835.676 .0271645
836.366 .0271533
837.055 .0271425
837.744 .0271325
838.433 .0271231
839.121 .0271145
839.809 .0271064
840.497 .0270988
841.185 .0270920
841.872 .0270852
842.559 .0270790
843.245 .0270728
843.932 .0270671
844.617 .0270618
845.303 .0270572
845.988 .0270533
846.673 .0270498
847.358 .0270467
848.042 .0270438
848.726 .0270411
849.410 .0270385
850.093 .0270361
850.776 .0270339
851.459 .0270320
852.141 .0270301
852.823 .0270284
853.505 .0270266
854.186 .0270243
854.867 .0270217
855.548 .0270183
856.228 .0270144
856.908 .0270099
857.588 .0270055
858.267 .0270017
858.946 .0269983
859.625 .0269957
860.303 .0269936
860.981 .0269915
861.659 .0269890
862.336 .0269859
863.013 .0269816
863.690 .0269761
864.366 .0269694
865.042 .0269618
865.718 .0269545
866.393 .0269477
867.068 .0269418
867.743 .0269371
868.417 .0269331
869.091 .0269289
869.765 .0269242
870.438 .0269188
871.111 .0269124
871.783 .0269049
872.456 .0268965
873.127 .0268878
873.799 .0268792
874.470 .0268711
875.141 .0268633
875.811 .0268561
876.481 .0268491
877.151 .0268417
877.820 .0268339
878.489 .0268253
879.158 .0268166
879.826 .0268077
880.494 .0267992
881.162 .0267913
881.829 .0267840
882.496 .0267772
883.163 .0267706
883.829 .0267643
884.495 .0267582
885.160 .0267525
885.825 .0267476
886.490 .0267439
887.154 .0267416
887.818 .0267405
888.482 .0267408
889.145 .0267414
889.808 .0267424
890.471 .0267426
891.133 .0267420
891.795 .0267399
892.456 .0267368
893.117 .0267333
893.778 .0267295
894.439 .0267264
895.099 .0267237
895.758 .0267209
896.417 .0267177
897.076 .0267130
897.735 .0267061
898.393 .0266966
899.051 .0266849
899.708 .0266703
900.365 .0266538
901.022 .0266362
901.678 .0266181
902.334 .0266003
902.990 .0265829
903.645 .0265657
904.300 .0265482
904.954 .0265304
905.608 .0265116
906.262 .0264924
906.915 .0264732
907.568 .0264540
908.221 .0264358
908.873 .0264192
909.525 .0264041
910.176 .0263906
910.828 .0263784
911.478 .0263673
912.129 .0263563
912.778 .0263447
913.428 .0263321
914.077 .0263190
914.726 .0263049
915.375 .0262902
916.023 .0262751
916.670 .0262601
917.318 .0262450
917.964 .0262299
918.611 .0262145
919.257 .0261987
919.903 .0261827
920.548 .0261662
921.193 .0261495
921.838 .0261333
922.482 .0261173
923.126 .0261016
923.770 .0260864
924.413 .0260712
925.056 .0260558
925.698 .0260406
926.340 .0260253
926.982 .0260103
927.623 .0259948
928.264 .0259790
928.904 .0259625
929.544 .0259450
930.184 .0259266
930.823 .0259064
931.462 .0258851
932.101 .0258627
932.739 .0258395
933.377 .0258155
934.014 .0257910
934.651 .0257670
935.288 .0257429
935.924 .0257188
936.560 .0256943
937.196 .0256698
937.831 .0256449
938.466 .0256201
939.100 .0255955
939.734 .0255713
940.368 .0255484
941.001 .0255263
941.634 .0255054
942.266 .0254853
942.899 .0254656
943.530 .0254458
944.162 .0254250
944.793 .0254035
945.423 .0253800
946.053 .0253558
946.683 .0253306
947.313 .0253050
947.942 .0252791
948.571 .0252529
949.199 .0252262
949.827 .0251989
950.455 .0251712
951.082 .0251429
951.709 .0251137
952.335 .0250845
952.961 .0250552
953.587 .0250267
954.212 .0249991
954.837 .0249733
955.462 .0249492
956.086 .0249271
956.710 .0249064
957.334 .0248872
957.957 .0248691
958.579 .0248521
959.202 .0248354
959.824 .0248187
960.445 .0248017
961.067 .0247846
961.688 .0247669
962.308 .0247490
962.928 .0247308
963.548 .0247125
964.168 .0246936
964.787 .0246744
965.406 .0246551
966.024 .0246360
966.642 .0246173
967.260 .0245990
967.877 .0245810
968.494 .0245632
969.110 .0245451
969.727 .0245268
970.342 .0245086
970.958 .0244911
971.573 .0244738
972.188 .0244576
972.802 .0244430
973.416 .0244302
974.030 .0244191
974.643 .0244096
975.256 .0244020
975.869 .0243954
976.481 .0243893
977.093 .0243835
977.705 .0243780
978.316 .0243733
978.927 .0243691
979.538 .0243658
980.148 .0243633
980.758 .0243619
981.367 .0243616
981.977 .0243625
982.586 .0243643
983.194 .0243668
983.802 .0243693
984.410 .0243710
985.018 .0243717
985.625 .0243710
986.232 .0243685
986.838 .0243649
987.445 .0243610
988.050 .0243571
988.656 .0243533
989.261 .0243506
989.866 .0243483
990.471 .0243467
991.075 .0243451
991.679 .0243426
992.282 .0243390
992.886 .0243343
993.489 .0243285
994.091 .0243216
994.694 .0243148
995.296 .0243081
995.897 .0243015
996.499 .0242956
997.100 .0242899
997.701 .0242840
998.301 .0242784
998.901 .0242731
999.501 .0242683
1000.101 .0242647
1000.700 .0242624
1001.299 .0242615
1001.898 .0242631
1002.496 .0242664
1003.094 .0242711
1003.692 .0242771
1004.289 .0242843
1004.887 .0242920
1005.484 .0243002
1006.080 .0243093
1006.677 .0243189
1007.273 .0243289
1007.868 .0243394
1008.464 .0243498
1009.059 .0243608
1009.654 .0243721
1010.249 .0243831
1010.843 .0243941
1011.437 .0244054
1012.031 .0244161
1012.625 .0244261
1013.218 .0244355
1013.811 .0244447
1014.404 .0244537
1014.997 .0244634
1015.589 .0244742
1016.181 .0244855
1016.773 .0244986
1017.365 .0245127
1017.956 .0245270
1018.547 .0245405
1019.138 .0245523
1019.728 .0245619
1020.319 .0245695
1020.909 .0245753
1021.499 .0245797
1022.088 .0245836
1022.678 .0245881
1023.267 .0245929
1023.856 .0245972
1024.445 .0246011
1025.033 .0246048
1025.621 .0246070
1026.209 .0246077
1026.797 .0246068
1027.385 .0246059
1027.972 .0246057
1028.560 .0246075
1029.147 .0246117
1029.734 .0246181
1030.320 .0246269
1030.907 .0246369
1031.493 .0246468
1032.079 .0246561
1032.665 .0246645
1033.250 .0246715
1033.836 .0246778
1034.421 .0246845
1035.006 .0246918
1035.591 .0247003
1036.176 .0247113
1036.761 .0247234
1037.345 .0247363
1037.929 .0247487
1038.514 .0247601
1039.097 .0247698
1039.681 .0247788
1040.265 .0247857
1040.848 .0247917
1041.432 .0247974
1042.015 .0248039
1042.598 .0248103
1043.181 .0248180
1043.764 .0248258
1044.346 .0248340
1044.929 .0248409
1045.511 .0248462
1046.094 .0248491
1046.676 .0248507
1047.258 .0248499
1047.840 .0248481
1048.422 .0248458
1049.003 .0248435
1049.585 .0248410
1050.166 .0248404
1050.748 .0248408
1051.329 .0248428
1051.910 .0248451
1052.491 .0248487
1053.072 .0248522
1053.653 .0248564
1054.234 .0248588
1054.815 .0248611
1055.396 .0248642
1055.976 .0248672
1056.557 .0248695
1057.138 .0248736
1057.718 .0248784
1058.298 .0248840
1058.879 .0248901
1059.459 .0248964
1060.039 .0249018
1060.620 .0249056
1061.200 .0249061
1061.780 .0249034
1062.360 .0248975
1062.940 .0248895
1063.520 .0248790
1064.101 .0248692
1064.681 .0248600
1065.261 .0248506
1065.841 .0248419
1066.421 .0248348
1067.001 .0248278
1067.581 .0248198
1068.161 .0248106
1068.741 .0248011
1069.321 .0247918
1069.901 .0247837
1070.482 .0247785
1071.062 .0247774
1071.642 .0247808
1072.222 .0247884
1072.803 .0247981
1073.383 .0248103
1073.963 .0248230
1074.544 .0248345
1075.124 .0248451
1075.705 .0248532
1076.286 .0248598
1076.866 .0248642
1077.447 .0248687
1078.028 .0248731
1078.609 .0248775
1079.190 .0248813
1079.771 .0248842
1080.352 .0248861
1080.934 .0248875
1081.515 .0248872
1082.097 .0248862
1082.679 .0248858
1083.260 .0248853
1083.842 .0248836
1084.424 .0248818
1085.007 .0248801
1085.589 .0248789
1086.172 .0248762
1086.754 .0248735
1087.337 .0248698
1087.920 .0248663
1088.503 .0248604
1089.087 .0248521
1089.670 .0248423
1090.254 .0248284
1090.838 .0248090
1091.422 .0247848
1092.006 .0247566
1092.590 .0247260
1093.175 .0246929
1093.760 .0246602
1094.345 .0246284
1094.930 .0245982
1095.516 .0245702
1096.102 .0245453
1096.688 .0245244
1097.274 .0245070
1097.860 .0244917
1098.447 .0244806
1099.034 .0244732
1099.622 .0244671
1100.209 .0244632
1100.797 .0244623
1101.385 .0244627
1101.973 .0244643
1102.562 .0244655
1103.151 .0244682
1103.740 .0244722
1104.330 .0244784
1104.920 .0244868
1105.510 .0244967
1106.101 .0245103
1106.691 .0245252
1107.283 .0245389
1107.874 .0245529
1108.466 .0245640
1109.058 .0245732
1109.651 .0245802
1110.244 .0245847
1110.837 .0245861
1111.431 .0245855
1112.025 .0245847
1112.620 .0245857
1113.215 .0245888
1113.810 .0245928
1114.406 .0245978
1115.002 .0246016
1115.599 .0246029
1116.196 .0245989
1116.793 .0245872
1117.391 .0245716
1117.989 .0245486
1118.588 .0245236
1119.187 .0244971
1119.787 .0244717
1120.387 .0244535
1120.988 .0244384
1121.589 .0244322
1122.190 .0244327
1122.793 .0244364
1123.395 .0244425
1123.998 .0244527
1124.602 .0244653
1125.206 .0244789
1125.811 .0244973
1126.416 .0245213
1127.022 .0245512
1127.628 .0245898
1128.235 .0246339
1128.843 .0246825
1129.451 .0247359
1130.059 .0247910
1130.669 .0248406
1131.278 .0248915
1131.889 .0249359
1132.500 .0249705
1133.112 .0249993
1133.724 .0250200
1134.337 .0250330
1134.950 .0250374
1135.564 .0250398
1136.179 .0250396
1136.795 .0250376
1137.411 .0250402
1138.028 .0250424
1138.645 .0250521
1139.263 .0250637
1139.882 .0250744
1140.502 .0250911
1141.122 .0251171
1141.743 .0251570
1142.365 .0251890
1142.987 .0251043
1143.611 .0253174
1144.235 .0254873
1144.859 .0256342
1145.485 .0251134
