Measurement Sequence started on: 10-20-44-796
Integration time: 35
Scans to Average: 2 
>>>>>Begin Spectral Data<<<<<
432.953 .0473012
433.882 .0401306
434.810 .0380683
435.737 .0354411
436.662 .0338513
437.586 .0354544
438.509 .0347179
439.431 .0344209
440.351 .0343087
441.269 .0343307
442.187 .0344157
443.103 .0345045
444.018 .0346124
444.932 .0347235
445.844 .0348184
446.756 .0349234
447.666 .0350287
448.575 .0351274
449.482 .0352043
450.388 .0352744
451.294 .0353278
452.198 .0353634
453.100 .0353742
454.002 .0353772
454.902 .0353622
455.801 .0353311
456.699 .0353049
457.596 .0352746
458.492 .0352509
459.387 .0352225
460.280 .0351952
461.172 .0351633
462.064 .0351195
462.954 .0350597
463.843 .0349865
464.730 .0349098
465.617 .0348279
466.503 .0347423
467.387 .0346647
468.271 .0345974
469.153 .0345393
470.035 .0344881
470.915 .0344420
471.794 .0343901
472.673 .0343346
473.550 .0342686
474.426 .0341984
475.301 .0341236
476.175 .0340504
477.048 .0339832
477.920 .0339274
478.791 .0338875
479.661 .0338615
480.530 .0338472
481.398 .0338457
482.266 .0338510
483.132 .0338600
483.997 .0338715
484.861 .0338857
485.724 .0339045
486.587 .0339240
487.448 .0339447
488.308 .0339688
489.168 .0339938
490.026 .0340211
490.884 .0340448
491.741 .0340646
492.597 .0340819
493.452 .0340939
494.306 .0340956
495.159 .0340896
496.011 .0340757
496.862 .0340514
497.713 .0340136
498.562 .0339642
499.411 .0339036
500.259 .0338293
501.106 .0337451
501.952 .0336516
502.798 .0335509
503.642 .0334474
504.486 .0333347
505.329 .0332178
506.171 .0330968
507.012 .0329671
507.852 .0328310
508.692 .0326932
509.531 .0325550
510.369 .0324174
511.206 .0322773
512.043 .0321398
512.878 .0320016
513.713 .0318620
514.547 .0317202
515.381 .0315810
516.213 .0314475
517.045 .0313117
517.876 .0311801
518.706 .0310565
519.536 .0309381
520.365 .0308261
521.193 .0307209
522.020 .0306099
522.847 .0304959
523.673 .0303674
524.498 .0302193
525.323 .0300674
526.146 .0299095
526.969 .0297493
527.792 .0295937
528.614 .0294529
529.435 .0293268
530.255 .0292111
531.075 .0291154
531.894 .0290291
532.712 .0289527
533.530 .0288810
534.347 .0288060
535.163 .0287293
535.979 .0286556
536.794 .0285843
537.608 .0285180
538.422 .0284622
539.235 .0284087
540.048 .0283586
540.860 .0283117
541.671 .0282618
542.481 .0282132
543.292 .0281608
544.101 .0281084
544.910 .0280516
545.718 .0279905
546.526 .0279357
547.333 .0278904
548.139 .0278641
548.945 .0278545
549.750 .0278579
550.555 .0278797
551.359 .0279171
552.162 .0279652
552.965 .0280237
553.768 .0280889
554.569 .0281597
555.371 .0282231
556.171 .0282818
556.972 .0283308
557.771 .0283744
558.570 .0284152
559.369 .0284584
560.167 .0284984
560.964 .0285470
561.761 .0286027
562.558 .0286632
563.354 .0287327
564.149 .0288058
564.944 .0288767
565.738 .0289482
566.532 .0290152
567.325 .0290812
568.118 .0291457
568.910 .0292176
569.702 .0292970
570.494 .0293875
571.285 .0294867
572.075 .0295924
572.865 .0297004
573.654 .0298080
574.443 .0299037
575.232 .0299841
576.020 .0300494
576.807 .0301016
577.594 .0301430
578.381 .0301786
579.167 .0302114
579.952 .0302493
580.738 .0302919
581.522 .0303409
582.307 .0303912
583.091 .0304393
583.874 .0304826
584.657 .0305171
585.440 .0305429
586.222 .0305609
587.004 .0305742
587.785 .0305869
588.566 .0306003
589.346 .0306157
590.126 .0306323
590.906 .0306495
591.685 .0306670
592.464 .0306818
593.242 .0306910
594.020 .0306944
594.797 .0306934
595.575 .0306884
596.351 .0306821
597.128 .0306756
597.904 .0306707
598.679 .0306679
599.454 .0306675
600.229 .0306672
601.004 .0306678
601.778 .0306685
602.551 .0306683
603.325 .0306677
604.097 .0306667
604.870 .0306646
605.642 .0306619
606.414 .0306591
607.185 .0306547
607.956 .0306492
608.727 .0306429
609.497 .0306348
610.267 .0306258
611.037 .0306170
611.806 .0306067
612.575 .0305955
613.344 .0305836
614.112 .0305693
614.880 .0305519
615.647 .0305323
616.414 .0305089
617.181 .0304833
617.948 .0304564
618.714 .0304281
619.480 .0303991
620.245 .0303725
621.011 .0303463
621.775 .0303203
622.540 .0302951
623.304 .0302697
624.068 .0302435
624.832 .0302177
625.595 .0301910
626.358 .0301646
627.120 .0301399
627.883 .0301173
628.645 .0300965
629.406 .0300793
630.168 .0300636
630.929 .0300494
631.689 .0300360
632.450 .0300221
633.210 .0300052
633.970 .0299870
634.729 .0299665
635.489 .0299444
636.248 .0299209
637.006 .0298962
637.765 .0298711
638.523 .0298474
639.280 .0298243
640.038 .0298016
640.795 .0297793
641.552 .0297569
642.309 .0297327
643.065 .0297074
643.821 .0296796
644.577 .0296503
645.332 .0296210
646.088 .0295925
646.843 .0295649
647.597 .0295387
648.352 .0295142
649.106 .0294914
649.860 .0294690
650.613 .0294470
651.367 .0294239
652.120 .0293998
652.872 .0293756
653.625 .0293507
654.377 .0293266
655.129 .0293038
655.881 .0292835
656.632 .0292660
657.384 .0292510
658.135 .0292386
658.885 .0292267
659.636 .0292163
660.386 .0292064
661.136 .0291958
661.885 .0291843
662.635 .0291726
663.384 .0291610
664.133 .0291495
664.881 .0291398
665.630 .0291305
666.378 .0291223
667.126 .0291146
667.874 .0291061
668.621 .0290962
669.368 .0290839
670.115 .0290690
670.862 .0290501
671.608 .0290293
672.354 .0290062
673.100 .0289828
673.846 .0289613
674.591 .0289421
675.337 .0289262
676.082 .0289130
676.826 .0289012
677.571 .0288894
678.315 .0288763
679.059 .0288616
679.803 .0288446
680.547 .0288274
681.290 .0288102
682.033 .0287946
682.776 .0287822
683.518 .0287728
684.261 .0287659
685.003 .0287610
685.745 .0287559
686.487 .0287499
687.228 .0287423
687.969 .0287323
688.710 .0287200
689.451 .0287059
690.192 .0286904
690.932 .0286738
691.672 .0286565
692.412 .0286393
693.152 .0286214
693.891 .0286037
694.630 .0285861
695.369 .0285683
696.108 .0285518
696.846 .0285351
697.585 .0285185
698.323 .0285019
699.061 .0284847
699.798 .0284665
700.536 .0284479
701.273 .0284288
702.010 .0284095
702.746 .0283907
703.483 .0283726
704.219 .0283548
704.955 .0283376
705.691 .0283204
706.427 .0283022
707.162 .0282828
707.897 .0282628
708.632 .0282406
709.367 .0282187
710.101 .0281973
710.835 .0281763
711.569 .0281566
712.303 .0281381
713.037 .0281207
713.770 .0281039
714.503 .0280876
715.236 .0280711
715.969 .0280543
716.702 .0280380
717.434 .0280216
718.166 .0280053
718.898 .0279899
719.629 .0279753
720.361 .0279611
721.092 .0279475
721.823 .0279342
722.554 .0279202
723.284 .0279064
724.014 .0278916
724.744 .0278754
725.474 .0278570
726.204 .0278374
726.933 .0278164
727.662 .0277940
728.391 .0277709
729.120 .0277471
729.849 .0277232
730.577 .0277010
731.305 .0276793
732.033 .0276587
732.760 .0276395
733.488 .0276211
734.215 .0276023
734.942 .0275829
735.669 .0275628
736.395 .0275415
737.122 .0275198
737.848 .0274977
738.573 .0274755
739.299 .0274547
740.024 .0274353
740.750 .0274172
741.474 .0274008
742.199 .0273847
742.924 .0273678
743.648 .0273494
744.372 .0273293
745.096 .0273076
745.819 .0272852
746.543 .0272627
747.266 .0272419
747.989 .0272235
748.711 .0272077
749.434 .0271949
750.156 .0271853
750.878 .0271780
751.599 .0271722
752.321 .0271673
753.042 .0271629
753.763 .0271585
754.484 .0271544
755.205 .0271502
755.925 .0271463
756.645 .0271426
757.365 .0271379
758.085 .0271324
758.804 .0271256
759.523 .0271160
760.242 .0271035
760.961 .0270880
761.679 .0270693
762.397 .0270468
763.115 .0270214
763.833 .0269933
764.551 .0269634
765.268 .0269334
765.985 .0269033
766.702 .0268737
767.418 .0268453
768.134 .0268176
768.850 .0267910
769.566 .0267659
770.282 .0267415
770.997 .0267177
771.712 .0266951
772.427 .0266737
773.142 .0266534
773.856 .0266352
774.570 .0266193
775.284 .0266054
775.998 .0265931
776.711 .0265815
777.424 .0265697
778.137 .0265580
778.849 .0265454
779.562 .0265318
780.274 .0265180
780.986 .0265037
781.697 .0264892
782.409 .0264760
783.120 .0264641
783.831 .0264542
784.541 .0264463
785.252 .0264399
785.962 .0264347
786.671 .0264302
787.381 .0264258
788.090 .0264201
788.799 .0264136
789.508 .0264059
790.217 .0263963
790.925 .0263857
791.633 .0263742
792.341 .0263621
793.048 .0263501
793.755 .0263377
794.462 .0263244
795.169 .0263109
795.875 .0262964
796.581 .0262819
797.287 .0262678
797.993 .0262543
798.698 .0262423
799.403 .0262317
800.108 .0262234
800.812 .0262169
801.517 .0262119
802.221 .0262083
802.924 .0262062
803.628 .0262052
804.331 .0262050
805.034 .0262051
805.736 .0262057
806.439 .0262063
807.141 .0262068
807.843 .0262070
808.544 .0262057
809.245 .0262030
809.946 .0261985
810.647 .0261919
811.347 .0261836
812.047 .0261741
812.747 .0261642
813.447 .0261543
814.146 .0261446
814.845 .0261352
815.543 .0261260
816.242 .0261174
816.940 .0261090
817.638 .0261008
818.335 .0260931
819.032 .0260860
819.729 .0260793
820.426 .0260733
821.122 .0260675
821.818 .0260620
822.514 .0260556
823.209 .0260489
823.905 .0260415
824.599 .0260333
825.294 .0260242
825.988 .0260147
826.682 .0260048
827.376 .0259944
828.069 .0259833
828.762 .0259713
829.455 .0259581
830.147 .0259447
830.840 .0259306
831.531 .0259165
832.223 .0259028
832.914 .0258900
833.605 .0258775
834.296 .0258656
834.986 .0258540
835.676 .0258429
836.366 .0258320
837.055 .0258219
837.744 .0258125
838.433 .0258040
839.121 .0257971
839.809 .0257913
840.497 .0257868
841.185 .0257839
841.872 .0257814
842.559 .0257785
843.245 .0257751
843.932 .0257714
844.617 .0257670
845.303 .0257621
845.988 .0257578
846.673 .0257535
847.358 .0257494
848.042 .0257453
848.726 .0257411
849.410 .0257361
850.093 .0257307
850.776 .0257241
851.459 .0257164
852.141 .0257074
852.823 .0256973
853.505 .0256863
854.186 .0256747
854.867 .0256621
855.548 .0256480
856.228 .0256328
856.908 .0256177
857.588 .0256018
858.267 .0255864
858.946 .0255718
859.625 .0255587
860.303 .0255469
860.981 .0255362
861.659 .0255269
862.336 .0255185
863.013 .0255106
863.690 .0255030
864.366 .0254951
865.042 .0254871
865.718 .0254790
866.393 .0254712
867.068 .0254642
867.743 .0254578
868.417 .0254511
869.091 .0254449
869.765 .0254386
870.438 .0254315
871.111 .0254231
871.783 .0254129
872.456 .0254011
873.127 .0253869
873.799 .0253712
874.470 .0253546
875.141 .0253377
875.811 .0253216
876.481 .0253063
877.151 .0252928
877.820 .0252809
878.489 .0252701
879.158 .0252599
879.826 .0252505
880.494 .0252408
881.162 .0252307
881.829 .0252203
882.496 .0252102
883.163 .0252007
883.829 .0251919
884.495 .0251842
885.160 .0251776
885.825 .0251719
886.490 .0251670
887.154 .0251612
887.818 .0251546
888.482 .0251461
889.145 .0251357
889.808 .0251240
890.471 .0251115
891.133 .0250989
891.795 .0250870
892.456 .0250762
893.117 .0250665
893.778 .0250579
894.439 .0250498
895.099 .0250415
895.758 .0250325
896.417 .0250231
897.076 .0250124
897.735 .0250011
898.393 .0249905
899.051 .0249807
899.708 .0249724
900.365 .0249659
901.022 .0249599
901.678 .0249548
902.334 .0249498
902.990 .0249439
903.645 .0249360
904.300 .0249274
904.954 .0249170
905.608 .0249051
906.262 .0248930
906.915 .0248806
907.568 .0248681
908.221 .0248567
908.873 .0248460
909.525 .0248355
910.176 .0248248
910.828 .0248140
911.478 .0248022
912.129 .0247903
912.778 .0247779
913.428 .0247649
914.077 .0247520
914.726 .0247396
915.375 .0247270
916.023 .0247153
916.670 .0247043
917.318 .0246934
917.964 .0246825
918.611 .0246707
919.257 .0246578
919.903 .0246433
920.548 .0246270
921.193 .0246098
921.838 .0245920
922.482 .0245738
923.126 .0245554
923.770 .0245378
924.413 .0245204
925.056 .0245042
925.698 .0244892
926.340 .0244752
926.982 .0244614
927.623 .0244486
928.264 .0244364
928.904 .0244243
929.544 .0244133
930.184 .0244024
930.823 .0243915
931.462 .0243813
932.101 .0243699
932.739 .0243578
933.377 .0243451
934.014 .0243321
934.651 .0243182
935.288 .0243039
935.924 .0242896
936.560 .0242743
937.196 .0242585
937.831 .0242427
938.466 .0242259
939.100 .0242084
939.734 .0241903
940.368 .0241713
941.001 .0241528
941.634 .0241349
942.266 .0241178
942.899 .0241019
943.530 .0240863
944.162 .0240706
944.793 .0240533
945.423 .0240343
946.053 .0240135
946.683 .0239900
947.313 .0239653
947.942 .0239387
948.571 .0239114
949.199 .0238838
949.827 .0238569
950.455 .0238309
951.082 .0238051
951.709 .0237791
952.335 .0237530
952.961 .0237261
953.587 .0236991
954.212 .0236724
954.837 .0236469
955.462 .0236234
956.086 .0236026
956.710 .0235847
957.334 .0235702
957.957 .0235588
958.579 .0235504
959.202 .0235436
959.824 .0235383
960.445 .0235333
961.067 .0235284
961.688 .0235240
962.308 .0235198
962.928 .0235159
963.548 .0235125
964.168 .0235087
964.787 .0235045
965.406 .0234996
966.024 .0234942
966.642 .0234874
967.260 .0234797
967.877 .0234711
968.494 .0234613
969.110 .0234504
969.727 .0234392
970.342 .0234277
970.958 .0234165
971.573 .0234058
972.188 .0233951
972.802 .0233852
973.416 .0233758
974.030 .0233672
974.643 .0233595
975.256 .0233527
975.869 .0233468
976.481 .0233416
977.093 .0233371
977.705 .0233332
978.316 .0233297
978.927 .0233263
979.538 .0233228
980.148 .0233186
980.758 .0233135
981.367 .0233077
981.977 .0233018
982.586 .0232961
983.194 .0232904
983.802 .0232857
984.410 .0232812
985.018 .0232778
985.625 .0232750
986.232 .0232728
986.838 .0232710
987.445 .0232695
988.050 .0232674
988.656 .0232649
989.261 .0232622
989.866 .0232590
990.471 .0232555
991.075 .0232520
991.679 .0232479
992.282 .0232437
992.886 .0232400
993.489 .0232363
994.091 .0232331
994.694 .0232314
995.296 .0232303
995.897 .0232300
996.499 .0232305
997.100 .0232314
997.701 .0232329
998.301 .0232347
998.901 .0232367
999.501 .0232386
1000.101 .0232416
1000.700 .0232445
1001.299 .0232476
1001.898 .0232513
1002.496 .0232540
1003.094 .0232557
1003.692 .0232558
1004.289 .0232535
1004.887 .0232498
1005.484 .0232445
1006.080 .0232373
1006.677 .0232298
1007.273 .0232218
1007.868 .0232134
1008.464 .0232053
1009.059 .0231984
1009.654 .0231925
1010.249 .0231879
1010.843 .0231855
1011.437 .0231847
1012.031 .0231860
1012.625 .0231906
1013.218 .0231968
1013.811 .0232062
1014.404 .0232193
1014.997 .0232336
1015.589 .0232488
1016.181 .0232654
1016.773 .0232814
1017.365 .0232966
1017.956 .0233105
1018.547 .0233233
1019.138 .0233337
1019.728 .0233434
1020.319 .0233517
1020.909 .0233589
1021.499 .0233667
1022.088 .0233740
1022.678 .0233801
1023.267 .0233856
1023.856 .0233901
1024.445 .0233921
1025.033 .0233928
1025.621 .0233932
1026.209 .0233920
1026.797 .0233904
1027.385 .0233900
1027.972 .0233916
1028.560 .0233951
1029.147 .0234010
1029.734 .0234090
1030.320 .0234178
1030.907 .0234270
1031.493 .0234345
1032.079 .0234402
1032.665 .0234448
1033.250 .0234483
1033.836 .0234500
1034.421 .0234516
1035.006 .0234541
1035.591 .0234569
1036.176 .0234603
1036.761 .0234641
1037.345 .0234682
1037.929 .0234702
1038.514 .0234706
1039.097 .0234698
1039.681 .0234675
1040.265 .0234645
1040.848 .0234612
1041.432 .0234582
1042.015 .0234552
1042.598 .0234524
1043.181 .0234504
1043.764 .0234496
1044.346 .0234510
1044.929 .0234528
1045.511 .0234565
1046.094 .0234631
1046.676 .0234732
1047.258 .0234843
1047.840 .0234978
1048.422 .0235128
1049.003 .0235275
1049.585 .0235401
1050.166 .0235507
1050.748 .0235591
1051.329 .0235660
1051.910 .0235712
1052.491 .0235748
1053.072 .0235774
1053.653 .0235819
1054.234 .0235872
1054.815 .0235940
1055.396 .0236024
1055.976 .0236110
1056.557 .0236176
1057.138 .0236230
1057.718 .0236255
1058.298 .0236244
1058.879 .0236208
1059.459 .0236163
1060.039 .0236112
1060.620 .0236074
1061.200 .0236058
1061.780 .0236080
1062.360 .0236127
1062.940 .0236204
1063.520 .0236255
1064.101 .0236277
1064.681 .0236263
1065.261 .0236184
1065.841 .0236037
1066.421 .0235841
1067.001 .0235606
1067.581 .0235369
1068.161 .0235137
1068.741 .0234952
1069.321 .0234799
1069.901 .0234716
1070.482 .0234664
1071.062 .0234628
1071.642 .0234602
1072.222 .0234583
1072.803 .0234550
1073.383 .0234519
1073.963 .0234488
1074.544 .0234465
1075.124 .0234466
1075.705 .0234506
1076.286 .0234591
1076.866 .0234717
1077.447 .0234875
1078.028 .0235057
1078.609 .0235229
1079.190 .0235392
1079.771 .0235518
1080.352 .0235620
1080.934 .0235692
1081.515 .0235738
1082.097 .0235773
1082.679 .0235785
1083.260 .0235803
1083.842 .0235815
1084.424 .0235827
1085.007 .0235832
1085.589 .0235823
1086.172 .0235794
1086.754 .0235750
1087.337 .0235686
1087.920 .0235611
1088.503 .0235527
1089.087 .0235448
1089.670 .0235354
1090.254 .0235246
1090.838 .0235145
1091.422 .0235048
1092.006 .0234966
1092.590 .0234903
1093.175 .0234828
1093.760 .0234759
1094.345 .0234668
1094.930 .0234542
1095.516 .0234401
1096.102 .0234259
1096.688 .0234131
1097.274 .0234038
1097.860 .0234000
1098.447 .0234016
1099.034 .0234085
1099.622 .0234217
1100.209 .0234378
1100.797 .0234535
1101.385 .0234676
1101.973 .0234792
1102.562 .0234871
1103.151 .0234934
1103.740 .0234980
1104.330 .0235017
1104.920 .0235073
1105.510 .0235144
1106.101 .0235219
1106.691 .0235289
1107.283 .0235345
1107.874 .0235372
1108.466 .0235333
1109.058 .0235254
1109.651 .0235107
1110.244 .0234900
1110.837 .0234658
1111.431 .0234399
1112.025 .0234126
1112.620 .0233896
1113.215 .0233738
1113.810 .0233651
1114.406 .0233666
1115.002 .0233753
1115.599 .0233845
1116.196 .0233922
1116.793 .0233938
1117.391 .0233873
1117.989 .0233700
1118.588 .0233481
1119.187 .0233207
1119.787 .0232936
1120.387 .0232743
1120.988 .0232611
1121.589 .0232555
1122.190 .0232550
1122.793 .0232526
1123.395 .0232459
1123.998 .0232331
1124.602 .0232139
1125.206 .0231916
1125.811 .0231766
1126.416 .0231700
1127.022 .0231742
1127.628 .0231866
1128.235 .0232099
1128.843 .0232407
1129.451 .0232766
1130.059 .0233115
1130.669 .0233433
1131.278 .0233761
1131.889 .0234060
1132.500 .0234333
1133.112 .0234637
1133.724 .0234979
1134.337 .0235407
1134.950 .0235867
1135.564 .0236383
1136.179 .0236918
1136.795 .0237490
1137.411 .0238064
1138.028 .0238653
1138.645 .0239260
1139.263 .0239870
1139.882 .0240507
1140.502 .0241256
1141.122 .0242080
1141.743 .0242831
1142.365 .0243317
1142.987 .0244594
1143.611 .0247174
1144.235 .0247468
1144.859 .0243466
1145.485 .0237955
