Measurement Sequence started on: 10-20-44-796
Integration time: 35
Scans to Average: 2 
>>>>>Begin Spectral Data<<<<<
432.953 .0478382
433.882 .0410896
434.810 .0373784
435.737 .0370350
436.662 .0347509
437.586 .0361456
438.509 .0353639
439.431 .0349512
440.351 .0347220
441.269 .0345511
442.187 .0344662
443.103 .0343924
444.018 .0343468
444.932 .0343249
445.844 .0343306
446.756 .0343423
447.666 .0343533
448.575 .0343393
449.482 .0343148
450.388 .0342784
451.294 .0342251
452.198 .0341670
453.100 .0341077
454.002 .0340540
454.902 .0340126
455.801 .0339800
456.699 .0339506
457.596 .0339300
458.492 .0339102
459.387 .0338841
460.280 .0338477
461.172 .0338081
462.064 .0337662
462.954 .0337203
463.843 .0336686
464.730 .0336163
465.617 .0335670
466.503 .0335245
467.387 .0334815
468.271 .0334428
469.153 .0334040
470.035 .0333645
470.915 .0333245
471.794 .0332819
472.673 .0332390
473.550 .0331997
474.426 .0331632
475.301 .0331327
476.175 .0331064
477.048 .0330835
477.920 .0330627
478.791 .0330474
479.661 .0330324
480.530 .0330162
481.398 .0329976
482.266 .0329814
483.132 .0329655
483.997 .0329528
484.861 .0329446
485.724 .0329426
486.587 .0329458
487.448 .0329497
488.308 .0329513
489.168 .0329513
490.026 .0329463
490.884 .0329370
491.741 .0329207
492.597 .0328997
493.452 .0328758
494.306 .0328487
495.159 .0328190
496.011 .0327865
496.862 .0327501
497.713 .0327068
498.562 .0326567
499.411 .0325984
500.259 .0325313
501.106 .0324594
501.952 .0323843
502.798 .0323085
503.642 .0322348
504.486 .0321651
505.329 .0320972
506.171 .0320324
507.012 .0319715
507.852 .0319077
508.692 .0318428
509.531 .0317748
510.369 .0317049
511.206 .0316337
512.043 .0315595
512.878 .0314818
513.713 .0314022
514.547 .0313192
515.381 .0312275
516.213 .0311268
517.045 .0310192
517.876 .0308983
518.706 .0307673
519.536 .0306301
520.365 .0304864
521.193 .0303415
522.020 .0301986
522.847 .0300560
523.673 .0299180
524.498 .0297811
525.323 .0296394
526.146 .0294984
526.969 .0293553
527.792 .0292071
528.614 .0290523
529.435 .0289025
530.255 .0287595
531.075 .0286153
531.894 .0284858
532.712 .0283643
533.530 .0282506
534.347 .0281486
535.163 .0280412
535.979 .0279401
536.794 .0278454
537.608 .0277543
538.422 .0276677
539.235 .0275913
540.048 .0275326
540.860 .0274796
541.671 .0274439
542.481 .0274270
543.292 .0274186
544.101 .0274206
544.910 .0274325
545.718 .0274423
546.526 .0274538
547.333 .0274640
548.139 .0274713
548.945 .0274773
549.750 .0274831
550.555 .0274905
551.359 .0275048
552.162 .0275311
552.965 .0275709
553.768 .0276148
554.569 .0276748
555.371 .0277392
556.171 .0278047
556.972 .0278732
557.771 .0279422
558.570 .0280092
559.369 .0280773
560.167 .0281482
560.964 .0282245
561.761 .0283088
562.558 .0284023
563.354 .0285011
564.149 .0286056
564.944 .0287133
565.738 .0288153
566.532 .0289131
567.325 .0290070
568.118 .0290910
568.910 .0291688
569.702 .0292441
570.494 .0293151
571.285 .0293844
572.075 .0294538
572.865 .0295222
573.654 .0295864
574.443 .0296483
575.232 .0297027
576.020 .0297511
576.807 .0297958
577.594 .0298350
578.381 .0298695
579.167 .0299031
579.952 .0299375
580.738 .0299749
581.522 .0300148
582.307 .0300573
583.091 .0301014
583.874 .0301478
584.657 .0301939
585.440 .0302382
586.222 .0302827
587.004 .0303268
587.785 .0303699
588.566 .0304120
589.346 .0304522
590.126 .0304910
590.906 .0305278
591.685 .0305626
592.464 .0305944
593.242 .0306226
594.020 .0306469
594.797 .0306678
595.575 .0306854
596.351 .0306990
597.128 .0307080
597.904 .0307127
598.679 .0307135
599.454 .0307098
600.229 .0307035
601.004 .0306949
601.778 .0306855
602.551 .0306760
603.325 .0306663
604.097 .0306571
604.870 .0306481
605.642 .0306398
606.414 .0306310
607.185 .0306215
607.956 .0306114
608.727 .0306002
609.497 .0305886
610.267 .0305765
611.037 .0305646
611.806 .0305526
612.575 .0305411
613.344 .0305292
614.112 .0305170
614.880 .0305047
615.647 .0304926
616.414 .0304798
617.181 .0304664
617.948 .0304532
618.714 .0304396
619.480 .0304261
620.245 .0304131
621.011 .0304001
621.775 .0303880
622.540 .0303763
623.304 .0303659
624.068 .0303568
624.832 .0303491
625.595 .0303419
626.358 .0303345
627.120 .0303260
627.883 .0303161
628.645 .0303036
629.406 .0302892
630.168 .0302730
630.929 .0302556
631.689 .0302368
632.450 .0302173
633.210 .0301978
633.970 .0301784
634.729 .0301583
635.489 .0301377
636.248 .0301156
637.006 .0300919
637.765 .0300665
638.523 .0300403
639.280 .0300141
640.038 .0299896
640.795 .0299668
641.552 .0299464
642.309 .0299285
643.065 .0299135
643.821 .0299002
644.577 .0298872
645.332 .0298742
646.088 .0298597
646.843 .0298432
647.597 .0298246
648.352 .0298043
649.106 .0297834
649.860 .0297622
650.613 .0297415
651.367 .0297211
652.120 .0297014
652.872 .0296817
653.625 .0296614
654.377 .0296402
655.129 .0296178
655.881 .0295936
656.632 .0295683
657.384 .0295435
658.135 .0295197
658.885 .0294978
659.636 .0294782
660.386 .0294615
661.136 .0294477
661.885 .0294354
662.635 .0294241
663.384 .0294132
664.133 .0294021
664.881 .0293898
665.630 .0293762
666.378 .0293615
667.126 .0293458
667.874 .0293298
668.621 .0293138
669.368 .0292982
670.115 .0292834
670.862 .0292696
671.608 .0292572
672.354 .0292462
673.100 .0292367
673.846 .0292280
674.591 .0292203
675.337 .0292135
676.082 .0292072
676.826 .0292009
677.571 .0291951
678.315 .0291893
679.059 .0291841
679.803 .0291793
680.547 .0291744
681.290 .0291689
682.033 .0291623
682.776 .0291546
683.518 .0291446
684.261 .0291324
685.003 .0291184
685.745 .0291025
686.487 .0290855
687.228 .0290679
687.969 .0290494
688.710 .0290313
689.451 .0290136
690.192 .0289969
690.932 .0289810
691.672 .0289663
692.412 .0289524
693.152 .0289401
693.891 .0289287
694.630 .0289184
695.369 .0289078
696.108 .0288978
696.846 .0288873
697.585 .0288759
698.323 .0288632
699.061 .0288500
699.798 .0288361
700.536 .0288220
701.273 .0288076
702.010 .0287938
702.746 .0287799
703.483 .0287664
704.219 .0287530
704.955 .0287396
705.691 .0287255
706.427 .0287112
707.162 .0286957
707.897 .0286801
708.632 .0286645
709.367 .0286490
710.101 .0286340
710.835 .0286200
711.569 .0286058
712.303 .0285910
713.037 .0285757
713.770 .0285591
714.503 .0285406
715.236 .0285206
715.969 .0284987
716.702 .0284750
717.434 .0284506
718.166 .0284261
718.898 .0284017
719.629 .0283788
720.361 .0283569
721.092 .0283358
721.823 .0283158
722.554 .0282958
723.284 .0282756
724.014 .0282551
724.744 .0282341
725.474 .0282117
726.204 .0281886
726.933 .0281648
727.662 .0281401
728.391 .0281149
729.120 .0280896
729.849 .0280640
730.577 .0280383
731.305 .0280124
732.033 .0279866
732.760 .0279606
733.488 .0279344
734.215 .0279073
734.942 .0278797
735.669 .0278513
736.395 .0278227
737.122 .0277938
737.848 .0277652
738.573 .0277372
739.299 .0277103
740.024 .0276841
740.750 .0276589
741.474 .0276341
742.199 .0276092
742.924 .0275845
743.648 .0275595
744.372 .0275342
745.096 .0275093
745.819 .0274853
746.543 .0274623
747.266 .0274412
747.989 .0274222
748.711 .0274052
749.434 .0273905
750.156 .0273781
750.878 .0273673
751.599 .0273581
752.321 .0273504
753.042 .0273436
753.763 .0273375
754.484 .0273326
755.205 .0273271
755.925 .0273220
756.645 .0273165
757.365 .0273101
758.085 .0273024
758.804 .0272934
759.523 .0272829
760.242 .0272709
760.961 .0272572
761.679 .0272418
762.397 .0272247
763.115 .0272065
763.833 .0271866
764.551 .0271655
765.268 .0271434
765.985 .0271210
766.702 .0270981
767.418 .0270755
768.134 .0270530
768.850 .0270312
769.566 .0270101
770.282 .0269892
770.997 .0269686
771.712 .0269478
772.427 .0269267
773.142 .0269051
773.856 .0268830
774.570 .0268608
775.284 .0268387
775.998 .0268176
776.711 .0267978
777.424 .0267795
778.137 .0267632
778.849 .0267484
779.562 .0267350
780.274 .0267228
780.986 .0267109
781.697 .0266994
782.409 .0266884
783.120 .0266783
783.831 .0266689
784.541 .0266605
785.252 .0266533
785.962 .0266475
786.671 .0266427
787.381 .0266377
788.090 .0266322
788.799 .0266260
789.508 .0266182
790.217 .0266086
790.925 .0265974
791.633 .0265853
792.341 .0265726
793.048 .0265598
793.755 .0265474
794.462 .0265356
795.169 .0265243
795.875 .0265137
796.581 .0265035
797.287 .0264937
797.993 .0264845
798.698 .0264757
799.403 .0264679
800.108 .0264613
800.812 .0264555
801.517 .0264507
802.221 .0264469
802.924 .0264435
803.628 .0264398
804.331 .0264355
805.034 .0264305
805.736 .0264239
806.439 .0264162
807.141 .0264074
807.843 .0263980
808.544 .0263886
809.245 .0263791
809.946 .0263691
810.647 .0263593
811.347 .0263492
812.047 .0263387
812.747 .0263281
813.447 .0263177
814.146 .0263069
814.845 .0262963
815.543 .0262862
816.242 .0262764
816.940 .0262669
817.638 .0262582
818.335 .0262493
819.032 .0262405
819.729 .0262314
820.426 .0262214
821.122 .0262111
821.818 .0261999
822.514 .0261879
823.209 .0261757
823.905 .0261634
824.599 .0261506
825.294 .0261376
825.988 .0261243
826.682 .0261110
827.376 .0260973
828.069 .0260836
828.762 .0260691
829.455 .0260544
830.147 .0260395
830.840 .0260242
831.531 .0260087
832.223 .0259939
832.914 .0259789
833.605 .0259648
834.296 .0259507
834.986 .0259372
835.676 .0259239
836.366 .0259113
837.055 .0258989
837.744 .0258865
838.433 .0258736
839.121 .0258603
839.809 .0258463
840.497 .0258322
841.185 .0258173
841.872 .0258024
842.559 .0257881
843.245 .0257740
843.932 .0257602
844.617 .0257468
845.303 .0257339
845.988 .0257218
846.673 .0257098
847.358 .0256978
848.042 .0256855
848.726 .0256730
849.410 .0256606
850.093 .0256480
850.776 .0256359
851.459 .0256238
852.141 .0256115
852.823 .0255992
853.505 .0255866
854.186 .0255733
854.867 .0255597
855.548 .0255454
856.228 .0255306
856.908 .0255149
857.588 .0254987
858.267 .0254818
858.946 .0254644
859.625 .0254463
860.303 .0254276
860.981 .0254084
861.659 .0253896
862.336 .0253705
863.013 .0253522
863.690 .0253344
864.366 .0253170
865.042 .0252996
865.718 .0252826
866.393 .0252648
867.068 .0252465
867.743 .0252275
868.417 .0252078
869.091 .0251874
869.765 .0251670
870.438 .0251464
871.111 .0251263
871.783 .0251067
872.456 .0250873
873.127 .0250675
873.799 .0250479
874.470 .0250275
875.141 .0250070
875.811 .0249868
876.481 .0249668
877.151 .0249474
877.820 .0249291
878.489 .0249119
879.158 .0248953
879.826 .0248792
880.494 .0248628
881.162 .0248461
881.829 .0248289
882.496 .0248107
883.163 .0247922
883.829 .0247739
884.495 .0247564
885.160 .0247393
885.825 .0247234
886.490 .0247084
887.154 .0246939
887.818 .0246795
888.482 .0246648
889.145 .0246495
889.808 .0246339
890.471 .0246182
891.133 .0246026
891.795 .0245880
892.456 .0245740
893.117 .0245611
893.778 .0245494
894.439 .0245382
895.099 .0245272
895.758 .0245156
896.417 .0245036
897.076 .0244904
897.735 .0244764
898.393 .0244615
899.051 .0244465
899.708 .0244316
900.365 .0244173
901.022 .0244039
901.678 .0243915
902.334 .0243801
902.990 .0243693
903.645 .0243592
904.300 .0243493
904.954 .0243390
905.608 .0243285
906.262 .0243179
906.915 .0243077
907.568 .0242973
908.221 .0242878
908.873 .0242793
909.525 .0242720
910.176 .0242655
910.828 .0242595
911.478 .0242534
912.129 .0242467
912.778 .0242391
913.428 .0242306
914.077 .0242212
914.726 .0242111
915.375 .0242005
916.023 .0241898
916.670 .0241793
917.318 .0241687
917.964 .0241575
918.611 .0241465
919.257 .0241349
919.903 .0241228
920.548 .0241100
921.193 .0240973
921.838 .0240852
922.482 .0240737
923.126 .0240630
923.770 .0240531
924.413 .0240432
925.056 .0240345
925.698 .0240262
926.340 .0240188
926.982 .0240122
927.623 .0240065
928.264 .0240015
928.904 .0239971
929.544 .0239930
930.184 .0239888
930.823 .0239838
931.462 .0239786
932.101 .0239719
932.739 .0239644
933.377 .0239567
934.014 .0239486
934.651 .0239413
935.288 .0239348
935.924 .0239291
936.560 .0239240
937.196 .0239194
937.831 .0239146
938.466 .0239091
939.100 .0239026
939.734 .0238951
940.368 .0238867
941.001 .0238779
941.634 .0238688
942.266 .0238601
942.899 .0238522
943.530 .0238445
944.162 .0238370
944.793 .0238292
945.423 .0238202
946.053 .0238101
946.683 .0237979
947.313 .0237843
947.942 .0237688
948.571 .0237521
949.199 .0237344
949.827 .0237168
950.455 .0236998
951.082 .0236837
951.709 .0236691
952.335 .0236564
952.961 .0236446
953.587 .0236343
954.212 .0236248
954.837 .0236160
955.462 .0236077
956.086 .0235994
956.710 .0235919
957.334 .0235852
957.957 .0235793
958.579 .0235744
959.202 .0235703
959.824 .0235670
960.445 .0235642
961.067 .0235617
961.688 .0235594
962.308 .0235570
962.928 .0235547
963.548 .0235522
964.168 .0235492
964.787 .0235464
965.406 .0235434
966.024 .0235406
966.642 .0235381
967.260 .0235354
967.877 .0235331
968.494 .0235307
969.110 .0235285
969.727 .0235265
970.342 .0235247
970.958 .0235237
971.573 .0235229
972.188 .0235233
972.802 .0235243
973.416 .0235260
974.030 .0235283
974.643 .0235304
975.256 .0235323
975.869 .0235340
976.481 .0235352
977.093 .0235363
977.705 .0235374
978.316 .0235393
978.927 .0235420
979.538 .0235458
980.148 .0235503
980.758 .0235553
981.367 .0235605
981.977 .0235650
982.586 .0235680
983.194 .0235698
983.802 .0235701
984.410 .0235693
985.018 .0235673
985.625 .0235649
986.232 .0235627
986.838 .0235610
987.445 .0235601
988.050 .0235597
988.656 .0235595
989.261 .0235590
989.866 .0235580
990.471 .0235567
991.075 .0235552
991.679 .0235534
992.282 .0235524
992.886 .0235518
993.489 .0235519
994.091 .0235527
994.694 .0235545
995.296 .0235575
995.897 .0235610
996.499 .0235644
997.100 .0235681
997.701 .0235719
998.301 .0235756
998.901 .0235788
999.501 .0235818
1000.101 .0235844
1000.700 .0235862
1001.299 .0235872
1001.898 .0235882
1002.496 .0235886
1003.094 .0235894
1003.692 .0235898
1004.289 .0235900
1004.887 .0235898
1005.484 .0235886
1006.080 .0235867
1006.677 .0235837
1007.273 .0235792
1007.868 .0235739
1008.464 .0235682
1009.059 .0235632
1009.654 .0235587
1010.249 .0235556
1010.843 .0235540
1011.437 .0235537
1012.031 .0235535
1012.625 .0235538
1013.218 .0235536
1013.811 .0235538
1014.404 .0235543
1014.997 .0235552
1015.589 .0235570
1016.181 .0235598
1016.773 .0235639
1017.365 .0235690
1017.956 .0235739
1018.547 .0235781
1019.138 .0235803
1019.728 .0235811
1020.319 .0235794
1020.909 .0235763
1021.499 .0235720
1022.088 .0235675
1022.678 .0235623
1023.267 .0235561
1023.856 .0235493
1024.445 .0235423
1025.033 .0235348
1025.621 .0235267
1026.209 .0235181
1026.797 .0235096
1027.385 .0235007
1027.972 .0234924
1028.560 .0234841
1029.147 .0234767
1029.734 .0234696
1030.320 .0234626
1030.907 .0234555
1031.493 .0234488
1032.079 .0234424
1032.665 .0234371
1033.250 .0234336
1033.836 .0234309
1034.421 .0234286
1035.006 .0234266
1035.591 .0234247
1036.176 .0234220
1036.761 .0234181
1037.345 .0234126
1037.929 .0234052
1038.514 .0233973
1039.097 .0233883
1039.681 .0233791
1040.265 .0233706
1040.848 .0233632
1041.432 .0233555
1042.015 .0233478
1042.598 .0233401
1043.181 .0233322
1043.764 .0233250
1044.346 .0233189
1044.929 .0233130
1045.511 .0233077
1046.094 .0233032
1046.676 .0232996
1047.258 .0232967
1047.840 .0232951
1048.422 .0232937
1049.003 .0232930
1049.585 .0232925
1050.166 .0232921
1050.748 .0232909
1051.329 .0232885
1051.910 .0232840
1052.491 .0232769
1053.072 .0232660
1053.653 .0232521
1054.234 .0232356
1054.815 .0232170
1055.396 .0231980
1055.976 .0231796
1056.557 .0231612
1057.138 .0231448
1057.718 .0231299
1058.298 .0231163
1058.879 .0231034
1059.459 .0230905
1060.039 .0230765
1060.620 .0230618
1061.200 .0230470
1061.780 .0230319
1062.360 .0230167
1062.940 .0230040
1063.520 .0229913
1064.101 .0229800
1064.681 .0229698
1065.261 .0229595
1065.841 .0229482
1066.421 .0229357
1067.001 .0229200
1067.581 .0229021
1068.161 .0228820
1068.741 .0228616
1069.321 .0228407
1069.901 .0228222
1070.482 .0228058
1071.062 .0227922
1071.642 .0227817
1072.222 .0227735
1072.803 .0227657
1073.383 .0227574
1073.963 .0227458
1074.544 .0227316
1075.124 .0227143
1075.705 .0226950
1076.286 .0226744
1076.866 .0226546
1077.447 .0226354
1078.028 .0226172
1078.609 .0225994
1079.190 .0225833
1079.771 .0225695
1080.352 .0225562
1080.934 .0225441
1081.515 .0225357
1082.097 .0225312
1082.679 .0225309
1083.260 .0225346
1083.842 .0225430
1084.424 .0225549
1085.007 .0225692
1085.589 .0225826
1086.172 .0225936
1086.754 .0226044
1087.337 .0226125
1087.920 .0226179
1088.503 .0226221
1089.087 .0226256
1089.670 .0226256
1090.254 .0226235
1090.838 .0226179
1091.422 .0226066
1092.006 .0225903
1092.590 .0225696
1093.175 .0225445
1093.760 .0225173
1094.345 .0224894
1094.930 .0224615
1095.516 .0224355
1096.102 .0224146
1096.688 .0223957
1097.274 .0223807
1097.860 .0223683
1098.447 .0223574
1099.034 .0223459
1099.622 .0223338
1100.209 .0223211
1100.797 .0223073
1101.385 .0222930
1101.973 .0222797
1102.562 .0222669
1103.151 .0222568
1103.740 .0222472
1104.330 .0222405
1104.920 .0222345
1105.510 .0222301
1106.101 .0222261
1106.691 .0222213
1107.283 .0222187
1107.874 .0222175
1108.466 .0222172
1109.058 .0222204
1109.651 .0222269
1110.244 .0222366
1110.837 .0222465
1111.431 .0222565
1112.025 .0222643
1112.620 .0222710
1113.215 .0222754
1113.810 .0222776
1114.406 .0222777
1115.002 .0222777
1115.599 .0222760
1116.196 .0222715
1116.793 .0222644
1117.391 .0222532
1117.989 .0222403
1118.588 .0222247
1119.187 .0222059
1119.787 .0221889
1120.387 .0221763
1120.988 .0221714
1121.589 .0221753
1122.190 .0221853
1122.793 .0221991
1123.395 .0222142
1123.998 .0222281
1124.602 .0222375
1125.206 .0222448
1125.811 .0222506
1126.416 .0222558
1127.022 .0222585
1127.628 .0222610
1128.235 .0222599
1128.843 .0222564
1129.451 .0222475
1130.059 .0222311
1130.669 .0222070
1131.278 .0221791
1131.889 .0221494
1132.500 .0221267
1133.112 .0221122
1133.724 .0221114
1134.337 .0221229
1134.950 .0221488
1135.564 .0221862
1136.179 .0222341
1136.795 .0222933
1137.411 .0223687
1138.028 .0224554
1138.645 .0225626
1139.263 .0226876
1139.882 .0228318
1140.502 .0229876
1141.122 .0231622
1141.743 .0233495
1142.365 .0235591
1142.987 .0237247
1143.611 .0237680
1144.235 .0241866
1144.859 .0244672
1145.485 .0250037
