Measurement Sequence started on: 10-20-44-796
Integration time: 35
Scans to Average: 2 
>>>>>Begin Spectral Data<<<<<
432.953 .0458280
433.882 .0424474
434.810 .0375757
435.737 .0337685
436.662 .0331958
437.586 .0356659
438.509 .0350252
439.431 .0346628
440.351 .0344765
441.269 .0343603
442.187 .0342178
443.103 .0340236
444.018 .0338363
444.932 .0336769
445.844 .0335357
446.756 .0334042
447.666 .0332728
448.575 .0331152
449.482 .0329412
450.388 .0327745
451.294 .0326125
452.198 .0324602
453.100 .0323353
454.002 .0322369
454.902 .0321462
455.801 .0320730
456.699 .0320027
457.596 .0319364
458.492 .0318700
459.387 .0318081
460.280 .0317548
461.172 .0317092
462.064 .0316732
462.954 .0316418
463.843 .0316202
464.730 .0316028
465.617 .0315763
466.503 .0315487
467.387 .0315222
468.271 .0314950
469.153 .0314686
470.035 .0314498
470.915 .0314372
471.794 .0314311
472.673 .0314298
473.550 .0314356
474.426 .0314510
475.301 .0314717
476.175 .0314961
477.048 .0315213
477.920 .0315531
478.791 .0315868
479.661 .0316194
480.530 .0316521
481.398 .0316822
482.266 .0317036
483.132 .0317188
483.997 .0317286
484.861 .0317329
485.724 .0317336
486.587 .0317329
487.448 .0317269
488.308 .0317135
489.168 .0316897
490.026 .0316548
490.884 .0316035
491.741 .0315400
492.597 .0314599
493.452 .0313711
494.306 .0312776
495.159 .0311847
496.011 .0310952
496.862 .0310155
497.713 .0309420
498.562 .0308706
499.411 .0308001
500.259 .0307301
501.106 .0306571
501.952 .0305852
502.798 .0305160
503.642 .0304509
504.486 .0303910
505.329 .0303399
506.171 .0302941
507.012 .0302564
507.852 .0302171
508.692 .0301757
509.531 .0301276
510.369 .0300703
511.206 .0300039
512.043 .0299293
512.878 .0298514
513.713 .0297682
514.547 .0296749
515.381 .0295742
516.213 .0294652
517.045 .0293467
517.876 .0292156
518.706 .0290686
519.536 .0289111
520.365 .0287438
521.193 .0285639
522.020 .0283764
522.847 .0281850
523.673 .0279951
524.498 .0278078
525.323 .0276243
526.146 .0274497
526.969 .0272820
527.792 .0271239
528.614 .0269704
529.435 .0268225
530.255 .0266784
531.075 .0265358
531.894 .0264051
532.712 .0262953
533.530 .0262023
534.347 .0261290
535.163 .0260744
535.979 .0260417
536.794 .0260192
537.608 .0260043
538.422 .0259879
539.235 .0259731
540.048 .0259581
540.860 .0259461
541.671 .0259431
542.481 .0259622
543.292 .0259984
544.101 .0260453
544.910 .0261063
545.718 .0261758
546.526 .0262428
547.333 .0263075
548.139 .0263654
548.945 .0264165
549.750 .0264511
550.555 .0264802
551.359 .0264979
552.162 .0265155
552.965 .0265321
553.768 .0265381
554.569 .0265393
555.371 .0265346
556.171 .0265235
556.972 .0265103
557.771 .0264937
558.570 .0264780
559.369 .0264633
560.167 .0264584
560.964 .0264663
561.761 .0264865
562.558 .0265238
563.354 .0265815
564.149 .0266513
564.944 .0267316
565.738 .0268173
566.532 .0269088
567.325 .0270040
568.118 .0271014
568.910 .0272038
569.702 .0273109
570.494 .0274272
571.285 .0275491
572.075 .0276760
572.865 .0278042
573.654 .0279246
574.443 .0280340
575.232 .0281341
576.020 .0282221
576.807 .0282997
577.594 .0283695
578.381 .0284392
579.167 .0285123
579.952 .0285889
580.738 .0286665
581.522 .0287442
582.307 .0288202
583.091 .0288908
583.874 .0289553
584.657 .0290152
585.440 .0290685
586.222 .0291187
587.004 .0291664
587.785 .0292121
588.566 .0292563
589.346 .0292986
590.126 .0293367
590.906 .0293692
591.685 .0293954
592.464 .0294134
593.242 .0294238
594.020 .0294294
594.797 .0294294
595.575 .0294248
596.351 .0294190
597.128 .0294111
597.904 .0294015
598.679 .0293913
599.454 .0293795
600.229 .0293672
601.004 .0293549
601.778 .0293424
602.551 .0293291
603.325 .0293167
604.097 .0293052
604.870 .0292939
605.642 .0292827
606.414 .0292711
607.185 .0292580
607.956 .0292454
608.727 .0292326
609.497 .0292201
610.267 .0292091
611.037 .0292000
611.806 .0291930
612.575 .0291885
613.344 .0291852
614.112 .0291830
614.880 .0291809
615.647 .0291791
616.414 .0291760
617.181 .0291728
617.948 .0291698
618.714 .0291668
619.480 .0291650
620.245 .0291640
621.011 .0291624
621.775 .0291606
622.540 .0291567
623.304 .0291514
624.068 .0291438
624.832 .0291340
625.595 .0291226
626.358 .0291104
627.120 .0290979
627.883 .0290850
628.645 .0290721
629.406 .0290591
630.168 .0290453
630.929 .0290302
631.689 .0290134
632.450 .0289944
633.210 .0289750
633.970 .0289544
634.729 .0289338
635.489 .0289139
636.248 .0288940
637.006 .0288750
637.765 .0288570
638.523 .0288388
639.280 .0288205
640.038 .0288014
640.795 .0287818
641.552 .0287614
642.309 .0287416
643.065 .0287226
643.821 .0287049
644.577 .0286893
645.332 .0286757
646.088 .0286633
646.843 .0286530
647.597 .0286434
648.352 .0286348
649.106 .0286269
649.860 .0286186
650.613 .0286100
651.367 .0286009
652.120 .0285910
652.872 .0285814
653.625 .0285718
654.377 .0285627
655.129 .0285543
655.881 .0285458
656.632 .0285371
657.384 .0285282
658.135 .0285187
658.885 .0285079
659.636 .0284959
660.386 .0284828
661.136 .0284680
661.885 .0284531
662.635 .0284384
663.384 .0284233
664.133 .0284090
664.881 .0283943
665.630 .0283783
666.378 .0283614
667.126 .0283429
667.874 .0283222
668.621 .0283008
669.368 .0282785
670.115 .0282555
670.862 .0282331
671.608 .0282121
672.354 .0281925
673.100 .0281752
673.846 .0281598
674.591 .0281453
675.337 .0281315
676.082 .0281186
676.826 .0281055
677.571 .0280938
678.315 .0280829
679.059 .0280727
679.803 .0280632
680.547 .0280543
681.290 .0280452
682.033 .0280360
682.776 .0280266
683.518 .0280169
684.261 .0280064
685.003 .0279960
685.745 .0279851
686.487 .0279750
687.228 .0279652
687.969 .0279560
688.710 .0279466
689.451 .0279362
690.192 .0279248
690.932 .0279122
691.672 .0278985
692.412 .0278843
693.152 .0278698
693.891 .0278554
694.630 .0278412
695.369 .0278272
696.108 .0278127
696.846 .0277981
697.585 .0277830
698.323 .0277670
699.061 .0277498
699.798 .0277318
700.536 .0277130
701.273 .0276943
702.010 .0276759
702.746 .0276574
703.483 .0276394
704.219 .0276217
704.955 .0276037
705.691 .0275854
706.427 .0275668
707.162 .0275480
707.897 .0275292
708.632 .0275104
709.367 .0274920
710.101 .0274741
710.835 .0274567
711.569 .0274393
712.303 .0274213
713.037 .0274028
713.770 .0273835
714.503 .0273632
715.236 .0273424
715.969 .0273214
716.702 .0273010
717.434 .0272815
718.166 .0272636
718.898 .0272470
719.629 .0272315
720.361 .0272173
721.092 .0272036
721.823 .0271898
722.554 .0271756
723.284 .0271613
724.014 .0271462
724.744 .0271306
725.474 .0271142
726.204 .0270970
726.933 .0270800
727.662 .0270631
728.391 .0270464
729.120 .0270297
729.849 .0270138
730.577 .0269982
731.305 .0269823
732.033 .0269661
732.760 .0269491
733.488 .0269321
734.215 .0269144
734.942 .0268957
735.669 .0268761
736.395 .0268563
737.122 .0268365
737.848 .0268170
738.573 .0267979
739.299 .0267796
740.024 .0267626
740.750 .0267459
741.474 .0267292
742.199 .0267124
742.924 .0266954
743.648 .0266785
744.372 .0266609
745.096 .0266436
745.819 .0266257
746.543 .0266085
747.266 .0265921
747.989 .0265769
748.711 .0265644
749.434 .0265540
750.156 .0265462
750.878 .0265409
751.599 .0265375
752.321 .0265351
753.042 .0265333
753.763 .0265319
754.484 .0265301
755.205 .0265276
755.925 .0265246
756.645 .0265218
757.365 .0265193
758.085 .0265174
758.804 .0265149
759.523 .0265118
760.242 .0265073
760.961 .0264997
761.679 .0264892
762.397 .0264751
763.115 .0264575
763.833 .0264368
764.551 .0264132
765.268 .0263877
765.985 .0263602
766.702 .0263321
767.418 .0263033
768.134 .0262744
768.850 .0262463
769.566 .0262189
770.282 .0261924
770.997 .0261674
771.712 .0261434
772.427 .0261208
773.142 .0260992
773.856 .0260784
774.570 .0260581
775.284 .0260389
775.998 .0260204
776.711 .0260036
777.424 .0259882
778.137 .0259754
778.849 .0259639
779.562 .0259543
780.274 .0259457
780.986 .0259370
781.697 .0259278
782.409 .0259180
783.120 .0259077
783.831 .0258972
784.541 .0258869
785.252 .0258776
785.962 .0258689
786.671 .0258620
787.381 .0258562
788.090 .0258512
788.799 .0258461
789.508 .0258404
790.217 .0258331
790.925 .0258243
791.633 .0258144
792.341 .0258029
793.048 .0257906
793.755 .0257781
794.462 .0257649
795.169 .0257510
795.875 .0257373
796.581 .0257235
797.287 .0257094
797.993 .0256952
798.698 .0256803
799.403 .0256648
800.108 .0256496
800.812 .0256344
801.517 .0256195
802.221 .0256057
802.924 .0255929
803.628 .0255805
804.331 .0255698
805.034 .0255603
805.736 .0255517
806.439 .0255440
807.141 .0255369
807.843 .0255294
808.544 .0255208
809.245 .0255113
809.946 .0255005
810.647 .0254888
811.347 .0254765
812.047 .0254636
812.747 .0254507
813.447 .0254383
814.146 .0254261
814.845 .0254146
815.543 .0254037
816.242 .0253926
816.940 .0253807
817.638 .0253680
818.335 .0253544
819.032 .0253406
819.729 .0253268
820.426 .0253138
821.122 .0253009
821.818 .0252890
822.514 .0252771
823.209 .0252652
823.905 .0252529
824.599 .0252396
825.294 .0252255
825.988 .0252108
826.682 .0251952
827.376 .0251799
828.069 .0251655
828.762 .0251521
829.455 .0251396
830.147 .0251285
830.840 .0251181
831.531 .0251082
832.223 .0250993
832.914 .0250909
833.605 .0250830
834.296 .0250762
834.986 .0250699
835.676 .0250640
836.366 .0250592
837.055 .0250541
837.744 .0250483
838.433 .0250417
839.121 .0250338
839.809 .0250240
840.497 .0250130
841.185 .0250012
841.872 .0249884
842.559 .0249753
843.245 .0249620
843.932 .0249475
844.617 .0249327
845.303 .0249165
845.988 .0248991
846.673 .0248807
847.358 .0248624
848.042 .0248443
848.726 .0248278
849.410 .0248134
850.093 .0248005
850.776 .0247895
851.459 .0247802
852.141 .0247715
852.823 .0247628
853.505 .0247531
854.186 .0247425
854.867 .0247306
855.548 .0247184
856.228 .0247059
856.908 .0246944
857.588 .0246841
858.267 .0246751
858.946 .0246666
859.625 .0246582
860.303 .0246501
860.981 .0246410
861.659 .0246313
862.336 .0246201
863.013 .0246075
863.690 .0245940
864.366 .0245800
865.042 .0245660
865.718 .0245522
866.393 .0245391
867.068 .0245264
867.743 .0245144
868.417 .0245035
869.091 .0244931
869.765 .0244833
870.438 .0244739
871.111 .0244645
871.783 .0244539
872.456 .0244428
873.127 .0244304
873.799 .0244180
874.470 .0244051
875.141 .0243920
875.811 .0243787
876.481 .0243655
877.151 .0243530
877.820 .0243408
878.489 .0243287
879.158 .0243165
879.826 .0243029
880.494 .0242888
881.162 .0242736
881.829 .0242581
882.496 .0242421
883.163 .0242270
883.829 .0242130
884.495 .0242002
885.160 .0241886
885.825 .0241783
886.490 .0241692
887.154 .0241603
887.818 .0241515
888.482 .0241417
889.145 .0241315
889.808 .0241212
890.471 .0241108
891.133 .0241010
891.795 .0240916
892.456 .0240830
893.117 .0240744
893.778 .0240665
894.439 .0240587
895.099 .0240503
895.758 .0240417
896.417 .0240324
897.076 .0240223
897.735 .0240114
898.393 .0240006
899.051 .0239904
899.708 .0239808
900.365 .0239725
901.022 .0239648
901.678 .0239573
902.334 .0239500
902.990 .0239421
903.645 .0239337
904.300 .0239252
904.954 .0239161
905.608 .0239067
906.262 .0238978
906.915 .0238899
907.568 .0238827
908.221 .0238765
908.873 .0238719
909.525 .0238676
910.176 .0238634
910.828 .0238591
911.478 .0238538
912.129 .0238480
912.778 .0238415
913.428 .0238338
914.077 .0238252
914.726 .0238163
915.375 .0238065
916.023 .0237962
916.670 .0237861
917.318 .0237753
917.964 .0237642
918.611 .0237529
919.257 .0237414
919.903 .0237295
920.548 .0237175
921.193 .0237064
921.838 .0236958
922.482 .0236868
923.126 .0236787
923.770 .0236723
924.413 .0236679
925.056 .0236648
925.698 .0236628
926.340 .0236619
926.982 .0236617
927.623 .0236615
928.264 .0236607
928.904 .0236591
929.544 .0236567
930.184 .0236532
930.823 .0236483
931.462 .0236424
932.101 .0236354
932.739 .0236279
933.377 .0236191
934.014 .0236094
934.651 .0235987
935.288 .0235866
935.924 .0235736
936.560 .0235593
937.196 .0235442
937.831 .0235281
938.466 .0235113
939.100 .0234942
939.734 .0234773
940.368 .0234605
941.001 .0234440
941.634 .0234278
942.266 .0234121
942.899 .0233959
943.530 .0233798
944.162 .0233637
944.793 .0233484
945.423 .0233335
946.053 .0233195
946.683 .0233066
947.313 .0232953
947.942 .0232848
948.571 .0232745
949.199 .0232635
949.827 .0232513
950.455 .0232367
951.082 .0232206
951.709 .0232033
952.335 .0231856
952.961 .0231686
953.587 .0231528
954.212 .0231384
954.837 .0231250
955.462 .0231116
956.086 .0230982
956.710 .0230841
957.334 .0230691
957.957 .0230525
958.579 .0230348
959.202 .0230171
959.824 .0229996
960.445 .0229833
961.067 .0229686
961.688 .0229558
962.308 .0229447
962.928 .0229353
963.548 .0229268
964.168 .0229190
964.787 .0229117
965.406 .0229052
966.024 .0228992
966.642 .0228938
967.260 .0228895
967.877 .0228866
968.494 .0228855
969.110 .0228861
969.727 .0228874
970.342 .0228898
970.958 .0228925
971.573 .0228952
972.188 .0228972
972.802 .0228987
973.416 .0228996
974.030 .0228990
974.643 .0228981
975.256 .0228962
975.869 .0228941
976.481 .0228928
977.093 .0228919
977.705 .0228919
978.316 .0228926
978.927 .0228933
979.538 .0228938
980.148 .0228944
980.758 .0228942
981.367 .0228934
981.977 .0228927
982.586 .0228921
983.194 .0228914
983.802 .0228909
984.410 .0228906
985.018 .0228895
985.625 .0228882
986.232 .0228861
986.838 .0228822
987.445 .0228776
988.050 .0228712
988.656 .0228633
989.261 .0228544
989.866 .0228441
990.471 .0228329
991.075 .0228218
991.679 .0228112
992.282 .0228006
992.886 .0227911
993.489 .0227836
994.091 .0227773
994.694 .0227732
995.296 .0227704
995.897 .0227682
996.499 .0227659
997.100 .0227637
997.701 .0227608
998.301 .0227581
998.901 .0227566
999.501 .0227559
1000.101 .0227572
1000.700 .0227609
1001.299 .0227663
1001.898 .0227732
1002.496 .0227811
1003.094 .0227890
1003.692 .0227951
1004.289 .0227999
1004.887 .0228031
1005.484 .0228045
1006.080 .0228056
1006.677 .0228059
1007.273 .0228061
1007.868 .0228067
1008.464 .0228081
1009.059 .0228091
1009.654 .0228102
1010.249 .0228113
1010.843 .0228121
1011.437 .0228130
1012.031 .0228135
1012.625 .0228137
1013.218 .0228135
1013.811 .0228132
1014.404 .0228122
1014.997 .0228108
1015.589 .0228094
1016.181 .0228065
1016.773 .0228029
1017.365 .0227983
1017.956 .0227920
1018.547 .0227846
1019.138 .0227762
1019.728 .0227678
1020.319 .0227582
1020.909 .0227487
1021.499 .0227381
1022.088 .0227266
1022.678 .0227153
1023.267 .0227041
1023.856 .0226925
1024.445 .0226831
1025.033 .0226747
1025.621 .0226684
1026.209 .0226651
1026.797 .0226647
1027.385 .0226663
1027.972 .0226698
1028.560 .0226736
1029.147 .0226765
1029.734 .0226778
1030.320 .0226785
1030.907 .0226765
1031.493 .0226748
1032.079 .0226735
1032.665 .0226721
1033.250 .0226722
1033.836 .0226740
1034.421 .0226760
1035.006 .0226776
1035.591 .0226784
1036.176 .0226774
1036.761 .0226741
1037.345 .0226700
1037.929 .0226645
1038.514 .0226595
1039.097 .0226574
1039.681 .0226588
1040.265 .0226638
1040.848 .0226729
1041.432 .0226840
1042.015 .0226949
1042.598 .0227055
1043.181 .0227149
1043.764 .0227220
1044.346 .0227280
1044.929 .0227342
1045.511 .0227402
1046.094 .0227473
1046.676 .0227565
1047.258 .0227666
1047.840 .0227778
1048.422 .0227887
1049.003 .0227967
1049.585 .0228007
1050.166 .0228004
1050.748 .0227966
1051.329 .0227900
1051.910 .0227827
1052.491 .0227742
1053.072 .0227655
1053.653 .0227581
1054.234 .0227500
1054.815 .0227417
1055.396 .0227328
1055.976 .0227234
1056.557 .0227128
1057.138 .0227016
1057.718 .0226902
1058.298 .0226796
1058.879 .0226704
1059.459 .0226627
1060.039 .0226566
1060.620 .0226506
1061.200 .0226443
1061.780 .0226384
1062.360 .0226317
1062.940 .0226244
1063.520 .0226145
1064.101 .0226034
1064.681 .0225905
1065.261 .0225749
1065.841 .0225567
1066.421 .0225365
1067.001 .0225158
1067.581 .0224939
1068.161 .0224701
1068.741 .0224454
1069.321 .0224203
1069.901 .0223945
1070.482 .0223697
1071.062 .0223461
1071.642 .0223253
1072.222 .0223092
1072.803 .0222959
1073.383 .0222867
1073.963 .0222811
1074.544 .0222766
1075.124 .0222712
1075.705 .0222642
1076.286 .0222552
1076.866 .0222422
1077.447 .0222269
1078.028 .0222099
1078.609 .0221914
1079.190 .0221735
1079.771 .0221555
1080.352 .0221364
1080.934 .0221172
1081.515 .0220960
1082.097 .0220727
1082.679 .0220493
1083.260 .0220273
1083.842 .0220083
1084.424 .0219958
1085.007 .0219921
1085.589 .0219953
1086.172 .0220050
1086.754 .0220211
1087.337 .0220412
1087.920 .0220633
1088.503 .0220845
1089.087 .0221051
1089.670 .0221265
1090.254 .0221496
1090.838 .0221720
1091.422 .0221948
1092.006 .0222182
1092.590 .0222393
1093.175 .0222549
1093.760 .0222619
1094.345 .0222593
1094.930 .0222481
1095.516 .0222301
1096.102 .0222071
1096.688 .0221820
1097.274 .0221579
1097.860 .0221366
1098.447 .0221192
1099.034 .0221044
1099.622 .0220918
1100.209 .0220798
1100.797 .0220670
1101.385 .0220504
1101.973 .0220304
1102.562 .0220061
1103.151 .0219781
1103.740 .0219509
1104.330 .0219251
1104.920 .0219016
1105.510 .0218815
1106.101 .0218673
1106.691 .0218558
1107.283 .0218472
1107.874 .0218411
1108.466 .0218345
1109.058 .0218290
1109.651 .0218229
1110.244 .0218152
1110.837 .0218105
1111.431 .0218142
1112.025 .0218245
1112.620 .0218438
1113.215 .0218746
1113.810 .0219127
1114.406 .0219560
1115.002 .0220028
1115.599 .0220497
1116.196 .0220914
1116.793 .0221293
1117.391 .0221598
1117.989 .0221827
1118.588 .0222060
1119.187 .0222282
1119.787 .0222510
1120.387 .0222745
1120.988 .0222967
1121.589 .0223144
1122.190 .0223291
1122.793 .0223362
1123.395 .0223382
1123.998 .0223382
1124.602 .0223378
1125.206 .0223370
1125.811 .0223366
1126.416 .0223376
1127.022 .0223404
1127.628 .0223448
1128.235 .0223480
1128.843 .0223461
1129.451 .0223478
1130.059 .0223471
1130.669 .0223518
1131.278 .0223644
1131.889 .0223842
1132.500 .0224106
1133.112 .0224467
1133.724 .0224852
1134.337 .0225280
1134.950 .0225744
1135.564 .0226203
1136.179 .0226651
1136.795 .0227127
1137.411 .0227589
1138.028 .0228058
1138.645 .0228593
1139.263 .0229139
1139.882 .0229591
1140.502 .0230036
1141.122 .0230422
1141.743 .0230622
1142.365 .0230825
1142.987 .0229906
1143.611 .0231198
1144.235 .0231966
1144.859 .0228746
1145.485 .0232192
