Measurement Sequence started on: 10-20-44-796
Integration time: 35
Scans to Average: 2 
>>>>>Begin Spectral Data<<<<<
432.953 .0345913
433.882 .0389713
434.810 .0372550
435.737 .0379888
436.662 .0368559
437.586 .0366427
438.509 .0365050
439.431 .0362731
440.351 .0361390
441.269 .0360277
442.187 .0359857
443.103 .0359948
444.018 .0360405
444.932 .0360932
445.844 .0361926
446.756 .0363020
447.666 .0364275
448.575 .0365419
449.482 .0366520
450.388 .0367593
451.294 .0368710
452.198 .0369786
453.100 .0370787
454.002 .0371722
454.902 .0372601
455.801 .0373405
456.699 .0374060
457.596 .0374547
458.492 .0374853
459.387 .0374931
460.280 .0374933
461.172 .0374850
462.064 .0374806
462.954 .0374770
463.843 .0374741
464.730 .0374689
465.617 .0374598
466.503 .0374406
467.387 .0374107
468.271 .0373739
469.153 .0373295
470.035 .0372793
470.915 .0372315
471.794 .0371840
472.673 .0371419
473.550 .0371038
474.426 .0370708
475.301 .0370342
476.175 .0370018
477.048 .0369680
477.920 .0369339
478.791 .0369029
479.661 .0368727
480.530 .0368444
481.398 .0368159
482.266 .0367876
483.132 .0367620
483.997 .0367380
484.861 .0367145
485.724 .0366900
486.587 .0366695
487.448 .0366462
488.308 .0366216
489.168 .0365944
490.026 .0365655
490.884 .0365321
491.741 .0364908
492.597 .0364438
493.452 .0363891
494.306 .0363323
495.159 .0362722
496.011 .0362162
496.862 .0361638
497.713 .0361084
498.562 .0360533
499.411 .0359970
500.259 .0359357
501.106 .0358693
501.952 .0357996
502.798 .0357303
503.642 .0356615
504.486 .0355924
505.329 .0355220
506.171 .0354584
507.012 .0353947
507.852 .0353282
508.692 .0352536
509.531 .0351743
510.369 .0350867
511.206 .0349946
512.043 .0349033
512.878 .0348101
513.713 .0347180
514.547 .0346299
515.381 .0345397
516.213 .0344502
517.045 .0343543
517.876 .0342489
518.706 .0341342
519.536 .0340059
520.365 .0338654
521.193 .0337135
522.020 .0335598
522.847 .0334058
523.673 .0332443
524.498 .0330753
525.323 .0329026
526.146 .0327270
526.969 .0325496
527.792 .0323672
528.614 .0321853
529.435 .0320074
530.255 .0318371
531.075 .0316726
531.894 .0315190
532.712 .0313787
533.530 .0312518
534.347 .0311301
535.163 .0310171
535.979 .0309142
536.794 .0308178
537.608 .0307316
538.422 .0306555
539.235 .0305851
540.048 .0305176
540.860 .0304588
541.671 .0304119
542.481 .0303749
543.292 .0303420
544.101 .0303136
544.910 .0302855
545.718 .0302594
546.526 .0302269
547.333 .0301920
548.139 .0301577
548.945 .0301304
549.750 .0301029
550.555 .0300866
551.359 .0300819
552.162 .0300896
552.965 .0301061
553.768 .0301318
554.569 .0301574
555.371 .0301818
556.171 .0302034
556.972 .0302293
557.771 .0302515
558.570 .0302759
559.369 .0303036
560.167 .0303395
560.964 .0303848
561.761 .0304404
562.558 .0305048
563.354 .0305829
564.149 .0306688
564.944 .0307600
565.738 .0308557
566.532 .0309542
567.325 .0310529
568.118 .0311490
568.910 .0312422
569.702 .0313321
570.494 .0314201
571.285 .0315079
572.075 .0315965
572.865 .0316837
573.654 .0317696
574.443 .0318522
575.232 .0319318
576.020 .0320058
576.807 .0320733
577.594 .0321346
578.381 .0321916
579.167 .0322433
579.952 .0322942
580.738 .0323441
581.522 .0323964
582.307 .0324495
583.091 .0325024
583.874 .0325542
584.657 .0326038
585.440 .0326495
586.222 .0326919
587.004 .0327301
587.785 .0327631
588.566 .0327924
589.346 .0328180
590.126 .0328401
590.906 .0328581
591.685 .0328740
592.464 .0328860
593.242 .0328951
594.020 .0329020
594.797 .0329062
595.575 .0329087
596.351 .0329108
597.128 .0329109
597.904 .0329098
598.679 .0329061
599.454 .0328991
600.229 .0328886
601.004 .0328755
601.778 .0328592
602.551 .0328411
603.325 .0328222
604.097 .0328035
604.870 .0327853
605.642 .0327686
606.414 .0327517
607.185 .0327348
607.956 .0327171
608.727 .0326976
609.497 .0326757
610.267 .0326515
611.037 .0326254
611.806 .0326000
612.575 .0325762
613.344 .0325537
614.112 .0325336
614.880 .0325157
615.647 .0324988
616.414 .0324817
617.181 .0324638
617.948 .0324440
618.714 .0324229
619.480 .0324007
620.245 .0323769
621.011 .0323527
621.775 .0323295
622.540 .0323065
623.304 .0322845
624.068 .0322635
624.832 .0322417
625.595 .0322189
626.358 .0321955
627.120 .0321705
627.883 .0321434
628.645 .0321151
629.406 .0320854
630.168 .0320550
630.929 .0320244
631.689 .0319930
632.450 .0319616
633.210 .0319309
633.970 .0319008
634.729 .0318700
635.489 .0318394
636.248 .0318091
637.006 .0317783
637.765 .0317475
638.523 .0317167
639.280 .0316867
640.038 .0316577
640.795 .0316308
641.552 .0316059
642.309 .0315830
643.065 .0315617
643.821 .0315412
644.577 .0315206
645.332 .0314996
646.088 .0314764
646.843 .0314517
647.597 .0314264
648.352 .0314019
649.106 .0313780
649.860 .0313558
650.613 .0313354
651.367 .0313165
652.120 .0312983
652.872 .0312799
653.625 .0312604
654.377 .0312397
655.129 .0312172
655.881 .0311931
656.632 .0311678
657.384 .0311423
658.135 .0311172
658.885 .0310938
659.636 .0310717
660.386 .0310509
661.136 .0310312
661.885 .0310127
662.635 .0309960
663.384 .0309799
664.133 .0309651
664.881 .0309514
665.630 .0309391
666.378 .0309279
667.126 .0309176
667.874 .0309078
668.621 .0308987
669.368 .0308900
670.115 .0308816
670.862 .0308727
671.608 .0308649
672.354 .0308577
673.100 .0308514
673.846 .0308456
674.591 .0308398
675.337 .0308332
676.082 .0308259
676.826 .0308172
677.571 .0308067
678.315 .0307948
679.059 .0307821
679.803 .0307681
680.547 .0307540
681.290 .0307400
682.033 .0307259
682.776 .0307116
683.518 .0306971
684.261 .0306810
685.003 .0306633
685.745 .0306441
686.487 .0306230
687.228 .0306004
687.969 .0305765
688.710 .0305519
689.451 .0305268
690.192 .0305022
690.932 .0304777
691.672 .0304536
692.412 .0304305
693.152 .0304075
693.891 .0303847
694.630 .0303623
695.369 .0303400
696.108 .0303181
696.846 .0302962
697.585 .0302741
698.323 .0302517
699.061 .0302298
699.798 .0302077
700.536 .0301859
701.273 .0301646
702.010 .0301441
702.746 .0301238
703.483 .0301042
704.219 .0300847
704.955 .0300657
705.691 .0300468
706.427 .0300275
707.162 .0300072
707.897 .0299864
708.632 .0299645
709.367 .0299416
710.101 .0299180
710.835 .0298942
711.569 .0298696
712.303 .0298455
713.037 .0298219
713.770 .0297988
714.503 .0297760
715.236 .0297534
715.969 .0297305
716.702 .0297073
717.434 .0296836
718.166 .0296595
718.898 .0296358
719.629 .0296128
720.361 .0295913
721.092 .0295712
721.823 .0295528
722.554 .0295355
723.284 .0295182
724.014 .0295002
724.744 .0294810
725.474 .0294594
726.204 .0294355
726.933 .0294099
727.662 .0293830
728.391 .0293556
729.120 .0293286
729.849 .0293022
730.577 .0292768
731.305 .0292518
732.033 .0292274
732.760 .0292023
733.488 .0291768
734.215 .0291509
734.942 .0291249
735.669 .0290994
736.395 .0290748
737.122 .0290515
737.848 .0290298
738.573 .0290098
739.299 .0289911
740.024 .0289732
740.750 .0289560
741.474 .0289390
742.199 .0289222
742.924 .0289051
743.648 .0288881
744.372 .0288710
745.096 .0288546
745.819 .0288385
746.543 .0288231
747.266 .0288083
747.989 .0287945
748.711 .0287814
749.434 .0287692
750.156 .0287576
750.878 .0287470
751.599 .0287371
752.321 .0287285
753.042 .0287205
753.763 .0287138
754.484 .0287079
755.205 .0287029
755.925 .0286983
756.645 .0286936
757.365 .0286877
758.085 .0286810
758.804 .0286728
759.523 .0286629
760.242 .0286512
760.961 .0286384
761.679 .0286245
762.397 .0286097
763.115 .0285939
763.833 .0285767
764.551 .0285586
765.268 .0285395
765.985 .0285182
766.702 .0284955
767.418 .0284722
768.134 .0284487
768.850 .0284259
769.566 .0284045
770.282 .0283849
770.997 .0283673
771.712 .0283515
772.427 .0283365
773.142 .0283216
773.856 .0283067
774.570 .0282911
775.284 .0282750
775.998 .0282590
776.711 .0282429
777.424 .0282274
778.137 .0282127
778.849 .0281987
779.562 .0281848
780.274 .0281710
780.986 .0281572
781.697 .0281431
782.409 .0281286
783.120 .0281139
783.831 .0280997
784.541 .0280867
785.252 .0280748
785.962 .0280642
786.671 .0280549
787.381 .0280468
788.090 .0280391
788.799 .0280315
789.508 .0280234
790.217 .0280151
790.925 .0280059
791.633 .0279962
792.341 .0279860
793.048 .0279754
793.755 .0279643
794.462 .0279528
795.169 .0279409
795.875 .0279284
796.581 .0279152
797.287 .0279017
797.993 .0278876
798.698 .0278737
799.403 .0278599
800.108 .0278463
800.812 .0278331
801.517 .0278207
802.221 .0278088
802.924 .0277974
803.628 .0277866
804.331 .0277765
805.034 .0277670
805.736 .0277582
806.439 .0277497
807.141 .0277415
807.843 .0277338
808.544 .0277260
809.245 .0277175
809.946 .0277086
810.647 .0276986
811.347 .0276876
812.047 .0276759
812.747 .0276635
813.447 .0276505
814.146 .0276369
814.845 .0276235
815.543 .0276100
816.242 .0275965
816.940 .0275826
817.638 .0275686
818.335 .0275546
819.032 .0275401
819.729 .0275253
820.426 .0275105
821.122 .0274959
821.818 .0274814
822.514 .0274668
823.209 .0274523
823.905 .0274376
824.599 .0274223
825.294 .0274065
825.988 .0273903
826.682 .0273735
827.376 .0273564
828.069 .0273390
828.762 .0273213
829.455 .0273033
830.147 .0272852
830.840 .0272673
831.531 .0272498
832.223 .0272331
832.914 .0272171
833.605 .0272021
834.296 .0271887
834.986 .0271765
835.676 .0271654
836.366 .0271552
837.055 .0271452
837.744 .0271351
838.433 .0271247
839.121 .0271138
839.809 .0271025
840.497 .0270908
841.185 .0270790
841.872 .0270666
842.559 .0270541
843.245 .0270414
843.932 .0270281
844.617 .0270145
845.303 .0270004
845.988 .0269854
846.673 .0269702
847.358 .0269549
848.042 .0269397
848.726 .0269253
849.410 .0269120
850.093 .0268992
850.776 .0268878
851.459 .0268769
852.141 .0268665
852.823 .0268564
853.505 .0268468
854.186 .0268366
854.867 .0268258
855.548 .0268145
856.228 .0268026
856.908 .0267901
857.588 .0267774
858.267 .0267640
858.946 .0267505
859.625 .0267369
860.303 .0267230
860.981 .0267089
861.659 .0266947
862.336 .0266796
863.013 .0266639
863.690 .0266476
864.366 .0266308
865.042 .0266139
865.718 .0265974
866.393 .0265813
867.068 .0265658
867.743 .0265507
868.417 .0265359
869.091 .0265207
869.765 .0265053
870.438 .0264892
871.111 .0264728
871.783 .0264564
872.456 .0264400
873.127 .0264243
873.799 .0264096
874.470 .0263958
875.141 .0263827
875.811 .0263700
876.481 .0263577
877.151 .0263455
877.820 .0263335
878.489 .0263214
879.158 .0263095
879.826 .0262979
880.494 .0262871
881.162 .0262765
881.829 .0262665
882.496 .0262562
883.163 .0262452
883.829 .0262333
884.495 .0262204
885.160 .0262069
885.825 .0261933
886.490 .0261803
887.154 .0261684
887.818 .0261575
888.482 .0261477
889.145 .0261388
889.808 .0261310
890.471 .0261237
891.133 .0261169
891.795 .0261103
892.456 .0261042
893.117 .0260987
893.778 .0260940
894.439 .0260901
895.099 .0260867
895.758 .0260838
896.417 .0260802
897.076 .0260757
897.735 .0260700
898.393 .0260632
899.051 .0260549
899.708 .0260456
900.365 .0260358
901.022 .0260250
901.678 .0260137
902.334 .0260022
902.990 .0259904
903.645 .0259784
904.300 .0259663
904.954 .0259535
905.608 .0259399
906.262 .0259267
906.915 .0259134
907.568 .0259004
908.221 .0258882
908.873 .0258773
909.525 .0258669
910.176 .0258576
910.828 .0258489
911.478 .0258404
912.129 .0258321
912.778 .0258241
913.428 .0258159
914.077 .0258080
914.726 .0258001
915.375 .0257921
916.023 .0257850
916.670 .0257792
917.318 .0257737
917.964 .0257681
918.611 .0257622
919.257 .0257559
919.903 .0257477
920.548 .0257385
921.193 .0257284
921.838 .0257180
922.482 .0257076
923.126 .0256973
923.770 .0256873
924.413 .0256783
925.056 .0256696
925.698 .0256608
926.340 .0256516
926.982 .0256424
927.623 .0256322
928.264 .0256217
928.904 .0256116
929.544 .0256018
930.184 .0255922
930.823 .0255833
931.462 .0255747
932.101 .0255659
932.739 .0255565
933.377 .0255460
934.014 .0255345
934.651 .0255221
935.288 .0255081
935.924 .0254926
936.560 .0254768
937.196 .0254604
937.831 .0254432
938.466 .0254258
939.100 .0254083
939.734 .0253900
940.368 .0253713
941.001 .0253518
941.634 .0253317
942.266 .0253113
942.899 .0252906
943.530 .0252697
944.162 .0252491
944.793 .0252286
945.423 .0252082
946.053 .0251878
946.683 .0251684
947.313 .0251487
947.942 .0251291
948.571 .0251101
949.199 .0250910
949.827 .0250720
950.455 .0250536
951.082 .0250362
951.709 .0250197
952.335 .0250045
952.961 .0249905
953.587 .0249773
954.212 .0249653
954.837 .0249543
955.462 .0249433
956.086 .0249331
956.710 .0249234
957.334 .0249137
957.957 .0249041
958.579 .0248951
959.202 .0248860
959.824 .0248766
960.445 .0248667
961.067 .0248564
961.688 .0248452
962.308 .0248340
962.928 .0248230
963.548 .0248118
964.168 .0248015
964.787 .0247913
965.406 .0247811
966.024 .0247713
966.642 .0247617
967.260 .0247514
967.877 .0247414
968.494 .0247318
969.110 .0247222
969.727 .0247130
970.342 .0247052
970.958 .0246984
971.573 .0246929
972.188 .0246878
972.802 .0246827
973.416 .0246775
974.030 .0246718
974.643 .0246647
975.256 .0246570
975.869 .0246490
976.481 .0246409
977.093 .0246332
977.705 .0246270
978.316 .0246216
978.927 .0246168
979.538 .0246121
980.148 .0246071
980.758 .0246016
981.367 .0245956
981.977 .0245896
982.586 .0245850
983.194 .0245818
983.802 .0245805
984.410 .0245809
985.018 .0245831
985.625 .0245861
986.232 .0245894
986.838 .0245918
987.445 .0245935
988.050 .0245943
988.656 .0245947
989.261 .0245952
989.866 .0245959
990.471 .0245965
991.075 .0245970
991.679 .0245971
992.282 .0245961
992.886 .0245931
993.489 .0245894
994.091 .0245839
994.694 .0245774
995.296 .0245702
995.897 .0245631
996.499 .0245562
997.100 .0245506
997.701 .0245452
998.301 .0245403
998.901 .0245356
999.501 .0245310
1000.101 .0245260
1000.700 .0245212
1001.299 .0245165
1001.898 .0245115
1002.496 .0245071
1003.094 .0245035
1003.692 .0244996
1004.289 .0244963
1004.887 .0244931
1005.484 .0244899
1006.080 .0244856
1006.677 .0244806
1007.273 .0244749
1007.868 .0244689
1008.464 .0244634
1009.059 .0244581
1009.654 .0244539
1010.249 .0244515
1010.843 .0244505
1011.437 .0244506
1012.031 .0244520
1012.625 .0244539
1013.218 .0244556
1013.811 .0244573
1014.404 .0244590
1014.997 .0244614
1015.589 .0244646
1016.181 .0244697
1016.773 .0244765
1017.365 .0244848
1017.956 .0244944
1018.547 .0245038
1019.138 .0245136
1019.728 .0245227
1020.319 .0245308
1020.909 .0245379
1021.499 .0245443
1022.088 .0245498
1022.678 .0245541
1023.267 .0245582
1023.856 .0245616
1024.445 .0245646
1025.033 .0245671
1025.621 .0245687
1026.209 .0245696
1026.797 .0245696
1027.385 .0245687
1027.972 .0245661
1028.560 .0245626
1029.147 .0245572
1029.734 .0245508
1030.320 .0245439
1030.907 .0245368
1031.493 .0245305
1032.079 .0245252
1032.665 .0245209
1033.250 .0245172
1033.836 .0245143
1034.421 .0245123
1035.006 .0245103
1035.591 .0245087
1036.176 .0245064
1036.761 .0245033
1037.345 .0244991
1037.929 .0244943
1038.514 .0244885
1039.097 .0244826
1039.681 .0244775
1040.265 .0244725
1040.848 .0244683
1041.432 .0244654
1042.015 .0244630
1042.598 .0244611
1043.181 .0244595
1043.764 .0244573
1044.346 .0244538
1044.929 .0244498
1045.511 .0244450
1046.094 .0244407
1046.676 .0244382
1047.258 .0244368
1047.840 .0244371
1048.422 .0244391
1049.003 .0244424
1049.585 .0244455
1050.166 .0244487
1050.748 .0244513
1051.329 .0244526
1051.910 .0244533
1052.491 .0244535
1053.072 .0244531
1053.653 .0244533
1054.234 .0244529
1054.815 .0244522
1055.396 .0244500
1055.976 .0244456
1056.557 .0244387
1057.138 .0244312
1057.718 .0244228
1058.298 .0244141
1058.879 .0244056
1059.459 .0243979
1060.039 .0243889
1060.620 .0243790
1061.200 .0243670
1061.780 .0243534
1062.360 .0243386
1062.940 .0243244
1063.520 .0243095
1064.101 .0242967
1064.681 .0242859
1065.261 .0242770
1065.841 .0242699
1066.421 .0242641
1067.001 .0242568
1067.581 .0242477
1068.161 .0242370
1068.741 .0242245
1069.321 .0242095
1069.901 .0241957
1070.482 .0241823
1071.062 .0241698
1071.642 .0241584
1072.222 .0241473
1072.803 .0241359
1073.383 .0241256
1073.963 .0241166
1074.544 .0241093
1075.124 .0241048
1075.705 .0241029
1076.286 .0241035
1076.866 .0241083
1077.447 .0241171
1078.028 .0241282
1078.609 .0241407
1079.190 .0241544
1079.771 .0241685
1080.352 .0241820
1080.934 .0241962
1081.515 .0242119
1082.097 .0242315
1082.679 .0242513
1083.260 .0242709
1083.842 .0242878
1084.424 .0243017
1085.007 .0243119
1085.589 .0243170
1086.172 .0243160
1086.754 .0243110
1087.337 .0243027
1087.920 .0242924
1088.503 .0242799
1089.087 .0242681
1089.670 .0242547
1090.254 .0242402
1090.838 .0242204
1091.422 .0241961
1092.006 .0241650
1092.590 .0241312
1093.175 .0240941
1093.760 .0240556
1094.345 .0240149
1094.930 .0239733
1095.516 .0239331
1096.102 .0238931
1096.688 .0238536
1097.274 .0238153
1097.860 .0237768
1098.447 .0237418
1099.034 .0237085
1099.622 .0236795
1100.209 .0236555
1100.797 .0236396
1101.385 .0236280
1101.973 .0236200
1102.562 .0236162
1103.151 .0236165
1103.740 .0236199
1104.330 .0236271
1104.920 .0236369
1105.510 .0236481
1106.101 .0236628
1106.691 .0236781
1107.283 .0236930
1107.874 .0237097
1108.466 .0237241
1109.058 .0237374
1109.651 .0237483
1110.244 .0237588
1110.837 .0237662
1111.431 .0237720
1112.025 .0237765
1112.620 .0237783
1113.215 .0237783
1113.810 .0237787
1114.406 .0237809
1115.002 .0237874
1115.599 .0238002
1116.196 .0238198
1116.793 .0238449
1117.391 .0238764
1117.989 .0239086
1118.588 .0239420
1119.187 .0239697
1119.787 .0239915
1120.387 .0240057
1120.988 .0240139
1121.589 .0240180
1122.190 .0240200
1122.793 .0240198
1123.395 .0240197
1123.998 .0240184
1124.602 .0240170
1125.206 .0240158
1125.811 .0240154
1126.416 .0240131
1127.022 .0240106
1127.628 .0240086
1128.235 .0240096
1128.843 .0240156
1129.451 .0240320
1130.059 .0240585
1130.669 .0240940
1131.278 .0241418
1131.889 .0241956
1132.500 .0242559
1133.112 .0243205
1133.724 .0243843
1134.337 .0244480
1134.950 .0245063
1135.564 .0245585
1136.179 .0246075
1136.795 .0246571
1137.411 .0247080
1138.028 .0247581
1138.645 .0248098
1139.263 .0248610
1139.882 .0249097
1140.502 .0249607
1141.122 .0250139
1141.743 .0250744
1142.365 .0251242
1142.987 .0250763
1143.611 .0252675
1144.235 .0254046
1144.859 .0255151
1145.485 .0251007
