Measurement Sequence started on: 10-20-44-796
Integration time: 35
Scans to Average: 2 
>>>>>Begin Spectral Data<<<<<
432.953 .0338613
433.882 .0291194
434.810 .0339121
435.737 .0347451
436.662 .0360193
437.586 .0355429
438.509 .0359411
439.431 .0363269
440.351 .0364762
441.269 .0365759
442.187 .0366433
443.103 .0367094
444.018 .0367850
444.932 .0368769
445.844 .0369637
446.756 .0370302
447.666 .0370685
448.575 .0370806
449.482 .0370703
450.388 .0370399
451.294 .0369947
452.198 .0369535
453.100 .0369291
454.002 .0369293
454.902 .0369357
455.801 .0369439
456.699 .0369559
457.596 .0369539
458.492 .0369393
459.387 .0369080
460.280 .0368608
461.172 .0367953
462.064 .0367274
462.954 .0366596
463.843 .0365880
464.730 .0365256
465.617 .0364740
466.503 .0364241
467.387 .0363737
468.271 .0363180
469.153 .0362612
470.035 .0362066
470.915 .0361591
471.794 .0361105
472.673 .0360703
473.550 .0360411
474.426 .0360184
475.301 .0360043
476.175 .0359987
477.048 .0359934
477.920 .0359862
478.791 .0359778
479.661 .0359664
480.530 .0359521
481.398 .0359419
482.266 .0359363
483.132 .0359389
483.997 .0359444
484.861 .0359508
485.724 .0359588
486.587 .0359674
487.448 .0359688
488.308 .0359600
489.168 .0359451
490.026 .0359228
490.884 .0358950
491.741 .0358640
492.597 .0358327
493.452 .0358045
494.306 .0357764
495.159 .0357485
496.011 .0357192
496.862 .0356903
497.713 .0356578
498.562 .0356206
499.411 .0355802
500.259 .0355332
501.106 .0354784
501.952 .0354185
502.798 .0353562
503.642 .0352905
504.486 .0352219
505.329 .0351520
506.171 .0350807
507.012 .0350100
507.852 .0349353
508.692 .0348556
509.531 .0347693
510.369 .0346757
511.206 .0345703
512.043 .0344522
512.878 .0343246
513.713 .0341903
514.547 .0340491
515.381 .0339092
516.213 .0337681
517.045 .0336272
517.876 .0334834
518.706 .0333341
519.536 .0331823
520.365 .0330298
521.193 .0328721
522.020 .0327164
522.847 .0325622
523.673 .0324067
524.498 .0322469
525.323 .0320872
526.146 .0319244
526.969 .0317583
527.792 .0315862
528.614 .0314107
529.435 .0312307
530.255 .0310558
531.075 .0308774
531.894 .0307095
532.712 .0305553
533.530 .0304096
534.347 .0302693
535.163 .0301454
535.979 .0300382
536.794 .0299500
537.608 .0298838
538.422 .0298443
539.235 .0298227
540.048 .0298214
540.860 .0298324
541.671 .0298558
542.481 .0298860
543.292 .0299185
544.101 .0299465
544.910 .0299762
545.718 .0300031
546.526 .0300300
547.333 .0300634
548.139 .0301063
548.945 .0301523
549.750 .0301951
550.555 .0302406
551.359 .0302819
552.162 .0303212
552.965 .0303524
553.768 .0303778
554.569 .0303996
555.371 .0304160
556.171 .0304292
556.972 .0304435
557.771 .0304602
558.570 .0304781
559.369 .0304969
560.167 .0305199
560.964 .0305405
561.761 .0305614
562.558 .0305802
563.354 .0306050
564.149 .0306255
564.944 .0306484
565.738 .0306720
566.532 .0307022
567.325 .0307395
568.118 .0307830
568.910 .0308335
569.702 .0308914
570.494 .0309559
571.285 .0310236
572.075 .0310922
572.865 .0311633
573.654 .0312293
574.443 .0312912
575.232 .0313472
576.020 .0314003
576.807 .0314492
577.594 .0314984
578.381 .0315466
579.167 .0315943
579.952 .0316426
580.738 .0316895
581.522 .0317347
582.307 .0317775
583.091 .0318178
583.874 .0318543
584.657 .0318876
585.440 .0319195
586.222 .0319485
587.004 .0319765
587.785 .0320044
588.566 .0320317
589.346 .0320569
590.126 .0320785
590.906 .0320978
591.685 .0321145
592.464 .0321271
593.242 .0321361
594.020 .0321429
594.797 .0321484
595.575 .0321528
596.351 .0321553
597.128 .0321578
597.904 .0321606
598.679 .0321630
599.454 .0321633
600.229 .0321617
601.004 .0321577
601.778 .0321507
602.551 .0321406
603.325 .0321284
604.097 .0321136
604.870 .0320973
605.642 .0320804
606.414 .0320631
607.185 .0320451
607.956 .0320269
608.727 .0320077
609.497 .0319884
610.267 .0319678
611.037 .0319456
611.806 .0319221
612.575 .0318982
613.344 .0318743
614.112 .0318512
614.880 .0318294
615.647 .0318097
616.414 .0317916
617.181 .0317750
617.948 .0317584
618.714 .0317420
619.480 .0317250
620.245 .0317068
621.011 .0316869
621.775 .0316661
622.540 .0316445
623.304 .0316229
624.068 .0316014
624.832 .0315800
625.595 .0315591
626.358 .0315383
627.120 .0315162
627.883 .0314929
628.645 .0314676
629.406 .0314408
630.168 .0314122
630.929 .0313832
631.689 .0313540
632.450 .0313251
633.210 .0312981
633.970 .0312721
634.729 .0312478
635.489 .0312248
636.248 .0312019
637.006 .0311788
637.765 .0311549
638.523 .0311300
639.280 .0311041
640.038 .0310778
640.795 .0310513
641.552 .0310248
642.309 .0309988
643.065 .0309727
643.821 .0309462
644.577 .0309191
645.332 .0308913
646.088 .0308617
646.843 .0308303
647.597 .0307972
648.352 .0307624
649.106 .0307277
649.860 .0306931
650.613 .0306602
651.367 .0306296
652.120 .0306019
652.872 .0305774
653.625 .0305556
654.377 .0305372
655.129 .0305205
655.881 .0305059
656.632 .0304925
657.384 .0304795
658.135 .0304672
658.885 .0304554
659.636 .0304448
660.386 .0304346
661.136 .0304245
661.885 .0304145
662.635 .0304041
663.384 .0303938
664.133 .0303823
664.881 .0303697
665.630 .0303556
666.378 .0303401
667.126 .0303228
667.874 .0303043
668.621 .0302849
669.368 .0302651
670.115 .0302453
670.862 .0302259
671.608 .0302076
672.354 .0301910
673.100 .0301760
673.846 .0301630
674.591 .0301513
675.337 .0301410
676.082 .0301301
676.826 .0301193
677.571 .0301081
678.315 .0300960
679.059 .0300834
679.803 .0300698
680.547 .0300562
681.290 .0300428
682.033 .0300291
682.776 .0300149
683.518 .0299998
684.261 .0299836
685.003 .0299658
685.745 .0299468
686.487 .0299269
687.228 .0299065
687.969 .0298859
688.710 .0298656
689.451 .0298467
690.192 .0298282
690.932 .0298109
691.672 .0297937
692.412 .0297774
693.152 .0297605
693.891 .0297434
694.630 .0297265
695.369 .0297103
696.108 .0296949
696.846 .0296797
697.585 .0296647
698.323 .0296505
699.061 .0296359
699.798 .0296212
700.536 .0296054
701.273 .0295894
702.010 .0295718
702.746 .0295534
703.483 .0295341
704.219 .0295148
704.955 .0294957
705.691 .0294767
706.427 .0294575
707.162 .0294385
707.897 .0294189
708.632 .0293991
709.367 .0293792
710.101 .0293592
710.835 .0293381
711.569 .0293168
712.303 .0292947
713.037 .0292726
713.770 .0292501
714.503 .0292279
715.236 .0292052
715.969 .0291827
716.702 .0291598
717.434 .0291360
718.166 .0291123
718.898 .0290892
719.629 .0290660
720.361 .0290436
721.092 .0290216
721.823 .0290002
722.554 .0289789
723.284 .0289583
724.014 .0289369
724.744 .0289150
725.474 .0288921
726.204 .0288682
726.933 .0288429
727.662 .0288171
728.391 .0287906
729.120 .0287641
729.849 .0287382
730.577 .0287125
731.305 .0286870
732.033 .0286622
732.760 .0286378
733.488 .0286137
734.215 .0285896
734.942 .0285655
735.669 .0285410
736.395 .0285168
737.122 .0284929
737.848 .0284688
738.573 .0284455
739.299 .0284231
740.024 .0284017
740.750 .0283814
741.474 .0283622
742.199 .0283437
742.924 .0283259
743.648 .0283086
744.372 .0282911
745.096 .0282736
745.819 .0282560
746.543 .0282384
747.266 .0282211
747.989 .0282050
748.711 .0281899
749.434 .0281763
750.156 .0281647
750.878 .0281545
751.599 .0281455
752.321 .0281375
753.042 .0281302
753.763 .0281234
754.484 .0281168
755.205 .0281100
755.925 .0281027
756.645 .0280953
757.365 .0280873
758.085 .0280781
758.804 .0280682
759.523 .0280576
760.242 .0280456
760.961 .0280326
761.679 .0280185
762.397 .0280033
763.115 .0279873
763.833 .0279704
764.551 .0279525
765.268 .0279338
765.985 .0279145
766.702 .0278946
767.418 .0278743
768.134 .0278545
768.850 .0278348
769.566 .0278157
770.282 .0277979
770.997 .0277813
771.712 .0277654
772.427 .0277505
773.142 .0277363
773.856 .0277228
774.570 .0277098
775.284 .0276975
775.998 .0276856
776.711 .0276746
777.424 .0276644
778.137 .0276545
778.849 .0276452
779.562 .0276366
780.274 .0276274
780.986 .0276179
781.697 .0276080
782.409 .0275979
783.120 .0275879
783.831 .0275786
784.541 .0275703
785.252 .0275637
785.962 .0275590
786.671 .0275559
787.381 .0275541
788.090 .0275534
788.799 .0275531
789.508 .0275523
790.217 .0275511
790.925 .0275491
791.633 .0275467
792.341 .0275442
793.048 .0275414
793.755 .0275383
794.462 .0275346
795.169 .0275302
795.875 .0275249
796.581 .0275184
797.287 .0275105
797.993 .0275014
798.698 .0274912
799.403 .0274800
800.108 .0274685
800.812 .0274565
801.517 .0274446
802.221 .0274331
802.924 .0274222
803.628 .0274122
804.331 .0274034
805.034 .0273963
805.736 .0273902
806.439 .0273850
807.141 .0273804
807.843 .0273760
808.544 .0273715
809.245 .0273665
809.946 .0273606
810.647 .0273543
811.347 .0273477
812.047 .0273409
812.747 .0273344
813.447 .0273285
814.146 .0273227
814.845 .0273171
815.543 .0273110
816.242 .0273042
816.940 .0272963
817.638 .0272875
818.335 .0272774
819.032 .0272665
819.729 .0272548
820.426 .0272429
821.122 .0272305
821.818 .0272180
822.514 .0272050
823.209 .0271916
823.905 .0271775
824.599 .0271626
825.294 .0271468
825.988 .0271305
826.682 .0271140
827.376 .0270976
828.069 .0270815
828.762 .0270659
829.455 .0270508
830.147 .0270364
830.840 .0270222
831.531 .0270083
832.223 .0269942
832.914 .0269803
833.605 .0269658
834.296 .0269514
834.986 .0269373
835.676 .0269233
836.366 .0269095
837.055 .0268960
837.744 .0268823
838.433 .0268683
839.121 .0268542
839.809 .0268395
840.497 .0268248
841.185 .0268106
841.872 .0267968
842.559 .0267839
843.245 .0267715
843.932 .0267599
844.617 .0267485
845.303 .0267375
845.988 .0267261
846.673 .0267141
847.358 .0267016
848.042 .0266882
848.726 .0266743
849.410 .0266599
850.093 .0266455
850.776 .0266314
851.459 .0266176
852.141 .0266035
852.823 .0265892
853.505 .0265748
854.186 .0265596
854.867 .0265438
855.548 .0265275
856.228 .0265108
856.908 .0264944
857.588 .0264785
858.267 .0264635
858.946 .0264493
859.625 .0264361
860.303 .0264230
860.981 .0264095
861.659 .0263949
862.336 .0263788
863.013 .0263610
863.690 .0263425
864.366 .0263229
865.042 .0263032
865.718 .0262841
866.393 .0262657
867.068 .0262481
867.743 .0262310
868.417 .0262136
869.091 .0261959
869.765 .0261768
870.438 .0261568
871.111 .0261356
871.783 .0261144
872.456 .0260934
873.127 .0260732
873.799 .0260542
874.470 .0260361
875.141 .0260188
875.811 .0260023
876.481 .0259857
877.151 .0259689
877.820 .0259520
878.489 .0259354
879.158 .0259189
879.826 .0259033
880.494 .0258881
881.162 .0258735
881.829 .0258597
882.496 .0258460
883.163 .0258320
883.829 .0258182
884.495 .0258046
885.160 .0257910
885.825 .0257781
886.490 .0257660
887.154 .0257545
887.818 .0257437
888.482 .0257335
889.145 .0257232
889.808 .0257131
890.471 .0257028
891.133 .0256922
891.795 .0256818
892.456 .0256717
893.117 .0256617
893.778 .0256522
894.439 .0256434
895.099 .0256350
895.758 .0256270
896.417 .0256195
897.076 .0256118
897.735 .0256038
898.393 .0255956
899.051 .0255868
899.708 .0255772
900.365 .0255670
901.022 .0255560
901.678 .0255449
902.334 .0255332
902.990 .0255212
903.645 .0255094
904.300 .0254983
904.954 .0254874
905.608 .0254765
906.262 .0254656
906.915 .0254547
907.568 .0254436
908.221 .0254324
908.873 .0254210
909.525 .0254097
910.176 .0253988
910.828 .0253883
911.478 .0253783
912.129 .0253687
912.778 .0253594
913.428 .0253503
914.077 .0253420
914.726 .0253341
915.375 .0253265
916.023 .0253204
916.670 .0253159
917.318 .0253129
917.964 .0253108
918.611 .0253093
919.257 .0253082
919.903 .0253070
920.548 .0253056
921.193 .0253038
921.838 .0253025
922.482 .0253019
923.126 .0253020
923.770 .0253026
924.413 .0253038
925.056 .0253051
925.698 .0253065
926.340 .0253074
926.982 .0253068
927.623 .0253049
928.264 .0253018
928.904 .0252977
929.544 .0252926
930.184 .0252868
930.823 .0252804
931.462 .0252736
932.101 .0252660
932.739 .0252578
933.377 .0252493
934.014 .0252405
934.651 .0252317
935.288 .0252236
935.924 .0252158
936.560 .0252087
937.196 .0252022
937.831 .0251965
938.466 .0251908
939.100 .0251850
939.734 .0251786
940.368 .0251717
941.001 .0251647
941.634 .0251574
942.266 .0251500
942.899 .0251435
943.530 .0251366
944.162 .0251294
944.793 .0251216
945.423 .0251123
946.053 .0251014
946.683 .0250886
947.313 .0250741
947.942 .0250584
948.571 .0250418
949.199 .0250252
949.827 .0250084
950.455 .0249922
951.082 .0249769
951.709 .0249619
952.335 .0249476
952.961 .0249334
953.587 .0249193
954.212 .0249053
954.837 .0248914
955.462 .0248778
956.086 .0248650
956.710 .0248532
957.334 .0248427
957.957 .0248327
958.579 .0248238
959.202 .0248153
959.824 .0248069
960.445 .0247985
961.067 .0247901
961.688 .0247813
962.308 .0247726
962.928 .0247643
963.548 .0247567
964.168 .0247496
964.787 .0247434
965.406 .0247377
966.024 .0247332
966.642 .0247297
967.260 .0247270
967.877 .0247252
968.494 .0247247
969.110 .0247249
969.727 .0247256
970.342 .0247271
970.958 .0247293
971.573 .0247323
972.188 .0247361
972.802 .0247402
973.416 .0247443
974.030 .0247480
974.643 .0247512
975.256 .0247540
975.869 .0247564
976.481 .0247577
977.093 .0247590
977.705 .0247605
978.316 .0247622
978.927 .0247641
979.538 .0247662
980.148 .0247679
980.758 .0247689
981.367 .0247689
981.977 .0247680
982.586 .0247667
983.194 .0247654
983.802 .0247641
984.410 .0247632
985.018 .0247631
985.625 .0247632
986.232 .0247635
986.838 .0247638
987.445 .0247629
988.050 .0247605
988.656 .0247561
989.261 .0247499
989.866 .0247422
990.471 .0247336
991.075 .0247249
991.679 .0247163
992.282 .0247082
992.886 .0246999
993.489 .0246923
994.091 .0246850
994.694 .0246781
995.296 .0246708
995.897 .0246642
996.499 .0246580
997.100 .0246529
997.701 .0246487
998.301 .0246458
998.901 .0246444
999.501 .0246443
1000.101 .0246446
1000.700 .0246456
1001.299 .0246461
1001.898 .0246463
1002.496 .0246460
1003.094 .0246448
1003.692 .0246425
1004.289 .0246398
1004.887 .0246365
1005.484 .0246327
1006.080 .0246280
1006.677 .0246224
1007.273 .0246152
1007.868 .0246075
1008.464 .0245985
1009.059 .0245888
1009.654 .0245795
1010.249 .0245709
1010.843 .0245632
1011.437 .0245573
1012.031 .0245526
1012.625 .0245487
1013.218 .0245453
1013.811 .0245424
1014.404 .0245388
1014.997 .0245353
1015.589 .0245316
1016.181 .0245287
1016.773 .0245266
1017.365 .0245260
1017.956 .0245254
1018.547 .0245254
1019.138 .0245258
1019.728 .0245251
1020.319 .0245230
1020.909 .0245198
1021.499 .0245147
1022.088 .0245082
1022.678 .0244997
1023.267 .0244911
1023.856 .0244814
1024.445 .0244716
1025.033 .0244613
1025.621 .0244506
1026.209 .0244392
1026.797 .0244273
1027.385 .0244143
1027.972 .0244011
1028.560 .0243882
1029.147 .0243760
1029.734 .0243649
1030.320 .0243564
1030.907 .0243492
1031.493 .0243439
1032.079 .0243405
1032.665 .0243391
1033.250 .0243375
1033.836 .0243371
1034.421 .0243372
1035.006 .0243372
1035.591 .0243377
1036.176 .0243383
1036.761 .0243388
1037.345 .0243399
1037.929 .0243400
1038.514 .0243385
1039.097 .0243355
1039.681 .0243312
1040.265 .0243239
1040.848 .0243145
1041.432 .0243037
1042.015 .0242912
1042.598 .0242777
1043.181 .0242640
1043.764 .0242501
1044.346 .0242365
1044.929 .0242238
1045.511 .0242114
1046.094 .0241995
1046.676 .0241882
1047.258 .0241776
1047.840 .0241679
1048.422 .0241587
1049.003 .0241502
1049.585 .0241411
1050.166 .0241325
1050.748 .0241239
1051.329 .0241148
1051.910 .0241062
1052.491 .0240977
1053.072 .0240905
1053.653 .0240837
1054.234 .0240773
1054.815 .0240706
1055.396 .0240625
1055.976 .0240534
1056.557 .0240417
1057.138 .0240265
1057.718 .0240094
1058.298 .0239906
1058.879 .0239710
1059.459 .0239503
1060.039 .0239293
1060.620 .0239087
1061.200 .0238888
1061.780 .0238684
1062.360 .0238488
1062.940 .0238310
1063.520 .0238153
1064.101 .0238017
1064.681 .0237906
1065.261 .0237824
1065.841 .0237757
1066.421 .0237703
1067.001 .0237642
1067.581 .0237574
1068.161 .0237501
1068.741 .0237414
1069.321 .0237336
1069.901 .0237279
1070.482 .0237237
1071.062 .0237206
1071.642 .0237182
1072.222 .0237153
1072.803 .0237086
1073.383 .0236985
1073.963 .0236835
1074.544 .0236640
1075.124 .0236409
1075.705 .0236141
1076.286 .0235865
1076.866 .0235614
1077.447 .0235380
1078.028 .0235167
1078.609 .0234972
1079.190 .0234798
1079.771 .0234622
1080.352 .0234451
1080.934 .0234296
1081.515 .0234162
1082.097 .0234055
1082.679 .0233975
1083.260 .0233906
1083.842 .0233862
1084.424 .0233842
1085.007 .0233843
1085.589 .0233873
1086.172 .0233920
1086.754 .0233983
1087.337 .0234079
1087.920 .0234217
1088.503 .0234371
1089.087 .0234522
1089.670 .0234660
1090.254 .0234766
1090.838 .0234811
1091.422 .0234795
1092.006 .0234723
1092.590 .0234630
1093.175 .0234533
1093.760 .0234427
1094.345 .0234332
1094.930 .0234257
1095.516 .0234189
1096.102 .0234139
1096.688 .0234071
1097.274 .0233978
1097.860 .0233849
1098.447 .0233697
1099.034 .0233522
1099.622 .0233336
1100.209 .0233161
1100.797 .0233009
1101.385 .0232891
1101.973 .0232810
1102.562 .0232728
1103.151 .0232674
1103.740 .0232634
1104.330 .0232608
1104.920 .0232594
1105.510 .0232590
1106.101 .0232607
1106.691 .0232660
1107.283 .0232735
1107.874 .0232826
1108.466 .0232932
1109.058 .0233078
1109.651 .0233245
1110.244 .0233437
1110.837 .0233644
1111.431 .0233874
1112.025 .0234119
1112.620 .0234373
1113.215 .0234605
1113.810 .0234831
1114.406 .0235016
1115.002 .0235146
1115.599 .0235232
1116.196 .0235266
1116.793 .0235257
1117.391 .0235231
1117.989 .0235213
1118.588 .0235214
1119.187 .0235225
1119.787 .0235250
1120.387 .0235276
1120.988 .0235325
1121.589 .0235354
1122.190 .0235352
1122.793 .0235358
1123.395 .0235377
1123.998 .0235403
1124.602 .0235484
1125.206 .0235639
1125.811 .0235852
1126.416 .0236113
1127.022 .0236396
1127.628 .0236668
1128.235 .0236903
1128.843 .0237107
1129.451 .0237264
1130.059 .0237384
1130.669 .0237529
1131.278 .0237689
1131.889 .0237908
1132.500 .0238205
1133.112 .0238564
1133.724 .0238974
1134.337 .0239427
1134.950 .0239893
1135.564 .0240326
1136.179 .0240751
1136.795 .0241188
1137.411 .0241655
1138.028 .0242171
1138.645 .0242783
1139.263 .0243529
1139.882 .0244320
1140.502 .0245172
1141.122 .0246027
1141.743 .0246897
1142.365 .0247957
1142.987 .0248060
1143.611 .0249099
1144.235 .0249394
1144.859 .0250899
1145.485 .0257725
