Measurement Sequence started on: 10-20-44-796
Integration time: 35
Scans to Average: 2 
>>>>>Begin Spectral Data<<<<<
432.953 .0365883
433.882 .0350781
434.810 .0325213
435.737 .0331430
436.662 .0332599
437.586 .0326404
438.509 .0322445
439.431 .0319477
440.351 .0317497
441.269 .0315650
442.187 .0314202
443.103 .0313440
444.018 .0313094
444.932 .0312996
445.844 .0313093
446.756 .0313275
447.666 .0313501
448.575 .0313649
449.482 .0313672
450.388 .0313643
451.294 .0313584
452.198 .0313502
453.100 .0313354
454.002 .0313357
454.902 .0313426
455.801 .0313592
456.699 .0313777
457.596 .0313998
458.492 .0314153
459.387 .0314273
460.280 .0314293
461.172 .0314198
462.064 .0314038
462.954 .0313864
463.843 .0313697
464.730 .0313566
465.617 .0313429
466.503 .0313301
467.387 .0313133
468.271 .0312898
469.153 .0312564
470.035 .0312152
470.915 .0311685
471.794 .0311199
472.673 .0310713
473.550 .0310291
474.426 .0309947
475.301 .0309700
476.175 .0309543
477.048 .0309457
477.920 .0309393
478.791 .0309310
479.661 .0309222
480.530 .0309157
481.398 .0309082
482.266 .0309037
483.132 .0309046
483.997 .0309102
484.861 .0309186
485.724 .0309305
486.587 .0309446
487.448 .0309577
488.308 .0309663
489.168 .0309686
490.026 .0309627
490.884 .0309504
491.741 .0309288
492.597 .0309014
493.452 .0308703
494.306 .0308348
495.159 .0307930
496.011 .0307476
496.862 .0306997
497.713 .0306463
498.562 .0305853
499.411 .0305185
500.259 .0304440
501.106 .0303607
501.952 .0302711
502.798 .0301754
503.642 .0300737
504.486 .0299688
505.329 .0298601
506.171 .0297524
507.012 .0296471
507.852 .0295474
508.692 .0294533
509.531 .0293641
510.369 .0292797
511.206 .0291953
512.043 .0291099
512.878 .0290216
513.713 .0289232
514.547 .0288140
515.381 .0286930
516.213 .0285587
517.045 .0284142
517.876 .0282625
518.706 .0281029
519.536 .0279407
520.365 .0277718
521.193 .0275969
522.020 .0274154
522.847 .0272261
523.673 .0270268
524.498 .0268152
525.323 .0265929
526.146 .0263656
526.969 .0261385
527.792 .0259211
528.614 .0257175
529.435 .0255359
530.255 .0253805
531.075 .0252433
531.894 .0251262
532.712 .0250288
533.530 .0249358
534.347 .0248499
535.163 .0247630
535.979 .0246815
536.794 .0246093
537.608 .0245492
538.422 .0245116
539.235 .0244983
540.048 .0245103
540.860 .0245382
541.671 .0245758
542.481 .0246248
543.292 .0246688
544.101 .0247095
544.910 .0247481
545.718 .0247821
546.526 .0248168
547.333 .0248591
548.139 .0249098
548.945 .0249711
549.750 .0250402
550.555 .0251136
551.359 .0251891
552.162 .0252643
552.965 .0253363
553.768 .0254040
554.569 .0254732
555.371 .0255418
556.171 .0256059
556.972 .0256739
557.771 .0257449
558.570 .0258193
559.369 .0258954
560.167 .0259721
560.964 .0260495
561.761 .0261253
562.558 .0261981
563.354 .0262677
564.149 .0263331
564.944 .0263964
565.738 .0264578
566.532 .0265202
567.325 .0265846
568.118 .0266516
568.910 .0267232
569.702 .0267973
570.494 .0268734
571.285 .0269499
572.075 .0270259
572.865 .0271017
573.654 .0271776
574.443 .0272528
575.232 .0273298
576.020 .0274082
576.807 .0274879
577.594 .0275672
578.381 .0276470
579.167 .0277246
579.952 .0277992
580.738 .0278704
581.522 .0279375
582.307 .0280001
583.091 .0280601
583.874 .0281169
584.657 .0281690
585.440 .0282177
586.222 .0282611
587.004 .0282992
587.785 .0283330
588.566 .0283609
589.346 .0283845
590.126 .0284032
590.906 .0284185
591.685 .0284312
592.464 .0284418
593.242 .0284520
594.020 .0284606
594.797 .0284691
595.575 .0284755
596.351 .0284803
597.128 .0284834
597.904 .0284834
598.679 .0284801
599.454 .0284736
600.229 .0284640
601.004 .0284519
601.778 .0284377
602.551 .0284217
603.325 .0284050
604.097 .0283888
604.870 .0283721
605.642 .0283559
606.414 .0283391
607.185 .0283216
607.956 .0283035
608.727 .0282850
609.497 .0282666
610.267 .0282485
611.037 .0282320
611.806 .0282176
612.575 .0282054
613.344 .0281952
614.112 .0281862
614.880 .0281786
615.647 .0281720
616.414 .0281650
617.181 .0281572
617.948 .0281482
618.714 .0281378
619.480 .0281262
620.245 .0281133
621.011 .0280989
621.775 .0280838
622.540 .0280682
623.304 .0280520
624.068 .0280355
624.832 .0280192
625.595 .0280034
626.358 .0279880
627.120 .0279735
627.883 .0279593
628.645 .0279451
629.406 .0279311
630.168 .0279163
630.929 .0279009
631.689 .0278849
632.450 .0278686
633.210 .0278521
633.970 .0278363
634.729 .0278219
635.489 .0278076
636.248 .0277943
637.006 .0277814
637.765 .0277679
638.523 .0277539
639.280 .0277388
640.038 .0277225
640.795 .0277057
641.552 .0276893
642.309 .0276732
643.065 .0276588
643.821 .0276471
644.577 .0276370
645.332 .0276292
646.088 .0276235
646.843 .0276183
647.597 .0276130
648.352 .0276078
649.106 .0276022
649.860 .0275958
650.613 .0275887
651.367 .0275811
652.120 .0275731
652.872 .0275657
653.625 .0275582
654.377 .0275506
655.129 .0275434
655.881 .0275362
656.632 .0275285
657.384 .0275201
658.135 .0275112
658.885 .0275011
659.636 .0274903
660.386 .0274787
661.136 .0274662
661.885 .0274528
662.635 .0274391
663.384 .0274252
664.133 .0274109
664.881 .0273963
665.630 .0273812
666.378 .0273652
667.126 .0273486
667.874 .0273312
668.621 .0273133
669.368 .0272949
670.115 .0272769
670.862 .0272591
671.608 .0272419
672.354 .0272256
673.100 .0272098
673.846 .0271944
674.591 .0271792
675.337 .0271646
676.082 .0271497
676.826 .0271350
677.571 .0271208
678.315 .0271068
679.059 .0270929
679.803 .0270793
680.547 .0270658
681.290 .0270519
682.033 .0270374
682.776 .0270220
683.518 .0270050
684.261 .0269875
685.003 .0269695
685.745 .0269510
686.487 .0269326
687.228 .0269148
687.969 .0268969
688.710 .0268790
689.451 .0268612
690.192 .0268429
690.932 .0268240
691.672 .0268049
692.412 .0267857
693.152 .0267665
693.891 .0267481
694.630 .0267305
695.369 .0267142
696.108 .0266990
696.846 .0266840
697.585 .0266683
698.323 .0266524
699.061 .0266361
699.798 .0266188
700.536 .0266009
701.273 .0265838
702.010 .0265671
702.746 .0265509
703.483 .0265356
704.219 .0265211
704.955 .0265070
705.691 .0264927
706.427 .0264781
707.162 .0264629
707.897 .0264474
708.632 .0264317
709.367 .0264164
710.101 .0264019
710.835 .0263883
711.569 .0263751
712.303 .0263625
713.037 .0263506
713.770 .0263387
714.503 .0263262
715.236 .0263135
715.969 .0263004
716.702 .0262870
717.434 .0262733
718.166 .0262600
718.898 .0262466
719.629 .0262337
720.361 .0262211
721.092 .0262089
721.823 .0261967
722.554 .0261842
723.284 .0261715
724.014 .0261585
724.744 .0261444
725.474 .0261295
726.204 .0261141
726.933 .0260984
727.662 .0260823
728.391 .0260663
729.120 .0260502
729.849 .0260350
730.577 .0260205
731.305 .0260065
732.033 .0259934
732.760 .0259806
733.488 .0259683
734.215 .0259563
734.942 .0259442
735.669 .0259322
736.395 .0259201
737.122 .0259087
737.848 .0258976
738.573 .0258869
739.299 .0258767
740.024 .0258673
740.750 .0258587
741.474 .0258500
742.199 .0258412
742.924 .0258321
743.648 .0258223
744.372 .0258118
745.096 .0258007
745.819 .0257892
746.543 .0257781
747.266 .0257679
747.989 .0257583
748.711 .0257498
749.434 .0257426
750.156 .0257365
750.878 .0257311
751.599 .0257264
752.321 .0257224
753.042 .0257189
753.763 .0257160
754.484 .0257135
755.205 .0257111
755.925 .0257094
756.645 .0257077
757.365 .0257058
758.085 .0257034
758.804 .0257003
759.523 .0256966
760.242 .0256915
760.961 .0256851
761.679 .0256771
762.397 .0256673
763.115 .0256559
763.833 .0256427
764.551 .0256280
765.268 .0256121
765.985 .0255950
766.702 .0255771
767.418 .0255586
768.134 .0255390
768.850 .0255187
769.566 .0254980
770.282 .0254764
770.997 .0254543
771.712 .0254321
772.427 .0254107
773.142 .0253901
773.856 .0253704
774.570 .0253517
775.284 .0253337
775.998 .0253167
776.711 .0252999
777.424 .0252831
778.137 .0252667
778.849 .0252506
779.562 .0252350
780.274 .0252199
780.986 .0252062
781.697 .0251933
782.409 .0251816
783.120 .0251710
783.831 .0251605
784.541 .0251500
785.252 .0251395
785.962 .0251288
786.671 .0251177
787.381 .0251064
788.090 .0250951
788.799 .0250834
789.508 .0250713
790.217 .0250585
790.925 .0250445
791.633 .0250296
792.341 .0250138
793.048 .0249964
793.755 .0249782
794.462 .0249595
795.169 .0249404
795.875 .0249213
796.581 .0249024
797.287 .0248839
797.993 .0248651
798.698 .0248465
799.403 .0248280
800.108 .0248095
800.812 .0247917
801.517 .0247742
802.221 .0247577
802.924 .0247417
803.628 .0247267
804.331 .0247131
805.034 .0247005
805.736 .0246887
806.439 .0246777
807.141 .0246668
807.843 .0246565
808.544 .0246465
809.245 .0246367
809.946 .0246276
810.647 .0246190
811.347 .0246107
812.047 .0246022
812.747 .0245940
813.447 .0245858
814.146 .0245770
814.845 .0245682
815.543 .0245585
816.242 .0245475
816.940 .0245359
817.638 .0245232
818.335 .0245098
819.032 .0244957
819.729 .0244809
820.426 .0244652
821.122 .0244489
821.818 .0244321
822.514 .0244148
823.209 .0243973
823.905 .0243800
824.599 .0243625
825.294 .0243446
825.988 .0243272
826.682 .0243103
827.376 .0242941
828.069 .0242788
828.762 .0242637
829.455 .0242489
830.147 .0242341
830.840 .0242194
831.531 .0242046
832.223 .0241902
832.914 .0241761
833.605 .0241624
834.296 .0241494
834.986 .0241370
835.676 .0241252
836.366 .0241142
837.055 .0241038
837.744 .0240933
838.433 .0240826
839.121 .0240717
839.809 .0240607
840.497 .0240502
841.185 .0240404
841.872 .0240313
842.559 .0240232
843.245 .0240158
843.932 .0240089
844.617 .0240022
845.303 .0239958
845.988 .0239891
846.673 .0239821
847.358 .0239749
848.042 .0239677
848.726 .0239609
849.410 .0239549
850.093 .0239495
850.776 .0239448
851.459 .0239405
852.141 .0239359
852.823 .0239313
853.505 .0239263
854.186 .0239207
854.867 .0239148
855.548 .0239081
856.228 .0239009
856.908 .0238931
857.588 .0238850
858.267 .0238772
858.946 .0238692
859.625 .0238613
860.303 .0238533
860.981 .0238454
861.659 .0238377
862.336 .0238300
863.013 .0238226
863.690 .0238153
864.366 .0238079
865.042 .0238006
865.718 .0237930
866.393 .0237861
867.068 .0237798
867.743 .0237742
868.417 .0237694
869.091 .0237651
869.765 .0237609
870.438 .0237572
871.111 .0237534
871.783 .0237495
872.456 .0237449
873.127 .0237403
873.799 .0237354
874.470 .0237302
875.141 .0237255
875.811 .0237212
876.481 .0237175
877.151 .0237146
877.820 .0237116
878.489 .0237089
879.158 .0237060
879.826 .0237028
880.494 .0236990
881.162 .0236949
881.829 .0236904
882.496 .0236853
883.163 .0236801
883.829 .0236751
884.495 .0236699
885.160 .0236652
885.825 .0236609
886.490 .0236575
887.154 .0236548
887.818 .0236527
888.482 .0236513
889.145 .0236511
889.808 .0236515
890.471 .0236524
891.133 .0236539
891.795 .0236559
892.456 .0236584
893.117 .0236611
893.778 .0236640
894.439 .0236672
895.099 .0236702
895.758 .0236731
896.417 .0236750
897.076 .0236762
897.735 .0236760
898.393 .0236747
899.051 .0236725
899.708 .0236696
900.365 .0236660
901.022 .0236622
901.678 .0236584
902.334 .0236550
902.990 .0236517
903.645 .0236486
904.300 .0236457
904.954 .0236435
905.608 .0236413
906.262 .0236396
906.915 .0236383
907.568 .0236375
908.221 .0236371
908.873 .0236372
909.525 .0236376
910.176 .0236382
910.828 .0236388
911.478 .0236393
912.129 .0236390
912.778 .0236382
913.428 .0236364
914.077 .0236335
914.726 .0236297
915.375 .0236244
916.023 .0236178
916.670 .0236107
917.318 .0236029
917.964 .0235945
918.611 .0235856
919.257 .0235764
919.903 .0235668
920.548 .0235564
921.193 .0235459
921.838 .0235351
922.482 .0235240
923.126 .0235131
923.770 .0235021
924.413 .0234918
925.056 .0234822
925.698 .0234733
926.340 .0234650
926.982 .0234575
927.623 .0234505
928.264 .0234436
928.904 .0234368
929.544 .0234301
930.184 .0234234
930.823 .0234165
931.462 .0234093
932.101 .0234011
932.739 .0233920
933.377 .0233819
934.014 .0233705
934.651 .0233582
935.288 .0233450
935.924 .0233313
936.560 .0233177
937.196 .0233044
937.831 .0232914
938.466 .0232785
939.100 .0232655
939.734 .0232522
940.368 .0232379
941.001 .0232225
941.634 .0232057
942.266 .0231881
942.899 .0231698
943.530 .0231508
944.162 .0231317
944.793 .0231132
945.423 .0230949
946.053 .0230769
946.683 .0230586
947.313 .0230398
947.942 .0230201
948.571 .0229993
949.199 .0229768
949.827 .0229534
950.455 .0229290
951.082 .0229043
951.709 .0228796
952.335 .0228560
952.961 .0228328
953.587 .0228108
954.212 .0227900
954.837 .0227704
955.462 .0227513
956.086 .0227330
956.710 .0227153
957.334 .0226985
957.957 .0226822
958.579 .0226667
959.202 .0226513
959.824 .0226366
960.445 .0226220
961.067 .0226075
961.688 .0225931
962.308 .0225791
962.928 .0225653
963.548 .0225514
964.168 .0225375
964.787 .0225230
965.406 .0225075
966.024 .0224916
966.642 .0224744
967.260 .0224562
967.877 .0224377
968.494 .0224190
969.110 .0224007
969.727 .0223834
970.342 .0223677
970.958 .0223535
971.573 .0223410
972.188 .0223297
972.802 .0223193
973.416 .0223094
974.030 .0222998
974.643 .0222894
975.256 .0222792
975.869 .0222685
976.481 .0222571
977.093 .0222461
977.705 .0222357
978.316 .0222259
978.927 .0222171
979.538 .0222083
980.148 .0221999
980.758 .0221911
981.367 .0221820
981.977 .0221724
982.586 .0221629
983.194 .0221537
983.802 .0221450
984.410 .0221368
985.018 .0221302
985.625 .0221241
986.232 .0221191
986.838 .0221146
987.445 .0221096
988.050 .0221040
988.656 .0220972
989.261 .0220889
989.866 .0220788
990.471 .0220671
991.075 .0220542
991.679 .0220401
992.282 .0220260
992.886 .0220121
993.489 .0219986
994.091 .0219864
994.694 .0219754
995.296 .0219655
995.897 .0219563
996.499 .0219471
997.100 .0219380
997.701 .0219293
998.301 .0219207
998.901 .0219124
999.501 .0219052
1000.101 .0218997
1000.700 .0218953
1001.299 .0218916
1001.898 .0218887
1002.496 .0218859
1003.094 .0218825
1003.692 .0218778
1004.289 .0218714
1004.887 .0218642
1005.484 .0218564
1006.080 .0218487
1006.677 .0218413
1007.273 .0218346
1007.868 .0218286
1008.464 .0218231
1009.059 .0218183
1009.654 .0218139
1010.249 .0218097
1010.843 .0218067
1011.437 .0218049
1012.031 .0218044
1012.625 .0218052
1013.218 .0218075
1013.811 .0218112
1014.404 .0218157
1014.997 .0218201
1015.589 .0218235
1016.181 .0218262
1016.773 .0218278
1017.365 .0218284
1017.956 .0218276
1018.547 .0218265
1019.138 .0218250
1019.728 .0218234
1020.319 .0218221
1020.909 .0218202
1021.499 .0218181
1022.088 .0218156
1022.678 .0218117
1023.267 .0218070
1023.856 .0218016
1024.445 .0217963
1025.033 .0217909
1025.621 .0217867
1026.209 .0217833
1026.797 .0217811
1027.385 .0217800
1027.972 .0217797
1028.560 .0217800
1029.147 .0217805
1029.734 .0217804
1030.320 .0217793
1030.907 .0217781
1031.493 .0217764
1032.079 .0217741
1032.665 .0217715
1033.250 .0217684
1033.836 .0217645
1034.421 .0217592
1035.006 .0217531
1035.591 .0217463
1036.176 .0217392
1036.761 .0217326
1037.345 .0217274
1037.929 .0217240
1038.514 .0217226
1039.097 .0217235
1039.681 .0217268
1040.265 .0217317
1040.848 .0217380
1041.432 .0217436
1042.015 .0217492
1042.598 .0217549
1043.181 .0217608
1043.764 .0217666
1044.346 .0217731
1044.929 .0217797
1045.511 .0217857
1046.094 .0217902
1046.676 .0217933
1047.258 .0217937
1047.840 .0217924
1048.422 .0217890
1049.003 .0217836
1049.585 .0217769
1050.166 .0217705
1050.748 .0217646
1051.329 .0217604
1051.910 .0217571
1052.491 .0217548
1053.072 .0217529
1053.653 .0217523
1054.234 .0217521
1054.815 .0217528
1055.396 .0217558
1055.976 .0217611
1056.557 .0217679
1057.138 .0217762
1057.718 .0217845
1058.298 .0217922
1058.879 .0217976
1059.459 .0217994
1060.039 .0217964
1060.620 .0217892
1061.200 .0217792
1061.780 .0217683
1062.360 .0217574
1062.940 .0217494
1063.520 .0217449
1064.101 .0217448
1064.681 .0217471
1065.261 .0217499
1065.841 .0217523
1066.421 .0217542
1067.001 .0217539
1067.581 .0217517
1068.161 .0217492
1068.741 .0217479
1069.321 .0217491
1069.901 .0217535
1070.482 .0217604
1071.062 .0217702
1071.642 .0217814
1072.222 .0217912
1072.803 .0217976
1073.383 .0217999
1073.963 .0217976
1074.544 .0217926
1075.124 .0217869
1075.705 .0217811
1076.286 .0217765
1076.866 .0217765
1077.447 .0217790
1078.028 .0217828
1078.609 .0217882
1079.190 .0217938
1079.771 .0217986
1080.352 .0218021
1080.934 .0218037
1081.515 .0218042
1082.097 .0218065
1082.679 .0218106
1083.260 .0218153
1083.842 .0218221
1084.424 .0218285
1085.007 .0218333
1085.589 .0218355
1086.172 .0218360
1086.754 .0218327
1087.337 .0218294
1087.920 .0218269
1088.503 .0218237
1089.087 .0218228
1089.670 .0218249
1090.254 .0218285
1090.838 .0218341
1091.422 .0218405
1092.006 .0218464
1092.590 .0218504
1093.175 .0218547
1093.760 .0218570
1094.345 .0218598
1094.930 .0218638
1095.516 .0218694
1096.102 .0218759
1096.688 .0218855
1097.274 .0218960
1097.860 .0219066
1098.447 .0219186
1099.034 .0219303
1099.622 .0219419
1100.209 .0219544
1100.797 .0219674
1101.385 .0219824
1101.973 .0219965
1102.562 .0220121
1103.151 .0220258
1103.740 .0220377
1104.330 .0220462
1104.920 .0220497
1105.510 .0220493
1106.101 .0220455
1106.691 .0220401
1107.283 .0220339
1107.874 .0220284
1108.466 .0220255
1109.058 .0220239
1109.651 .0220233
1110.244 .0220247
1110.837 .0220270
1111.431 .0220281
1112.025 .0220312
1112.620 .0220333
1113.215 .0220368
1113.810 .0220427
1114.406 .0220512
1115.002 .0220632
1115.599 .0220776
1116.196 .0220941
1116.793 .0221071
1117.391 .0221174
1117.989 .0221231
1118.588 .0221213
1119.187 .0221159
1119.787 .0221070
1120.387 .0220955
1120.988 .0220834
1121.589 .0220725
1122.190 .0220607
1122.793 .0220490
1123.395 .0220379
1123.998 .0220272
1124.602 .0220198
1125.206 .0220167
1125.811 .0220201
1126.416 .0220330
1127.022 .0220566
1127.628 .0220886
1128.235 .0221254
1128.843 .0221673
1129.451 .0222083
1130.059 .0222439
1130.669 .0222751
1131.278 .0223033
1131.889 .0223289
1132.500 .0223563
1133.112 .0223905
1133.724 .0224326
1134.337 .0224822
1134.950 .0225350
1135.564 .0225905
1136.179 .0226432
1136.795 .0226911
1137.411 .0227315
1138.028 .0227663
1138.645 .0228037
1139.263 .0228496
1139.882 .0229003
1140.502 .0229637
1141.122 .0230291
1141.743 .0231102
1142.365 .0231936
1142.987 .0232774
1143.611 .0233896
1144.235 .0232003
1144.859 .0236211
1145.485 .0237040
