Measurement Sequence started on: 10-20-44-796
Integration time: 35
Scans to Average: 2 
>>>>>Begin Spectral Data<<<<<
432.953 .0358506
433.882 .0280532
434.810 .0347597
435.737 .0349195
436.662 .0352974
437.586 .0362167
438.509 .0368076
439.431 .0375004
440.351 .0379109
441.269 .0382766
442.187 .0385988
443.103 .0388602
444.018 .0391124
444.932 .0393658
445.844 .0396027
446.756 .0398182
447.666 .0400191
448.575 .0401845
449.482 .0403370
450.388 .0404690
451.294 .0405735
452.198 .0406539
453.100 .0407141
454.002 .0407612
454.902 .0408019
455.801 .0408353
456.699 .0408677
457.596 .0409000
458.492 .0409282
459.387 .0409486
460.280 .0409669
461.172 .0409732
462.064 .0409640
462.954 .0409366
463.843 .0408903
464.730 .0408266
465.617 .0407493
466.503 .0406574
467.387 .0405596
468.271 .0404600
469.153 .0403639
470.035 .0402714
470.915 .0401914
471.794 .0401211
472.673 .0400547
473.550 .0399933
474.426 .0399307
475.301 .0398590
476.175 .0397796
477.048 .0396923
477.920 .0396004
478.791 .0395070
479.661 .0394216
480.530 .0393450
481.398 .0392807
482.266 .0392275
483.132 .0391817
483.997 .0391412
484.861 .0390991
485.724 .0390566
486.587 .0390102
487.448 .0389627
488.308 .0389118
489.168 .0388613
490.026 .0388144
490.884 .0387680
491.741 .0387233
492.597 .0386765
493.452 .0386313
494.306 .0385829
495.159 .0385322
496.011 .0384814
496.862 .0384313
497.713 .0383772
498.562 .0383145
499.411 .0382463
500.259 .0381650
501.106 .0380671
501.952 .0379545
502.798 .0378305
503.642 .0377001
504.486 .0375642
505.329 .0374339
506.171 .0373092
507.012 .0371960
507.852 .0370879
508.692 .0369860
509.531 .0368819
510.369 .0367754
511.206 .0366621
512.043 .0365446
512.878 .0364274
513.713 .0363069
514.547 .0361906
515.381 .0360831
516.213 .0359814
517.045 .0358808
517.876 .0357771
518.706 .0356717
519.536 .0355588
520.365 .0354347
521.193 .0352961
522.020 .0351475
522.847 .0349873
523.673 .0348172
524.498 .0346396
525.323 .0344589
526.146 .0342810
526.969 .0341075
527.792 .0339485
528.614 .0337887
529.435 .0336372
530.255 .0334920
531.075 .0333461
531.894 .0331942
532.712 .0330326
533.530 .0328578
534.347 .0326804
535.163 .0325021
535.979 .0323256
536.794 .0321556
537.608 .0320112
538.422 .0318833
539.235 .0317676
540.048 .0316677
540.860 .0315788
541.671 .0314972
542.481 .0314292
543.292 .0313657
544.101 .0313178
544.910 .0312878
545.718 .0312727
546.526 .0312707
547.333 .0312877
548.139 .0313199
548.945 .0313639
549.750 .0314206
550.555 .0314867
551.359 .0315602
552.162 .0316439
552.965 .0317384
553.768 .0318397
554.569 .0319456
555.371 .0320443
556.171 .0321323
556.972 .0322133
557.771 .0322800
558.570 .0323368
559.369 .0323905
560.167 .0324448
560.964 .0324971
561.761 .0325507
562.558 .0326129
563.354 .0326795
564.149 .0327494
564.944 .0328189
565.738 .0328860
566.532 .0329509
567.325 .0330119
568.118 .0330623
568.910 .0331143
569.702 .0331671
570.494 .0332190
571.285 .0332717
572.075 .0333302
572.865 .0333936
573.654 .0334578
574.443 .0335250
575.232 .0335917
576.020 .0336548
576.807 .0337166
577.594 .0337693
578.381 .0338177
579.167 .0338613
579.952 .0339016
580.738 .0339395
581.522 .0339782
582.307 .0340160
583.091 .0340543
583.874 .0340933
584.657 .0341323
585.440 .0341686
586.222 .0342019
587.004 .0342316
587.785 .0342563
588.566 .0342747
589.346 .0342864
590.126 .0342916
590.906 .0342924
591.685 .0342883
592.464 .0342813
593.242 .0342717
594.020 .0342596
594.797 .0342469
595.575 .0342324
596.351 .0342152
597.128 .0341962
597.904 .0341748
598.679 .0341504
599.454 .0341241
600.229 .0340967
601.004 .0340688
601.778 .0340406
602.551 .0340133
603.325 .0339860
604.097 .0339594
604.870 .0339327
605.642 .0339054
606.414 .0338769
607.185 .0338469
607.956 .0338153
608.727 .0337829
609.497 .0337504
610.267 .0337179
611.037 .0336852
611.806 .0336527
612.575 .0336203
613.344 .0335875
614.112 .0335544
614.880 .0335212
615.647 .0334877
616.414 .0334537
617.181 .0334195
617.948 .0333857
618.714 .0333528
619.480 .0333214
620.245 .0332912
621.011 .0332622
621.775 .0332345
622.540 .0332066
623.304 .0331783
624.068 .0331493
624.832 .0331192
625.595 .0330878
626.358 .0330554
627.120 .0330226
627.883 .0329889
628.645 .0329552
629.406 .0329218
630.168 .0328883
630.929 .0328550
631.689 .0328212
632.450 .0327872
633.210 .0327533
633.970 .0327193
634.729 .0326847
635.489 .0326510
636.248 .0326180
637.006 .0325865
637.765 .0325566
638.523 .0325282
639.280 .0325018
640.038 .0324765
640.795 .0324534
641.552 .0324318
642.309 .0324117
643.065 .0323931
643.821 .0323758
644.577 .0323591
645.332 .0323423
646.088 .0323257
646.843 .0323096
647.597 .0322940
648.352 .0322786
649.106 .0322638
649.860 .0322495
650.613 .0322368
651.367 .0322252
652.120 .0322142
652.872 .0322047
653.625 .0321952
654.377 .0321859
655.129 .0321771
655.881 .0321687
656.632 .0321611
657.384 .0321540
658.135 .0321484
658.885 .0321421
659.636 .0321354
660.386 .0321280
661.136 .0321195
661.885 .0321100
662.635 .0320989
663.384 .0320862
664.133 .0320732
664.881 .0320600
665.630 .0320459
666.378 .0320325
667.126 .0320195
667.874 .0320061
668.621 .0319915
669.368 .0319751
670.115 .0319574
670.862 .0319369
671.608 .0319151
672.354 .0318915
673.100 .0318668
673.846 .0318424
674.591 .0318172
675.337 .0317935
676.082 .0317708
676.826 .0317485
677.571 .0317266
678.315 .0317046
679.059 .0316824
679.803 .0316590
680.547 .0316345
681.290 .0316095
682.033 .0315834
682.776 .0315567
683.518 .0315293
684.261 .0315019
685.003 .0314751
685.745 .0314483
686.487 .0314214
687.228 .0313950
687.969 .0313685
688.710 .0313412
689.451 .0313124
690.192 .0312821
690.932 .0312499
691.672 .0312154
692.412 .0311790
693.152 .0311415
693.891 .0311031
694.630 .0310650
695.369 .0310274
696.108 .0309909
696.846 .0309558
697.585 .0309216
698.323 .0308880
699.061 .0308548
699.798 .0308215
700.536 .0307876
701.273 .0307534
702.010 .0307203
702.746 .0306879
703.483 .0306571
704.219 .0306277
704.955 .0305998
705.691 .0305730
706.427 .0305464
707.162 .0305197
707.897 .0304927
708.632 .0304653
709.367 .0304372
710.101 .0304089
710.835 .0303805
711.569 .0303519
712.303 .0303236
713.037 .0302952
713.770 .0302674
714.503 .0302394
715.236 .0302116
715.969 .0301841
716.702 .0301580
717.434 .0301334
718.166 .0301099
718.898 .0300880
719.629 .0300670
720.361 .0300468
721.092 .0300264
721.823 .0300053
722.554 .0299839
723.284 .0299620
724.014 .0299399
724.744 .0299175
725.474 .0298949
726.204 .0298727
726.933 .0298506
727.662 .0298287
728.391 .0298070
729.120 .0297846
729.849 .0297622
730.577 .0297402
731.305 .0297186
732.033 .0296979
732.760 .0296787
733.488 .0296613
734.215 .0296459
734.942 .0296318
735.669 .0296188
736.395 .0296070
737.122 .0295962
737.848 .0295864
738.573 .0295766
739.299 .0295672
740.024 .0295580
740.750 .0295490
741.474 .0295406
742.199 .0295322
742.924 .0295239
743.648 .0295159
744.372 .0295080
745.096 .0295000
745.819 .0294920
746.543 .0294843
747.266 .0294773
747.989 .0294712
748.711 .0294659
749.434 .0294622
750.156 .0294602
750.878 .0294601
751.599 .0294619
752.321 .0294650
753.042 .0294697
753.763 .0294752
754.484 .0294814
755.205 .0294877
755.925 .0294942
756.645 .0295006
757.365 .0295064
758.085 .0295120
758.804 .0295166
759.523 .0295193
760.242 .0295201
760.961 .0295184
761.679 .0295137
762.397 .0295066
763.115 .0294971
763.833 .0294854
764.551 .0294726
765.268 .0294585
765.985 .0294433
766.702 .0294269
767.418 .0294099
768.134 .0293919
768.850 .0293730
769.566 .0293540
770.282 .0293348
770.997 .0293163
771.712 .0292992
772.427 .0292835
773.142 .0292696
773.856 .0292565
774.570 .0292439
775.284 .0292313
775.998 .0292184
776.711 .0292045
777.424 .0291899
778.137 .0291750
778.849 .0291603
779.562 .0291459
780.274 .0291325
780.986 .0291207
781.697 .0291104
782.409 .0291012
783.120 .0290927
783.831 .0290850
784.541 .0290783
785.252 .0290724
785.962 .0290672
786.671 .0290624
787.381 .0290579
788.090 .0290531
788.799 .0290475
789.508 .0290403
790.217 .0290313
790.925 .0290196
791.633 .0290056
792.341 .0289890
793.048 .0289698
793.755 .0289483
794.462 .0289256
795.169 .0289018
795.875 .0288771
796.581 .0288520
797.287 .0288271
797.993 .0288028
798.698 .0287797
799.403 .0287574
800.108 .0287359
800.812 .0287157
801.517 .0286968
802.221 .0286784
802.924 .0286610
803.628 .0286443
804.331 .0286289
805.034 .0286146
805.736 .0286011
806.439 .0285881
807.141 .0285757
807.843 .0285632
808.544 .0285500
809.245 .0285354
809.946 .0285196
810.647 .0285025
811.347 .0284847
812.047 .0284664
812.747 .0284481
813.447 .0284300
814.146 .0284123
814.845 .0283952
815.543 .0283785
816.242 .0283610
816.940 .0283427
817.638 .0283236
818.335 .0283033
819.032 .0282816
819.729 .0282590
820.426 .0282357
821.122 .0282117
821.818 .0281868
822.514 .0281609
823.209 .0281341
823.905 .0281070
824.599 .0280790
825.294 .0280504
825.988 .0280220
826.682 .0279938
827.376 .0279660
828.069 .0279396
828.762 .0279147
829.455 .0278913
830.147 .0278691
830.840 .0278486
831.531 .0278289
832.223 .0278106
832.914 .0277933
833.605 .0277771
834.296 .0277617
834.986 .0277473
835.676 .0277330
836.366 .0277194
837.055 .0277064
837.744 .0276936
838.433 .0276812
839.121 .0276693
839.809 .0276575
840.497 .0276455
841.185 .0276331
841.872 .0276207
842.559 .0276073
843.245 .0275938
843.932 .0275793
844.617 .0275647
845.303 .0275503
845.988 .0275360
846.673 .0275222
847.358 .0275094
848.042 .0274971
848.726 .0274853
849.410 .0274736
850.093 .0274622
850.776 .0274506
851.459 .0274388
852.141 .0274266
852.823 .0274143
853.505 .0274015
854.186 .0273884
854.867 .0273752
855.548 .0273623
856.228 .0273494
856.908 .0273369
857.588 .0273247
858.267 .0273125
858.946 .0272999
859.625 .0272874
860.303 .0272749
860.981 .0272626
861.659 .0272503
862.336 .0272379
863.013 .0272264
863.690 .0272156
864.366 .0272053
865.042 .0271960
865.718 .0271877
866.393 .0271799
867.068 .0271717
867.743 .0271635
868.417 .0271544
869.091 .0271447
869.765 .0271344
870.438 .0271236
871.111 .0271123
871.783 .0271010
872.456 .0270899
873.127 .0270790
873.799 .0270685
874.470 .0270579
875.141 .0270474
875.811 .0270372
876.481 .0270269
877.151 .0270167
877.820 .0270068
878.489 .0269981
879.158 .0269900
879.826 .0269829
880.494 .0269771
881.162 .0269721
881.829 .0269683
882.496 .0269651
883.163 .0269620
883.829 .0269596
884.495 .0269573
885.160 .0269553
885.825 .0269537
886.490 .0269534
887.154 .0269535
887.818 .0269545
888.482 .0269569
889.145 .0269600
889.808 .0269639
890.471 .0269689
891.133 .0269749
891.795 .0269812
892.456 .0269880
893.117 .0269949
893.778 .0270021
894.439 .0270095
895.099 .0270164
895.758 .0270226
896.417 .0270282
897.076 .0270327
897.735 .0270355
898.393 .0270374
899.051 .0270385
899.708 .0270381
900.365 .0270366
901.022 .0270343
901.678 .0270313
902.334 .0270275
902.990 .0270229
903.645 .0270181
904.300 .0270136
904.954 .0270086
905.608 .0270036
906.262 .0269995
906.915 .0269965
907.568 .0269941
908.221 .0269924
908.873 .0269914
909.525 .0269907
910.176 .0269899
910.828 .0269887
911.478 .0269870
912.129 .0269846
912.778 .0269808
913.428 .0269762
914.077 .0269712
914.726 .0269657
915.375 .0269601
916.023 .0269554
916.670 .0269517
917.318 .0269487
917.964 .0269459
918.611 .0269432
919.257 .0269406
919.903 .0269379
920.548 .0269342
921.193 .0269306
921.838 .0269278
922.482 .0269256
923.126 .0269242
923.770 .0269239
924.413 .0269239
925.056 .0269235
925.698 .0269223
926.340 .0269194
926.982 .0269145
927.623 .0269080
928.264 .0268997
928.904 .0268907
929.544 .0268816
930.184 .0268728
930.823 .0268645
931.462 .0268574
932.101 .0268505
932.739 .0268432
933.377 .0268353
934.014 .0268261
934.651 .0268159
935.288 .0268046
935.924 .0267927
936.560 .0267807
937.196 .0267692
937.831 .0267583
938.466 .0267476
939.100 .0267376
939.734 .0267275
940.368 .0267169
941.001 .0267056
941.634 .0266933
942.266 .0266799
942.899 .0266656
943.530 .0266501
944.162 .0266333
944.793 .0266159
945.423 .0265975
946.053 .0265779
946.683 .0265577
947.313 .0265373
947.942 .0265165
948.571 .0264954
949.199 .0264743
949.827 .0264528
950.455 .0264319
951.082 .0264116
951.709 .0263914
952.335 .0263723
952.961 .0263541
953.587 .0263372
954.212 .0263211
954.837 .0263067
955.462 .0262935
956.086 .0262818
956.710 .0262714
957.334 .0262618
957.957 .0262522
958.579 .0262431
959.202 .0262336
959.824 .0262235
960.445 .0262120
961.067 .0261992
961.688 .0261844
962.308 .0261686
962.928 .0261511
963.548 .0261327
964.168 .0261131
964.787 .0260934
965.406 .0260730
966.024 .0260528
966.642 .0260327
967.260 .0260130
967.877 .0259935
968.494 .0259748
969.110 .0259556
969.727 .0259365
970.342 .0259174
970.958 .0258992
971.573 .0258813
972.188 .0258647
972.802 .0258494
973.416 .0258357
974.030 .0258232
974.643 .0258119
975.256 .0258012
975.869 .0257918
976.481 .0257825
977.093 .0257736
977.705 .0257652
978.316 .0257575
978.927 .0257502
979.538 .0257434
980.148 .0257368
980.758 .0257303
981.367 .0257231
981.977 .0257153
982.586 .0257064
983.194 .0256971
983.802 .0256873
984.410 .0256766
985.018 .0256655
985.625 .0256539
986.232 .0256412
986.838 .0256278
987.445 .0256135
988.050 .0255989
988.656 .0255837
989.261 .0255679
989.866 .0255514
990.471 .0255349
991.075 .0255181
991.679 .0255010
992.282 .0254839
992.886 .0254673
993.489 .0254503
994.091 .0254333
994.694 .0254163
995.296 .0253995
995.897 .0253828
996.499 .0253661
997.100 .0253487
997.701 .0253314
998.301 .0253140
998.901 .0252968
999.501 .0252802
1000.101 .0252650
1000.700 .0252509
1001.299 .0252387
1001.898 .0252281
1002.496 .0252189
1003.094 .0252106
1003.692 .0252030
1004.289 .0251953
1004.887 .0251874
1005.484 .0251785
1006.080 .0251689
1006.677 .0251587
1007.273 .0251484
1007.868 .0251373
1008.464 .0251264
1009.059 .0251165
1009.654 .0251072
1010.249 .0250985
1010.843 .0250910
1011.437 .0250837
1012.031 .0250769
1012.625 .0250702
1013.218 .0250633
1013.811 .0250560
1014.404 .0250485
1014.997 .0250406
1015.589 .0250328
1016.181 .0250254
1016.773 .0250190
1017.365 .0250130
1017.956 .0250078
1018.547 .0250024
1019.138 .0249960
1019.728 .0249891
1020.319 .0249812
1020.909 .0249721
1021.499 .0249623
1022.088 .0249515
1022.678 .0249401
1023.267 .0249283
1023.856 .0249158
1024.445 .0249029
1025.033 .0248896
1025.621 .0248757
1026.209 .0248614
1026.797 .0248466
1027.385 .0248320
1027.972 .0248176
1028.560 .0248045
1029.147 .0247923
1029.734 .0247810
1030.320 .0247710
1030.907 .0247617
1031.493 .0247526
1032.079 .0247440
1032.665 .0247352
1033.250 .0247260
1033.836 .0247173
1034.421 .0247088
1035.006 .0247012
1035.591 .0246953
1036.176 .0246907
1036.761 .0246871
1037.345 .0246836
1037.929 .0246802
1038.514 .0246758
1039.097 .0246706
1039.681 .0246649
1040.265 .0246580
1040.848 .0246516
1041.432 .0246455
1042.015 .0246405
1042.598 .0246368
1043.181 .0246337
1043.764 .0246314
1044.346 .0246297
1044.929 .0246279
1045.511 .0246259
1046.094 .0246243
1046.676 .0246239
1047.258 .0246246
1047.840 .0246269
1048.422 .0246303
1049.003 .0246345
1049.585 .0246384
1050.166 .0246403
1050.748 .0246392
1051.329 .0246361
1051.910 .0246300
1052.491 .0246221
1053.072 .0246140
1053.653 .0246064
1054.234 .0246005
1054.815 .0245962
1055.396 .0245935
1055.976 .0245914
1056.557 .0245886
1057.138 .0245851
1057.718 .0245801
1058.298 .0245746
1058.879 .0245693
1059.459 .0245643
1060.039 .0245608
1060.620 .0245573
1061.200 .0245536
1061.780 .0245494
1062.360 .0245446
1062.940 .0245399
1063.520 .0245345
1064.101 .0245279
1064.681 .0245200
1065.261 .0245104
1065.841 .0244997
1066.421 .0244871
1067.001 .0244725
1067.581 .0244564
1068.161 .0244391
1068.741 .0244214
1069.321 .0244044
1069.901 .0243906
1070.482 .0243813
1071.062 .0243760
1071.642 .0243738
1072.222 .0243733
1072.803 .0243736
1073.383 .0243732
1073.963 .0243718
1074.544 .0243701
1075.124 .0243682
1075.705 .0243667
1076.286 .0243672
1076.866 .0243720
1077.447 .0243816
1078.028 .0243944
1078.609 .0244100
1079.190 .0244273
1079.771 .0244445
1080.352 .0244594
1080.934 .0244717
1081.515 .0244830
1082.097 .0244933
1082.679 .0245018
1083.260 .0245085
1083.842 .0245139
1084.424 .0245188
1085.007 .0245228
1085.589 .0245256
1086.172 .0245265
1086.754 .0245254
1087.337 .0245218
1087.920 .0245152
1088.503 .0245060
1089.087 .0244948
1089.670 .0244808
1090.254 .0244659
1090.838 .0244514
1091.422 .0244372
1092.006 .0244243
1092.590 .0244132
1093.175 .0244059
1093.760 .0244013
1094.345 .0243986
1094.930 .0243976
1095.516 .0243972
1096.102 .0243993
1096.688 .0244030
1097.274 .0244085
1097.860 .0244169
1098.447 .0244277
1099.034 .0244407
1099.622 .0244547
1100.209 .0244698
1100.797 .0244841
1101.385 .0244978
1101.973 .0245099
1102.562 .0245212
1103.151 .0245306
1103.740 .0245397
1104.330 .0245498
1104.920 .0245612
1105.510 .0245749
1106.101 .0245880
1106.691 .0246008
1107.283 .0246123
1107.874 .0246229
1108.466 .0246304
1109.058 .0246350
1109.651 .0246391
1110.244 .0246435
1110.837 .0246469
1111.431 .0246491
1112.025 .0246504
1112.620 .0246533
1113.215 .0246548
1113.810 .0246580
1114.406 .0246648
1115.002 .0246762
1115.599 .0246915
1116.196 .0247104
1116.793 .0247311
1117.391 .0247546
1117.989 .0247759
1118.588 .0247958
1119.187 .0248127
1119.787 .0248280
1120.387 .0248417
1120.988 .0248562
1121.589 .0248770
1122.190 .0249027
1122.793 .0249318
1123.395 .0249662
1123.998 .0250017
1124.602 .0250358
1125.206 .0250650
1125.811 .0250886
1126.416 .0251085
1127.022 .0251221
1127.628 .0251288
1128.235 .0251313
1128.843 .0251336
1129.451 .0251401
1130.059 .0251492
1130.669 .0251651
1131.278 .0251919
1131.889 .0252260
1132.500 .0252706
1133.112 .0253224
1133.724 .0253828
1134.337 .0254475
1134.950 .0255125
1135.564 .0255766
1136.179 .0256431
1136.795 .0257144
1137.411 .0257932
1138.028 .0258802
1138.645 .0259823
1139.263 .0260958
1139.882 .0262144
1140.502 .0263359
1141.122 .0264550
1141.743 .0265862
1142.365 .0267087
1142.987 .0267374
1143.611 .0268625
1144.235 .0268965
1144.859 .0274974
1145.485 .0273081
