Measurement Sequence started on: 10-20-44-796
Integration time: 35
Scans to Average: 2 
>>>>>Begin Spectral Data<<<<<
432.953 .0367446
433.882 .0388912
434.810 .0385350
435.737 .0386781
436.662 .0370451
437.586 .0372101
438.509 .0370254
439.431 .0368196
440.351 .0366877
441.269 .0365955
442.187 .0365754
443.103 .0365750
444.018 .0365854
444.932 .0366072
445.844 .0366399
446.756 .0366778
447.666 .0367286
448.575 .0367865
449.482 .0368486
450.388 .0369094
451.294 .0369770
452.198 .0370317
453.100 .0370729
454.002 .0371042
454.902 .0371308
455.801 .0371414
456.699 .0371478
457.596 .0371373
458.492 .0371167
459.387 .0370887
460.280 .0370531
461.172 .0370063
462.064 .0369648
462.954 .0369186
463.843 .0368698
464.730 .0368188
465.617 .0367684
466.503 .0367080
467.387 .0366442
468.271 .0365764
469.153 .0365041
470.035 .0364273
470.915 .0363555
471.794 .0362839
472.673 .0362204
473.550 .0361606
474.426 .0361047
475.301 .0360519
476.175 .0360076
477.048 .0359592
477.920 .0359108
478.791 .0358655
479.661 .0358253
480.530 .0357876
481.398 .0357538
482.266 .0357280
483.132 .0357084
483.997 .0356968
484.861 .0356937
485.724 .0356964
486.587 .0357074
487.448 .0357208
488.308 .0357355
489.168 .0357459
490.026 .0357477
490.884 .0357352
491.741 .0357092
492.597 .0356720
493.452 .0356222
494.306 .0355640
495.159 .0355038
496.011 .0354457
496.862 .0353878
497.713 .0353277
498.562 .0352641
499.411 .0351929
500.259 .0351104
501.106 .0350154
501.952 .0349109
502.798 .0348015
503.642 .0346930
504.486 .0345901
505.329 .0344972
506.171 .0344162
507.012 .0343406
507.852 .0342674
508.692 .0341940
509.531 .0341146
510.369 .0340226
511.206 .0339207
512.043 .0338098
512.878 .0336866
513.713 .0335545
514.547 .0334162
515.381 .0332686
516.213 .0331146
517.045 .0329503
517.876 .0327702
518.706 .0325810
519.536 .0323900
520.365 .0321986
521.193 .0320159
522.020 .0318419
522.847 .0316718
523.673 .0315042
524.498 .0313421
525.323 .0311827
526.146 .0310241
526.969 .0308663
527.792 .0307079
528.614 .0305482
529.435 .0303943
530.255 .0302429
531.075 .0300945
531.894 .0299567
532.712 .0298249
533.530 .0296956
534.347 .0295704
535.163 .0294536
535.979 .0293599
536.794 .0292835
537.608 .0292283
538.422 .0291942
539.235 .0291761
540.048 .0291747
540.860 .0291887
541.671 .0292133
542.481 .0292503
543.292 .0292920
544.101 .0293380
544.910 .0293842
545.718 .0294363
546.526 .0294888
547.333 .0295385
548.139 .0295893
548.945 .0296342
549.750 .0296577
550.555 .0296761
551.359 .0296819
552.162 .0296821
552.965 .0296747
553.768 .0296642
554.569 .0296554
555.371 .0296552
556.171 .0296625
556.972 .0296818
557.771 .0297104
558.570 .0297517
559.369 .0297924
560.167 .0298363
560.964 .0298811
561.761 .0299227
562.558 .0299606
563.354 .0300034
564.149 .0300472
564.944 .0300994
565.738 .0301540
566.532 .0302145
567.325 .0302812
568.118 .0303487
568.910 .0304139
569.702 .0304758
570.494 .0305379
571.285 .0306001
572.075 .0306605
572.865 .0307260
573.654 .0307936
574.443 .0308632
575.232 .0309344
576.020 .0310033
576.807 .0310726
577.594 .0311381
578.381 .0311997
579.167 .0312601
579.952 .0313193
580.738 .0313774
581.522 .0314344
582.307 .0314888
583.091 .0315418
583.874 .0315891
584.657 .0316314
585.440 .0316688
586.222 .0317015
587.004 .0317304
587.785 .0317564
588.566 .0317786
589.346 .0317988
590.126 .0318145
590.906 .0318264
591.685 .0318333
592.464 .0318350
593.242 .0318325
594.020 .0318264
594.797 .0318195
595.575 .0318108
596.351 .0318018
597.128 .0317942
597.904 .0317862
598.679 .0317781
599.454 .0317683
600.229 .0317579
601.004 .0317466
601.778 .0317340
602.551 .0317209
603.325 .0317078
604.097 .0316959
604.870 .0316850
605.642 .0316752
606.414 .0316665
607.185 .0316579
607.956 .0316496
608.727 .0316418
609.497 .0316339
610.267 .0316247
611.037 .0316143
611.806 .0316021
612.575 .0315881
613.344 .0315720
614.112 .0315532
614.880 .0315335
615.647 .0315124
616.414 .0314907
617.181 .0314684
617.948 .0314457
618.714 .0314235
619.480 .0314014
620.245 .0313793
621.011 .0313567
621.775 .0313331
622.540 .0313098
623.304 .0312864
624.068 .0312636
624.832 .0312416
625.595 .0312211
626.358 .0312019
627.120 .0311836
627.883 .0311658
628.645 .0311484
629.406 .0311301
630.168 .0311111
630.929 .0310908
631.689 .0310686
632.450 .0310452
633.210 .0310209
633.970 .0309953
634.729 .0309699
635.489 .0309431
636.248 .0309153
637.006 .0308868
637.765 .0308584
638.523 .0308294
639.280 .0308011
640.038 .0307746
640.795 .0307490
641.552 .0307247
642.309 .0307023
643.065 .0306801
643.821 .0306582
644.577 .0306361
645.332 .0306130
646.088 .0305887
646.843 .0305639
647.597 .0305382
648.352 .0305123
649.106 .0304866
649.860 .0304611
650.613 .0304350
651.367 .0304093
652.120 .0303830
652.872 .0303557
653.625 .0303288
654.377 .0303018
655.129 .0302755
655.881 .0302501
656.632 .0302264
657.384 .0302038
658.135 .0301824
658.885 .0301619
659.636 .0301418
660.386 .0301223
661.136 .0301026
661.885 .0300833
662.635 .0300644
663.384 .0300464
664.133 .0300295
664.881 .0300129
665.630 .0299970
666.378 .0299812
667.126 .0299653
667.874 .0299480
668.621 .0299302
669.368 .0299117
670.115 .0298925
670.862 .0298728
671.608 .0298528
672.354 .0298338
673.100 .0298154
673.846 .0297986
674.591 .0297832
675.337 .0297695
676.082 .0297572
676.826 .0297454
677.571 .0297344
678.315 .0297235
679.059 .0297125
679.803 .0297013
680.547 .0296898
681.290 .0296781
682.033 .0296655
682.776 .0296524
683.518 .0296387
684.261 .0296246
685.003 .0296091
685.745 .0295923
686.487 .0295745
687.228 .0295563
687.969 .0295370
688.710 .0295170
689.451 .0294968
690.192 .0294764
690.932 .0294560
691.672 .0294354
692.412 .0294146
693.152 .0293943
693.891 .0293751
694.630 .0293571
695.369 .0293405
696.108 .0293259
696.846 .0293131
697.585 .0293015
698.323 .0292916
699.061 .0292822
699.798 .0292727
700.536 .0292632
701.273 .0292531
702.010 .0292424
702.746 .0292303
703.483 .0292179
704.219 .0292049
704.955 .0291914
705.691 .0291773
706.427 .0291620
707.162 .0291460
707.897 .0291295
708.632 .0291121
709.367 .0290938
710.101 .0290750
710.835 .0290565
711.569 .0290381
712.303 .0290198
713.037 .0290027
713.770 .0289872
714.503 .0289724
715.236 .0289590
715.969 .0289461
716.702 .0289330
717.434 .0289203
718.166 .0289068
718.898 .0288924
719.629 .0288771
720.361 .0288609
721.092 .0288435
721.823 .0288253
722.554 .0288071
723.284 .0287876
724.014 .0287674
724.744 .0287465
725.474 .0287236
726.204 .0286992
726.933 .0286741
727.662 .0286481
728.391 .0286217
729.120 .0285960
729.849 .0285708
730.577 .0285473
731.305 .0285256
732.033 .0285056
732.760 .0284867
733.488 .0284687
734.215 .0284511
734.942 .0284326
735.669 .0284132
736.395 .0283927
737.122 .0283708
737.848 .0283482
738.573 .0283248
739.299 .0283014
740.024 .0282784
740.750 .0282566
741.474 .0282356
742.199 .0282153
742.924 .0281952
743.648 .0281748
744.372 .0281541
745.096 .0281334
745.819 .0281128
746.543 .0280926
747.266 .0280736
747.989 .0280561
748.711 .0280408
749.434 .0280281
750.156 .0280177
750.878 .0280095
751.599 .0280030
752.321 .0279973
753.042 .0279922
753.763 .0279874
754.484 .0279827
755.205 .0279773
755.925 .0279718
756.645 .0279648
757.365 .0279567
758.085 .0279473
758.804 .0279369
759.523 .0279248
760.242 .0279114
760.961 .0278963
761.679 .0278794
762.397 .0278608
763.115 .0278403
763.833 .0278171
764.551 .0277915
765.268 .0277636
765.985 .0277335
766.702 .0277021
767.418 .0276707
768.134 .0276398
768.850 .0276108
769.566 .0275840
770.282 .0275597
770.997 .0275381
771.712 .0275190
772.427 .0275018
773.142 .0274857
773.856 .0274707
774.570 .0274560
775.284 .0274418
775.998 .0274280
776.711 .0274152
777.424 .0274034
778.137 .0273925
778.849 .0273820
779.562 .0273720
780.274 .0273618
780.986 .0273510
781.697 .0273393
782.409 .0273266
783.120 .0273126
783.831 .0272979
784.541 .0272826
785.252 .0272680
785.962 .0272536
786.671 .0272403
787.381 .0272281
788.090 .0272174
788.799 .0272077
789.508 .0271981
790.217 .0271891
790.925 .0271808
791.633 .0271723
792.341 .0271636
793.048 .0271543
793.755 .0271446
794.462 .0271341
795.169 .0271229
795.875 .0271107
796.581 .0270983
797.287 .0270855
797.993 .0270722
798.698 .0270588
799.403 .0270452
800.108 .0270316
800.812 .0270180
801.517 .0270047
802.221 .0269914
802.924 .0269784
803.628 .0269663
804.331 .0269557
805.034 .0269472
805.736 .0269404
806.439 .0269355
807.141 .0269323
807.843 .0269300
808.544 .0269276
809.245 .0269246
809.946 .0269206
810.647 .0269153
811.347 .0269087
812.047 .0269011
812.747 .0268927
813.447 .0268845
814.146 .0268766
814.845 .0268689
815.543 .0268614
816.242 .0268535
816.940 .0268453
817.638 .0268363
818.335 .0268265
819.032 .0268157
819.729 .0268045
820.426 .0267930
821.122 .0267812
821.818 .0267696
822.514 .0267585
823.209 .0267481
823.905 .0267382
824.599 .0267286
825.294 .0267188
825.988 .0267086
826.682 .0266979
827.376 .0266859
828.069 .0266734
828.762 .0266598
829.455 .0266456
830.147 .0266310
830.840 .0266164
831.531 .0266027
832.223 .0265901
832.914 .0265786
833.605 .0265681
834.296 .0265584
834.986 .0265494
835.676 .0265406
836.366 .0265322
837.055 .0265239
837.744 .0265155
838.433 .0265070
839.121 .0264984
839.809 .0264898
840.497 .0264821
841.185 .0264754
841.872 .0264698
842.559 .0264655
843.245 .0264618
843.932 .0264585
844.617 .0264551
845.303 .0264511
845.988 .0264463
846.673 .0264401
847.358 .0264330
848.042 .0264252
848.726 .0264170
849.410 .0264090
850.093 .0264010
850.776 .0263936
851.459 .0263859
852.141 .0263770
852.823 .0263664
853.505 .0263541
854.186 .0263398
854.867 .0263243
855.548 .0263080
856.228 .0262927
856.908 .0262790
857.588 .0262672
858.267 .0262573
858.946 .0262493
859.625 .0262425
860.303 .0262360
860.981 .0262293
861.659 .0262217
862.336 .0262134
863.013 .0262048
863.690 .0261960
864.366 .0261875
865.042 .0261797
865.718 .0261726
866.393 .0261658
867.068 .0261591
867.743 .0261518
868.417 .0261436
869.091 .0261344
869.765 .0261241
870.438 .0261125
871.111 .0260995
871.783 .0260854
872.456 .0260707
873.127 .0260554
873.799 .0260394
874.470 .0260237
875.141 .0260083
875.811 .0259935
876.481 .0259794
877.151 .0259656
877.820 .0259522
878.489 .0259391
879.158 .0259257
879.826 .0259117
880.494 .0258972
881.162 .0258826
881.829 .0258677
882.496 .0258533
883.163 .0258397
883.829 .0258271
884.495 .0258155
885.160 .0258055
885.825 .0257962
886.490 .0257876
887.154 .0257795
887.818 .0257718
888.482 .0257648
889.145 .0257583
889.808 .0257526
890.471 .0257474
891.133 .0257429
891.795 .0257391
892.456 .0257356
893.117 .0257330
893.778 .0257307
894.439 .0257283
895.099 .0257260
895.758 .0257239
896.417 .0257217
897.076 .0257194
897.735 .0257171
898.393 .0257147
899.051 .0257122
899.708 .0257089
900.365 .0257046
901.022 .0256994
901.678 .0256934
902.334 .0256863
902.990 .0256781
903.645 .0256693
904.300 .0256598
904.954 .0256495
905.608 .0256387
906.262 .0256271
906.915 .0256155
907.568 .0256032
908.221 .0255908
908.873 .0255775
909.525 .0255636
910.176 .0255489
910.828 .0255337
911.478 .0255180
912.129 .0255012
912.778 .0254833
913.428 .0254648
914.077 .0254456
914.726 .0254264
915.375 .0254073
916.023 .0253896
916.670 .0253732
917.318 .0253584
917.964 .0253445
918.611 .0253319
919.257 .0253204
919.903 .0253092
920.548 .0252978
921.193 .0252860
921.838 .0252739
922.482 .0252615
923.126 .0252490
923.770 .0252374
924.413 .0252262
925.056 .0252155
925.698 .0252049
926.340 .0251945
926.982 .0251835
927.623 .0251716
928.264 .0251584
928.904 .0251441
929.544 .0251285
930.184 .0251118
930.823 .0250945
931.462 .0250774
932.101 .0250608
932.739 .0250449
933.377 .0250291
934.014 .0250139
934.651 .0249990
935.288 .0249846
935.924 .0249706
936.560 .0249573
937.196 .0249441
937.831 .0249312
938.466 .0249182
939.100 .0249052
939.734 .0248914
940.368 .0248772
941.001 .0248618
941.634 .0248452
942.266 .0248277
942.899 .0248091
943.530 .0247896
944.162 .0247701
944.793 .0247500
945.423 .0247293
946.053 .0247076
946.683 .0246851
947.313 .0246614
947.942 .0246366
948.571 .0246100
949.199 .0245825
949.827 .0245542
950.455 .0245258
951.082 .0244975
951.709 .0244706
952.335 .0244455
952.961 .0244216
953.587 .0243988
954.212 .0243770
954.837 .0243563
955.462 .0243360
956.086 .0243164
956.710 .0242974
957.334 .0242794
957.957 .0242622
958.579 .0242462
959.202 .0242316
959.824 .0242179
960.445 .0242046
961.067 .0241918
961.688 .0241796
962.308 .0241670
962.928 .0241541
963.548 .0241415
964.168 .0241287
964.787 .0241160
965.406 .0241027
966.024 .0240896
966.642 .0240762
967.260 .0240628
967.877 .0240486
968.494 .0240342
969.110 .0240198
969.727 .0240050
970.342 .0239900
970.958 .0239757
971.573 .0239617
972.188 .0239482
972.802 .0239360
973.416 .0239252
974.030 .0239149
974.643 .0239057
975.256 .0238972
975.869 .0238892
976.481 .0238821
977.093 .0238757
977.705 .0238702
978.316 .0238661
978.927 .0238632
979.538 .0238605
980.148 .0238589
980.758 .0238576
981.367 .0238559
981.977 .0238537
982.586 .0238507
983.194 .0238461
983.802 .0238404
984.410 .0238336
985.018 .0238261
985.625 .0238185
986.232 .0238106
986.838 .0238026
987.445 .0237947
988.050 .0237862
988.656 .0237775
989.261 .0237682
989.866 .0237577
990.471 .0237460
991.075 .0237340
991.679 .0237214
992.282 .0237087
992.886 .0236967
993.489 .0236853
994.091 .0236746
994.694 .0236649
995.296 .0236558
995.897 .0236471
996.499 .0236392
997.100 .0236314
997.701 .0236238
998.301 .0236170
998.901 .0236113
999.501 .0236068
1000.101 .0236040
1000.700 .0236032
1001.299 .0236041
1001.898 .0236066
1002.496 .0236108
1003.094 .0236159
1003.692 .0236216
1004.289 .0236267
1004.887 .0236317
1005.484 .0236365
1006.080 .0236410
1006.677 .0236452
1007.273 .0236501
1007.868 .0236548
1008.464 .0236603
1009.059 .0236651
1009.654 .0236695
1010.249 .0236729
1010.843 .0236757
1011.437 .0236771
1012.031 .0236777
1012.625 .0236782
1013.218 .0236786
1013.811 .0236792
1014.404 .0236810
1014.997 .0236826
1015.589 .0236845
1016.181 .0236863
1016.773 .0236880
1017.365 .0236890
1017.956 .0236894
1018.547 .0236892
1019.138 .0236896
1019.728 .0236904
1020.319 .0236917
1020.909 .0236933
1021.499 .0236951
1022.088 .0236975
1022.678 .0236989
1023.267 .0236999
1023.856 .0237004
1024.445 .0237008
1025.033 .0237016
1025.621 .0237023
1026.209 .0237038
1026.797 .0237049
1027.385 .0237061
1027.972 .0237071
1028.560 .0237074
1029.147 .0237074
1029.734 .0237076
1030.320 .0237089
1030.907 .0237113
1031.493 .0237149
1032.079 .0237203
1032.665 .0237274
1033.250 .0237358
1033.836 .0237442
1034.421 .0237525
1035.006 .0237604
1035.591 .0237681
1036.176 .0237745
1036.761 .0237806
1037.345 .0237869
1037.929 .0237944
1038.514 .0238026
1039.097 .0238116
1039.681 .0238216
1040.265 .0238322
1040.848 .0238422
1041.432 .0238509
1042.015 .0238567
1042.598 .0238591
1043.181 .0238579
1043.764 .0238544
1044.346 .0238486
1044.929 .0238419
1045.511 .0238358
1046.094 .0238310
1046.676 .0238277
1047.258 .0238257
1047.840 .0238236
1048.422 .0238215
1049.003 .0238184
1049.585 .0238131
1050.166 .0238050
1050.748 .0237954
1051.329 .0237861
1051.910 .0237773
1052.491 .0237708
1053.072 .0237669
1053.653 .0237657
1054.234 .0237677
1054.815 .0237716
1055.396 .0237772
1055.976 .0237841
1056.557 .0237920
1057.138 .0238018
1057.718 .0238135
1058.298 .0238267
1058.879 .0238413
1059.459 .0238569
1060.039 .0238731
1060.620 .0238879
1061.200 .0238997
1061.780 .0239092
1062.360 .0239151
1062.940 .0239202
1063.520 .0239245
1064.101 .0239283
1064.681 .0239336
1065.261 .0239388
1065.841 .0239440
1066.421 .0239479
1067.001 .0239486
1067.581 .0239465
1068.161 .0239416
1068.741 .0239349
1069.321 .0239271
1069.901 .0239199
1070.482 .0239156
1071.062 .0239152
1071.642 .0239187
1072.222 .0239242
1072.803 .0239285
1073.383 .0239323
1073.963 .0239338
1074.544 .0239319
1075.124 .0239278
1075.705 .0239223
1076.286 .0239173
1076.866 .0239144
1077.447 .0239117
1078.028 .0239112
1078.609 .0239127
1079.190 .0239160
1079.771 .0239188
1080.352 .0239205
1080.934 .0239205
1081.515 .0239199
1082.097 .0239197
1082.679 .0239206
1083.260 .0239214
1083.842 .0239251
1084.424 .0239294
1085.007 .0239347
1085.589 .0239397
1086.172 .0239436
1086.754 .0239457
1087.337 .0239471
1087.920 .0239467
1088.503 .0239437
1089.087 .0239383
1089.670 .0239340
1090.254 .0239296
1090.838 .0239271
1091.422 .0239250
1092.006 .0239240
1092.590 .0239232
1093.175 .0239235
1093.760 .0239229
1094.345 .0239215
1094.930 .0239179
1095.516 .0239129
1096.102 .0239046
1096.688 .0238942
1097.274 .0238821
1097.860 .0238686
1098.447 .0238542
1099.034 .0238409
1099.622 .0238279
1100.209 .0238167
1100.797 .0238069
1101.385 .0237993
1101.973 .0237927
1102.562 .0237884
1103.151 .0237857
1103.740 .0237840
1104.330 .0237860
1104.920 .0237911
1105.510 .0237993
1106.101 .0238115
1106.691 .0238253
1107.283 .0238403
1107.874 .0238543
1108.466 .0238655
1109.058 .0238725
1109.651 .0238760
1110.244 .0238765
1110.837 .0238748
1111.431 .0238758
1112.025 .0238792
1112.620 .0238852
1113.215 .0238919
1113.810 .0238969
1114.406 .0238971
1115.002 .0238903
1115.599 .0238748
1116.196 .0238492
1116.793 .0238182
1117.391 .0237821
1117.989 .0237430
1118.588 .0237097
1119.187 .0236808
1119.787 .0236574
1120.387 .0236375
1120.988 .0236197
1121.589 .0236001
1122.190 .0235816
1122.793 .0235638
1123.395 .0235486
1123.998 .0235394
1124.602 .0235382
1125.206 .0235463
1125.811 .0235684
1126.416 .0236048
1127.022 .0236500
1127.628 .0237030
1128.235 .0237631
1128.843 .0238193
1129.451 .0238779
1130.059 .0239331
1130.669 .0239871
1131.278 .0240406
1131.889 .0240941
1132.500 .0241485
1133.112 .0242053
1133.724 .0242657
1134.337 .0243283
1134.950 .0243919
1135.564 .0244607
1136.179 .0245256
1136.795 .0245941
1137.411 .0246641
1138.028 .0247368
1138.645 .0248149
1139.263 .0248958
1139.882 .0249784
1140.502 .0250637
1141.122 .0251485
1141.743 .0252364
1142.365 .0253153
1142.987 .0253899
1143.611 .0254687
1144.235 .0255284
1144.859 .0257324
1145.485 .0255648
