Measurement Sequence started on: 10-20-44-796
Integration time: 35
Scans to Average: 2 
>>>>>Begin Spectral Data<<<<<
432.953 .0341765
433.882 .0395658
434.810 .0356687
435.737 .0357767
436.662 .0360831
437.586 .0353755
438.509 .0351115
439.431 .0347538
440.351 .0345557
441.269 .0343950
442.187 .0342613
443.103 .0341520
444.018 .0340823
444.932 .0339857
445.844 .0338549
446.756 .0337086
447.666 .0335594
448.575 .0334027
449.482 .0332513
450.388 .0331244
451.294 .0330110
452.198 .0329059
453.100 .0328078
454.002 .0327106
454.902 .0326058
455.801 .0325000
456.699 .0323881
457.596 .0322967
458.492 .0322101
459.387 .0321338
460.280 .0320719
461.172 .0320232
462.064 .0319876
462.954 .0319579
463.843 .0319316
464.730 .0319145
465.617 .0318948
466.503 .0318755
467.387 .0318561
468.271 .0318382
469.153 .0318211
470.035 .0318088
470.915 .0317978
471.794 .0317933
472.673 .0317877
473.550 .0317886
474.426 .0317886
475.301 .0317871
476.175 .0317844
477.048 .0317764
477.920 .0317736
478.791 .0317729
479.661 .0317736
480.530 .0317814
481.398 .0317921
482.266 .0318073
483.132 .0318236
483.997 .0318401
484.861 .0318540
485.724 .0318698
486.587 .0318831
487.448 .0318916
488.308 .0318978
489.168 .0319029
490.026 .0319043
490.884 .0319000
491.741 .0318898
492.597 .0318656
493.452 .0318298
494.306 .0317826
495.159 .0317218
496.011 .0316543
496.862 .0315799
497.713 .0315006
498.562 .0314152
499.411 .0313250
500.259 .0312263
501.106 .0311207
501.952 .0310147
502.798 .0309094
503.642 .0308069
504.486 .0307135
505.329 .0306271
506.171 .0305489
507.012 .0304800
507.852 .0304159
508.692 .0303472
509.531 .0302715
510.369 .0301836
511.206 .0300791
512.043 .0299613
512.878 .0298333
513.713 .0296970
514.547 .0295570
515.381 .0294161
516.213 .0292702
517.045 .0291197
517.876 .0289635
518.706 .0287964
519.536 .0286191
520.365 .0284359
521.193 .0282401
522.020 .0280434
522.847 .0278497
523.673 .0276613
524.498 .0274752
525.323 .0273035
526.146 .0271374
526.969 .0269866
527.792 .0268477
528.614 .0267178
529.435 .0265965
530.255 .0264871
531.075 .0263747
531.894 .0262695
532.712 .0261745
533.530 .0260871
534.347 .0259997
535.163 .0259180
535.979 .0258398
536.794 .0257744
537.608 .0257138
538.422 .0256701
539.235 .0256335
540.048 .0256132
540.860 .0256004
541.671 .0255918
542.481 .0255916
543.292 .0255888
544.101 .0255813
544.910 .0255619
545.718 .0255333
546.526 .0254995
547.333 .0254637
548.139 .0254433
548.945 .0254409
549.750 .0254533
550.555 .0254844
551.359 .0255352
552.162 .0256020
552.965 .0256816
553.768 .0257631
554.569 .0258425
555.371 .0259261
556.171 .0260076
556.972 .0260912
557.771 .0261742
558.570 .0262648
559.369 .0263617
560.167 .0264620
560.964 .0265657
561.761 .0266651
562.558 .0267666
563.354 .0268686
564.149 .0269672
564.944 .0270599
565.738 .0271510
566.532 .0272403
567.325 .0273287
568.118 .0274124
568.910 .0274902
569.702 .0275670
570.494 .0276447
571.285 .0277185
572.075 .0277916
572.865 .0278620
573.654 .0279323
574.443 .0279958
575.232 .0280547
576.020 .0281051
576.807 .0281501
577.594 .0281891
578.381 .0282256
579.167 .0282587
579.952 .0282939
580.738 .0283315
581.522 .0283725
582.307 .0284152
583.091 .0284617
583.874 .0285091
584.657 .0285570
585.440 .0286061
586.222 .0286519
587.004 .0286950
587.785 .0287376
588.566 .0287785
589.346 .0288164
590.126 .0288514
590.906 .0288824
591.685 .0289096
592.464 .0289327
593.242 .0289516
594.020 .0289646
594.797 .0289768
595.575 .0289860
596.351 .0289938
597.128 .0290009
597.904 .0290081
598.679 .0290155
599.454 .0290233
600.229 .0290300
601.004 .0290353
601.778 .0290377
602.551 .0290383
603.325 .0290352
604.097 .0290294
604.870 .0290213
605.642 .0290122
606.414 .0290024
607.185 .0289926
607.956 .0289826
608.727 .0289726
609.497 .0289612
610.267 .0289481
611.037 .0289331
611.806 .0289159
612.575 .0288972
613.344 .0288781
614.112 .0288598
614.880 .0288429
615.647 .0288275
616.414 .0288142
617.181 .0288032
617.948 .0287938
618.714 .0287847
619.480 .0287748
620.245 .0287648
621.011 .0287532
621.775 .0287406
622.540 .0287275
623.304 .0287147
624.068 .0287019
624.832 .0286894
625.595 .0286774
626.358 .0286652
627.120 .0286531
627.883 .0286400
628.645 .0286255
629.406 .0286101
630.168 .0285933
630.929 .0285751
631.689 .0285562
632.450 .0285363
633.210 .0285160
633.970 .0284955
634.729 .0284751
635.489 .0284545
636.248 .0284334
637.006 .0284128
637.765 .0283912
638.523 .0283681
639.280 .0283438
640.038 .0283175
640.795 .0282904
641.552 .0282629
642.309 .0282348
643.065 .0282074
643.821 .0281804
644.577 .0281547
645.332 .0281297
646.088 .0281057
646.843 .0280823
647.597 .0280592
648.352 .0280365
649.106 .0280146
649.860 .0279923
650.613 .0279713
651.367 .0279525
652.120 .0279351
652.872 .0279192
653.625 .0279049
654.377 .0278926
655.129 .0278833
655.881 .0278758
656.632 .0278700
657.384 .0278655
658.135 .0278629
658.885 .0278608
659.636 .0278580
660.386 .0278549
661.136 .0278504
661.885 .0278447
662.635 .0278382
663.384 .0278306
664.133 .0278225
664.881 .0278146
665.630 .0278068
666.378 .0277989
667.126 .0277909
667.874 .0277819
668.621 .0277714
669.368 .0277597
670.115 .0277461
670.862 .0277309
671.608 .0277154
672.354 .0277007
673.100 .0276864
673.846 .0276730
674.591 .0276599
675.337 .0276472
676.082 .0276352
676.826 .0276227
677.571 .0276102
678.315 .0275972
679.059 .0275841
679.803 .0275699
680.547 .0275555
681.290 .0275406
682.033 .0275249
682.776 .0275087
683.518 .0274913
684.261 .0274724
685.003 .0274530
685.745 .0274332
686.487 .0274149
687.228 .0273981
687.969 .0273830
688.710 .0273687
689.451 .0273557
690.192 .0273428
690.932 .0273304
691.672 .0273180
692.412 .0273059
693.152 .0272936
693.891 .0272820
694.630 .0272711
695.369 .0272614
696.108 .0272533
696.846 .0272467
697.585 .0272405
698.323 .0272351
699.061 .0272288
699.798 .0272220
700.536 .0272146
701.273 .0272067
702.010 .0271983
702.746 .0271889
703.483 .0271788
704.219 .0271686
704.955 .0271578
705.691 .0271475
706.427 .0271373
707.162 .0271280
707.897 .0271185
708.632 .0271087
709.367 .0270984
710.101 .0270869
710.835 .0270745
711.569 .0270600
712.303 .0270432
713.037 .0270249
713.770 .0270050
714.503 .0269843
715.236 .0269636
715.969 .0269434
716.702 .0269237
717.434 .0269053
718.166 .0268877
718.898 .0268706
719.629 .0268540
720.361 .0268377
721.092 .0268214
721.823 .0268052
722.554 .0267895
723.284 .0267738
724.014 .0267586
724.744 .0267433
725.474 .0267265
726.204 .0267093
726.933 .0266902
727.662 .0266696
728.391 .0266469
729.120 .0266223
729.849 .0265964
730.577 .0265692
731.305 .0265415
732.033 .0265140
732.760 .0264868
733.488 .0264604
734.215 .0264343
734.942 .0264092
735.669 .0263840
736.395 .0263598
737.122 .0263367
737.848 .0263151
738.573 .0262950
739.299 .0262772
740.024 .0262614
740.750 .0262476
741.474 .0262350
742.199 .0262226
742.924 .0262099
743.648 .0261964
744.372 .0261813
745.096 .0261656
745.819 .0261493
746.543 .0261331
747.266 .0261172
747.989 .0261027
748.711 .0260893
749.434 .0260773
750.156 .0260671
750.878 .0260584
751.599 .0260510
752.321 .0260449
753.042 .0260403
753.763 .0260372
754.484 .0260350
755.205 .0260328
755.925 .0260301
756.645 .0260271
757.365 .0260227
758.085 .0260174
758.804 .0260111
759.523 .0260049
760.242 .0259982
760.961 .0259908
761.679 .0259827
762.397 .0259736
763.115 .0259623
763.833 .0259487
764.551 .0259319
765.268 .0259125
765.985 .0258909
766.702 .0258685
767.418 .0258464
768.134 .0258259
768.850 .0258072
769.566 .0257902
770.282 .0257747
770.997 .0257602
771.712 .0257450
772.427 .0257298
773.142 .0257150
773.856 .0257001
774.570 .0256858
775.284 .0256729
775.998 .0256620
776.711 .0256530
777.424 .0256461
778.137 .0256403
778.849 .0256347
779.562 .0256291
780.274 .0256225
780.986 .0256148
781.697 .0256076
782.409 .0256009
783.120 .0255955
783.831 .0255919
784.541 .0255904
785.252 .0255900
785.962 .0255908
786.671 .0255914
787.381 .0255908
788.090 .0255883
788.799 .0255843
789.508 .0255782
790.217 .0255715
790.925 .0255647
791.633 .0255582
792.341 .0255530
793.048 .0255489
793.755 .0255452
794.462 .0255410
795.169 .0255362
795.875 .0255303
796.581 .0255223
797.287 .0255133
797.993 .0255036
798.698 .0254939
799.403 .0254855
800.108 .0254782
800.812 .0254714
801.517 .0254654
802.221 .0254591
802.924 .0254516
803.628 .0254429
804.331 .0254331
805.034 .0254223
805.736 .0254108
806.439 .0253997
807.141 .0253886
807.843 .0253781
808.544 .0253687
809.245 .0253587
809.946 .0253487
810.647 .0253383
811.347 .0253270
812.047 .0253154
812.747 .0253040
813.447 .0252936
814.146 .0252842
814.845 .0252766
815.543 .0252705
816.242 .0252656
816.940 .0252617
817.638 .0252579
818.335 .0252532
819.032 .0252474
819.729 .0252401
820.426 .0252309
821.122 .0252201
821.818 .0252073
822.514 .0251934
823.209 .0251786
823.905 .0251634
824.599 .0251480
825.294 .0251322
825.988 .0251164
826.682 .0251007
827.376 .0250843
828.069 .0250672
828.762 .0250485
829.455 .0250283
830.147 .0250065
830.840 .0249837
831.531 .0249600
832.223 .0249367
832.914 .0249144
833.605 .0248936
834.296 .0248745
834.986 .0248575
835.676 .0248422
836.366 .0248286
837.055 .0248158
837.744 .0248033
838.433 .0247905
839.121 .0247770
839.809 .0247631
840.497 .0247484
841.185 .0247335
841.872 .0247188
842.559 .0247041
843.245 .0246897
843.932 .0246752
844.617 .0246610
845.303 .0246463
845.988 .0246310
846.673 .0246148
847.358 .0245979
848.042 .0245803
848.726 .0245625
849.410 .0245444
850.093 .0245267
850.776 .0245099
851.459 .0244943
852.141 .0244799
852.823 .0244669
853.505 .0244549
854.186 .0244440
854.867 .0244337
855.548 .0244238
856.228 .0244139
856.908 .0244044
857.588 .0243950
858.267 .0243856
858.946 .0243757
859.625 .0243658
860.303 .0243558
860.981 .0243456
861.659 .0243351
862.336 .0243240
863.013 .0243120
863.690 .0242997
864.366 .0242867
865.042 .0242734
865.718 .0242601
866.393 .0242469
867.068 .0242337
867.743 .0242209
868.417 .0242085
869.091 .0241965
869.765 .0241847
870.438 .0241737
871.111 .0241624
871.783 .0241510
872.456 .0241392
873.127 .0241266
873.799 .0241142
874.470 .0241016
875.141 .0240885
875.811 .0240755
876.481 .0240623
877.151 .0240501
877.820 .0240386
878.489 .0240283
879.158 .0240191
879.826 .0240108
880.494 .0240032
881.162 .0239957
881.829 .0239881
882.496 .0239803
883.163 .0239715
883.829 .0239629
884.495 .0239542
885.160 .0239460
885.825 .0239387
886.490 .0239337
887.154 .0239309
887.818 .0239300
888.482 .0239299
889.145 .0239307
889.808 .0239313
890.471 .0239311
891.133 .0239293
891.795 .0239258
892.456 .0239213
893.117 .0239158
893.778 .0239096
894.439 .0239041
895.099 .0238988
895.758 .0238944
896.417 .0238900
897.076 .0238860
897.735 .0238817
898.393 .0238768
899.051 .0238714
899.708 .0238654
900.365 .0238591
901.022 .0238530
901.678 .0238477
902.334 .0238438
902.990 .0238412
903.645 .0238404
904.300 .0238412
904.954 .0238429
905.608 .0238453
906.262 .0238475
906.915 .0238494
907.568 .0238505
908.221 .0238504
908.873 .0238491
909.525 .0238476
910.176 .0238460
910.828 .0238442
911.478 .0238426
912.129 .0238409
912.778 .0238389
913.428 .0238371
914.077 .0238346
914.726 .0238312
915.375 .0238272
916.023 .0238232
916.670 .0238193
917.318 .0238161
917.964 .0238139
918.611 .0238129
919.257 .0238139
919.903 .0238163
920.548 .0238193
921.193 .0238233
921.838 .0238289
922.482 .0238348
923.126 .0238409
923.770 .0238475
924.413 .0238530
925.056 .0238580
925.698 .0238622
926.340 .0238645
926.982 .0238657
927.623 .0238661
928.264 .0238657
928.904 .0238642
929.544 .0238631
930.184 .0238614
930.823 .0238586
931.462 .0238556
932.101 .0238510
932.739 .0238437
933.377 .0238346
934.014 .0238237
934.651 .0238119
935.288 .0238009
935.924 .0237910
936.560 .0237824
937.196 .0237766
937.831 .0237724
938.466 .0237689
939.100 .0237656
939.734 .0237622
940.368 .0237566
941.001 .0237492
941.634 .0237401
942.266 .0237293
942.899 .0237174
943.530 .0237052
944.162 .0236924
944.793 .0236800
945.423 .0236664
946.053 .0236514
946.683 .0236356
947.313 .0236185
947.942 .0235997
948.571 .0235800
949.199 .0235593
949.827 .0235384
950.455 .0235170
951.082 .0234959
951.709 .0234750
952.335 .0234551
952.961 .0234356
953.587 .0234164
954.212 .0233988
954.837 .0233820
955.462 .0233667
956.086 .0233531
956.710 .0233407
957.334 .0233294
957.957 .0233190
958.579 .0233097
959.202 .0233008
959.824 .0232928
960.445 .0232847
961.067 .0232767
961.688 .0232694
962.308 .0232611
962.928 .0232526
963.548 .0232434
964.168 .0232332
964.787 .0232214
965.406 .0232089
966.024 .0231955
966.642 .0231814
967.260 .0231676
967.877 .0231532
968.494 .0231380
969.110 .0231223
969.727 .0231053
970.342 .0230875
970.958 .0230696
971.573 .0230526
972.188 .0230365
972.802 .0230239
973.416 .0230138
974.030 .0230066
974.643 .0230021
975.256 .0229993
975.869 .0229963
976.481 .0229920
977.093 .0229858
977.705 .0229775
978.316 .0229679
978.927 .0229578
979.538 .0229474
980.148 .0229381
980.758 .0229292
981.367 .0229208
981.977 .0229126
982.586 .0229045
983.194 .0228954
983.802 .0228849
984.410 .0228729
985.018 .0228597
985.625 .0228455
986.232 .0228314
986.838 .0228180
987.445 .0228053
988.050 .0227935
988.656 .0227826
989.261 .0227724
989.866 .0227626
990.471 .0227531
991.075 .0227437
991.679 .0227335
992.282 .0227228
992.886 .0227108
993.489 .0226978
994.091 .0226838
994.694 .0226683
995.296 .0226519
995.897 .0226348
996.499 .0226180
997.100 .0226019
997.701 .0225874
998.301 .0225755
998.901 .0225657
999.501 .0225580
1000.101 .0225519
1000.700 .0225467
1001.299 .0225414
1001.898 .0225357
1002.496 .0225296
1003.094 .0225223
1003.692 .0225146
1004.289 .0225069
1004.887 .0225008
1005.484 .0224956
1006.080 .0224921
1006.677 .0224894
1007.273 .0224870
1007.868 .0224842
1008.464 .0224801
1009.059 .0224749
1009.654 .0224693
1010.249 .0224629
1010.843 .0224568
1011.437 .0224513
1012.031 .0224475
1012.625 .0224438
1013.218 .0224411
1013.811 .0224385
1014.404 .0224363
1014.997 .0224333
1015.589 .0224300
1016.181 .0224268
1016.773 .0224238
1017.365 .0224207
1017.956 .0224176
1018.547 .0224136
1019.138 .0224092
1019.728 .0224030
1020.319 .0223957
1020.909 .0223873
1021.499 .0223785
1022.088 .0223693
1022.678 .0223595
1023.267 .0223497
1023.856 .0223407
1024.445 .0223313
1025.033 .0223224
1025.621 .0223148
1026.209 .0223078
1026.797 .0223019
1027.385 .0222971
1027.972 .0222941
1028.560 .0222925
1029.147 .0222914
1029.734 .0222915
1030.320 .0222914
1030.907 .0222909
1031.493 .0222903
1032.079 .0222888
1032.665 .0222886
1033.250 .0222882
1033.836 .0222878
1034.421 .0222874
1035.006 .0222877
1035.591 .0222866
1036.176 .0222843
1036.761 .0222800
1037.345 .0222746
1037.929 .0222663
1038.514 .0222575
1039.097 .0222480
1039.681 .0222390
1040.265 .0222307
1040.848 .0222252
1041.432 .0222215
1042.015 .0222214
1042.598 .0222241
1043.181 .0222313
1043.764 .0222408
1044.346 .0222534
1044.929 .0222657
1045.511 .0222790
1046.094 .0222920
1046.676 .0223041
1047.258 .0223131
1047.840 .0223218
1048.422 .0223284
1049.003 .0223333
1049.585 .0223365
1050.166 .0223397
1050.748 .0223418
1051.329 .0223427
1051.910 .0223415
1052.491 .0223389
1053.072 .0223350
1053.653 .0223310
1054.234 .0223258
1054.815 .0223228
1055.396 .0223209
1055.976 .0223203
1056.557 .0223207
1057.138 .0223220
1057.718 .0223241
1058.298 .0223277
1058.879 .0223315
1059.459 .0223357
1060.039 .0223401
1060.620 .0223432
1061.200 .0223458
1061.780 .0223465
1062.360 .0223451
1062.940 .0223393
1063.520 .0223307
1064.101 .0223194
1064.681 .0223049
1065.261 .0222903
1065.841 .0222758
1066.421 .0222650
1067.001 .0222578
1067.581 .0222520
1068.161 .0222481
1068.741 .0222466
1069.321 .0222462
1069.901 .0222457
1070.482 .0222462
1071.062 .0222457
1071.642 .0222463
1072.222 .0222480
1072.803 .0222511
1073.383 .0222561
1073.963 .0222643
1074.544 .0222749
1075.124 .0222846
1075.705 .0222953
1076.286 .0223039
1076.866 .0223107
1077.447 .0223159
1078.028 .0223168
1078.609 .0223147
1079.190 .0223111
1079.771 .0223061
1080.352 .0223010
1080.934 .0222987
1081.515 .0223001
1082.097 .0223045
1082.679 .0223125
1083.260 .0223241
1083.842 .0223394
1084.424 .0223559
1085.007 .0223731
1085.589 .0223886
1086.172 .0224033
1086.754 .0224160
1087.337 .0224270
1087.920 .0224370
1088.503 .0224450
1089.087 .0224506
1089.670 .0224544
1090.254 .0224545
1090.838 .0224532
1091.422 .0224484
1092.006 .0224410
1092.590 .0224317
1093.175 .0224186
1093.760 .0224031
1094.345 .0223882
1094.930 .0223753
1095.516 .0223644
1096.102 .0223566
1096.688 .0223561
1097.274 .0223615
1097.860 .0223724
1098.447 .0223905
1099.034 .0224128
1099.622 .0224378
1100.209 .0224659
1100.797 .0224917
1101.385 .0225165
1101.973 .0225425
1102.562 .0225664
1103.151 .0225908
1103.740 .0226145
1104.330 .0226405
1104.920 .0226656
1105.510 .0226911
1106.101 .0227160
1106.691 .0227347
1107.283 .0227491
1107.874 .0227570
1108.466 .0227555
1109.058 .0227477
1109.651 .0227343
1110.244 .0227173
1110.837 .0226993
1111.431 .0226805
1112.025 .0226614
1112.620 .0226418
1113.215 .0226206
1113.810 .0225948
1114.406 .0225627
1115.002 .0225282
1115.599 .0224900
1116.196 .0224477
1116.793 .0224080
1117.391 .0223719
1117.989 .0223431
1118.588 .0223242
1119.187 .0223150
1119.787 .0223129
1120.387 .0223163
1120.988 .0223208
1121.589 .0223233
1122.190 .0223262
1122.793 .0223301
1123.395 .0223344
1123.998 .0223462
1124.602 .0223681
1125.206 .0223960
1125.811 .0224325
1126.416 .0224768
1127.022 .0225225
1127.628 .0225660
1128.235 .0226083
1128.843 .0226448
1129.451 .0226807
1130.059 .0227160
1130.669 .0227512
1131.278 .0227933
1131.889 .0228412
1132.500 .0228909
1133.112 .0229489
1133.724 .0230108
1134.337 .0230760
1134.950 .0231361
1135.564 .0231951
1136.179 .0232504
1136.795 .0233028
1137.411 .0233492
1138.028 .0233936
1138.645 .0234405
1139.263 .0234935
1139.882 .0235414
1140.502 .0235981
1141.122 .0236453
1141.743 .0236922
1142.365 .0237254
1142.987 .0237305
1143.611 .0239521
1144.235 .0236506
1144.859 .0238069
1145.485 .0236906
