Measurement Sequence started on: 10-20-44-796
Integration time: 35
Scans to Average: 2 
>>>>>Begin Spectral Data<<<<<
432.953 .0326349
433.882 .0344600
434.810 .0380937
435.737 .0390108
436.662 .0397064
437.586 .0387491
438.509 .0391708
439.431 .0394367
440.351 .0395519
441.269 .0396507
442.187 .0397257
443.103 .0397886
444.018 .0398471
444.932 .0398879
445.844 .0398826
446.756 .0398694
447.666 .0398599
448.575 .0398566
449.482 .0398726
450.388 .0399125
451.294 .0399414
452.198 .0399767
453.100 .0400054
454.002 .0400176
454.902 .0400111
455.801 .0399945
456.699 .0399622
457.596 .0399231
458.492 .0398793
459.387 .0398148
460.280 .0397451
461.172 .0396729
462.064 .0395862
462.954 .0394873
463.843 .0393882
464.730 .0392922
465.617 .0391997
466.503 .0391136
467.387 .0390321
468.271 .0389491
469.153 .0388672
470.035 .0387790
470.915 .0386852
471.794 .0385916
472.673 .0385000
473.550 .0384110
474.426 .0383367
475.301 .0382732
476.175 .0382193
477.048 .0381729
477.920 .0381322
478.791 .0380855
479.661 .0380344
480.530 .0379778
481.398 .0379174
482.266 .0378570
483.132 .0378038
483.997 .0377588
484.861 .0377240
485.724 .0377011
486.587 .0376817
487.448 .0376626
488.308 .0376421
489.168 .0376109
490.026 .0375693
490.884 .0375212
491.741 .0374701
492.597 .0374172
493.452 .0373659
494.306 .0373175
495.159 .0372686
496.011 .0372210
496.862 .0371702
497.713 .0371098
498.562 .0370387
499.411 .0369619
500.259 .0368738
501.106 .0367813
501.952 .0366868
502.798 .0365919
503.642 .0365020
504.486 .0364158
505.329 .0363305
506.171 .0362431
507.012 .0361524
507.852 .0360599
508.692 .0359582
509.531 .0358558
510.369 .0357480
511.206 .0356377
512.043 .0355292
512.878 .0354189
513.713 .0353029
514.547 .0351869
515.381 .0350660
516.213 .0349390
517.045 .0348007
517.876 .0346522
518.706 .0344972
519.536 .0343362
520.365 .0341730
521.193 .0340073
522.020 .0338422
522.847 .0336824
523.673 .0335157
524.498 .0333446
525.323 .0331666
526.146 .0329832
526.969 .0327935
527.792 .0325998
528.614 .0324045
529.435 .0322124
530.255 .0320258
531.075 .0318433
531.894 .0316611
532.712 .0314757
533.530 .0312865
534.347 .0310958
535.163 .0309057
535.979 .0307251
536.794 .0305590
537.608 .0304159
538.422 .0302993
539.235 .0302076
540.048 .0301465
540.860 .0301120
541.671 .0300995
542.481 .0301024
543.292 .0301215
544.101 .0301537
544.910 .0302052
545.718 .0302717
546.526 .0303538
547.333 .0304472
548.139 .0305536
548.945 .0306648
549.750 .0307772
550.555 .0308883
551.359 .0309925
552.162 .0310832
552.965 .0311668
553.768 .0312374
554.569 .0312990
555.371 .0313512
556.171 .0313975
556.972 .0314362
557.771 .0314693
558.570 .0314985
559.369 .0315276
560.167 .0315555
560.964 .0315844
561.761 .0316140
562.558 .0316458
563.354 .0316784
564.149 .0317114
564.944 .0317421
565.738 .0317774
566.532 .0318155
567.325 .0318552
568.118 .0318979
568.910 .0319457
569.702 .0319964
570.494 .0320468
571.285 .0320992
572.075 .0321550
572.865 .0322095
573.654 .0322646
574.443 .0323176
575.232 .0323702
576.020 .0324263
576.807 .0324813
577.594 .0325367
578.381 .0325952
579.167 .0326542
579.952 .0327113
580.738 .0327669
581.522 .0328225
582.307 .0328743
583.091 .0329234
583.874 .0329690
584.657 .0330084
585.440 .0330434
586.222 .0330723
587.004 .0330957
587.785 .0331129
588.566 .0331241
589.346 .0331293
590.126 .0331276
590.906 .0331208
591.685 .0331089
592.464 .0330936
593.242 .0330767
594.020 .0330573
594.797 .0330366
595.575 .0330165
596.351 .0329974
597.128 .0329786
597.904 .0329599
598.679 .0329413
599.454 .0329217
600.229 .0329006
601.004 .0328790
601.778 .0328564
602.551 .0328341
603.325 .0328130
604.097 .0327921
604.870 .0327722
605.642 .0327539
606.414 .0327366
607.185 .0327202
607.956 .0327052
608.727 .0326903
609.497 .0326758
610.267 .0326616
611.037 .0326471
611.806 .0326319
612.575 .0326175
613.344 .0326027
614.112 .0325880
614.880 .0325737
615.647 .0325594
616.414 .0325456
617.181 .0325322
617.948 .0325180
618.714 .0325035
619.480 .0324876
620.245 .0324711
621.011 .0324536
621.775 .0324361
622.540 .0324180
623.304 .0324006
624.068 .0323841
624.832 .0323675
625.595 .0323513
626.358 .0323363
627.120 .0323211
627.883 .0323057
628.645 .0322900
629.406 .0322740
630.168 .0322585
630.929 .0322435
631.689 .0322275
632.450 .0322116
633.210 .0321960
633.970 .0321787
634.729 .0321594
635.489 .0321385
636.248 .0321153
637.006 .0320901
637.765 .0320635
638.523 .0320353
639.280 .0320061
640.038 .0319774
640.795 .0319487
641.552 .0319199
642.309 .0318921
643.065 .0318645
643.821 .0318380
644.577 .0318124
645.332 .0317872
646.088 .0317622
646.843 .0317381
647.597 .0317146
648.352 .0316909
649.106 .0316675
649.860 .0316437
650.613 .0316195
651.367 .0315956
652.120 .0315707
652.872 .0315454
653.625 .0315201
654.377 .0314942
655.129 .0314668
655.881 .0314376
656.632 .0314062
657.384 .0313731
658.135 .0313392
658.885 .0313044
659.636 .0312688
660.386 .0312339
661.136 .0311999
661.885 .0311669
662.635 .0311361
663.384 .0311074
664.133 .0310797
664.881 .0310532
665.630 .0310271
666.378 .0310013
667.126 .0309756
667.874 .0309496
668.621 .0309236
669.368 .0308981
670.115 .0308726
670.862 .0308467
671.608 .0308206
672.354 .0307952
673.100 .0307694
673.846 .0307438
674.591 .0307186
675.337 .0306939
676.082 .0306704
676.826 .0306475
677.571 .0306254
678.315 .0306041
679.059 .0305836
679.803 .0305636
680.547 .0305441
681.290 .0305250
682.033 .0305061
682.776 .0304880
683.518 .0304709
684.261 .0304548
685.003 .0304395
685.745 .0304247
686.487 .0304104
687.228 .0303962
687.969 .0303810
688.710 .0303648
689.451 .0303478
690.192 .0303301
690.932 .0303116
691.672 .0302930
692.412 .0302743
693.152 .0302570
693.891 .0302406
694.630 .0302254
695.369 .0302109
696.108 .0301973
696.846 .0301837
697.585 .0301694
698.323 .0301548
699.061 .0301392
699.798 .0301228
700.536 .0301069
701.273 .0300910
702.010 .0300767
702.746 .0300638
703.483 .0300524
704.219 .0300424
704.955 .0300337
705.691 .0300247
706.427 .0300152
707.162 .0300050
707.897 .0299938
708.632 .0299812
709.367 .0299687
710.101 .0299570
710.835 .0299460
711.569 .0299369
712.303 .0299293
713.037 .0299229
713.770 .0299174
714.503 .0299118
715.236 .0299057
715.969 .0298986
716.702 .0298901
717.434 .0298799
718.166 .0298681
718.898 .0298558
719.629 .0298421
720.361 .0298284
721.092 .0298148
721.823 .0298008
722.554 .0297861
723.284 .0297708
724.014 .0297540
724.744 .0297357
725.474 .0297156
726.204 .0296937
726.933 .0296704
727.662 .0296461
728.391 .0296209
729.120 .0295955
729.849 .0295710
730.577 .0295476
731.305 .0295250
732.033 .0295043
732.760 .0294845
733.488 .0294651
734.215 .0294461
734.942 .0294265
735.669 .0294059
736.395 .0293843
737.122 .0293615
737.848 .0293376
738.573 .0293129
739.299 .0292881
740.024 .0292634
740.750 .0292398
741.474 .0292169
742.199 .0291942
742.924 .0291719
743.648 .0291495
744.372 .0291262
745.096 .0291029
745.819 .0290793
746.543 .0290556
747.266 .0290326
747.989 .0290106
748.711 .0289897
749.434 .0289703
750.156 .0289528
750.878 .0289369
751.599 .0289224
752.321 .0289091
753.042 .0288960
753.763 .0288834
754.484 .0288714
755.205 .0288593
755.925 .0288474
756.645 .0288352
757.365 .0288221
758.085 .0288079
758.804 .0287925
759.523 .0287757
760.242 .0287573
760.961 .0287371
761.679 .0287162
762.397 .0286929
763.115 .0286684
763.833 .0286420
764.551 .0286140
765.268 .0285845
765.985 .0285535
766.702 .0285208
767.418 .0284868
768.134 .0284527
768.850 .0284192
769.566 .0283860
770.282 .0283546
770.997 .0283245
771.712 .0282964
772.427 .0282703
773.142 .0282458
773.856 .0282219
774.570 .0281996
775.284 .0281783
775.998 .0281578
776.711 .0281379
777.424 .0281191
778.137 .0281013
778.849 .0280847
779.562 .0280689
780.274 .0280539
780.986 .0280397
781.697 .0280268
782.409 .0280141
783.120 .0280025
783.831 .0279917
784.541 .0279822
785.252 .0279747
785.962 .0279687
786.671 .0279639
787.381 .0279598
788.090 .0279559
788.799 .0279517
789.508 .0279467
790.217 .0279410
790.925 .0279343
791.633 .0279275
792.341 .0279200
793.048 .0279118
793.755 .0279031
794.462 .0278942
795.169 .0278850
795.875 .0278750
796.581 .0278644
797.287 .0278532
797.993 .0278425
798.698 .0278326
799.403 .0278232
800.108 .0278154
800.812 .0278088
801.517 .0278034
802.221 .0277985
802.924 .0277944
803.628 .0277909
804.331 .0277886
805.034 .0277867
805.736 .0277849
806.439 .0277833
807.141 .0277822
807.843 .0277805
808.544 .0277785
809.245 .0277758
809.946 .0277721
810.647 .0277673
811.347 .0277625
812.047 .0277574
812.747 .0277537
813.447 .0277508
814.146 .0277493
814.845 .0277496
815.543 .0277512
816.242 .0277533
816.940 .0277558
817.638 .0277588
818.335 .0277615
819.032 .0277633
819.729 .0277648
820.426 .0277653
821.122 .0277646
821.818 .0277622
822.514 .0277582
823.209 .0277526
823.905 .0277458
824.599 .0277370
825.294 .0277268
825.988 .0277155
826.682 .0277031
827.376 .0276895
828.069 .0276755
828.762 .0276612
829.455 .0276463
830.147 .0276313
830.840 .0276167
831.531 .0276030
832.223 .0275910
832.914 .0275805
833.605 .0275720
834.296 .0275656
834.986 .0275604
835.676 .0275559
836.366 .0275521
837.055 .0275485
837.744 .0275443
838.433 .0275391
839.121 .0275334
839.809 .0275267
840.497 .0275196
841.185 .0275124
841.872 .0275050
842.559 .0274979
843.245 .0274908
843.932 .0274830
844.617 .0274751
845.303 .0274669
845.988 .0274584
846.673 .0274493
847.358 .0274404
848.042 .0274311
848.726 .0274216
849.410 .0274125
850.093 .0274035
850.776 .0273947
851.459 .0273865
852.141 .0273782
852.823 .0273696
853.505 .0273610
854.186 .0273517
854.867 .0273414
855.548 .0273308
856.228 .0273194
856.908 .0273074
857.588 .0272949
858.267 .0272823
858.946 .0272694
859.625 .0272566
860.303 .0272438
860.981 .0272311
861.659 .0272184
862.336 .0272054
863.013 .0271916
863.690 .0271773
864.366 .0271623
865.042 .0271462
865.718 .0271290
866.393 .0271114
867.068 .0270928
867.743 .0270737
868.417 .0270537
869.091 .0270329
869.765 .0270119
870.438 .0269906
871.111 .0269687
871.783 .0269469
872.456 .0269249
873.127 .0269029
873.799 .0268808
874.470 .0268594
875.141 .0268380
875.811 .0268171
876.481 .0267968
877.151 .0267765
877.820 .0267562
878.489 .0267362
879.158 .0267162
879.826 .0266964
880.494 .0266772
881.162 .0266577
881.829 .0266385
882.496 .0266197
883.163 .0266008
883.829 .0265816
884.495 .0265620
885.160 .0265425
885.825 .0265225
886.490 .0265030
887.154 .0264845
887.818 .0264672
888.482 .0264522
889.145 .0264391
889.808 .0264276
890.471 .0264173
891.133 .0264080
891.795 .0263985
892.456 .0263885
893.117 .0263778
893.778 .0263662
894.439 .0263539
895.099 .0263415
895.758 .0263289
896.417 .0263164
897.076 .0263038
897.735 .0262907
898.393 .0262766
899.051 .0262613
899.708 .0262439
900.365 .0262249
901.022 .0262045
901.678 .0261831
902.334 .0261616
902.990 .0261405
903.645 .0261206
904.300 .0261020
904.954 .0260839
905.608 .0260663
906.262 .0260485
906.915 .0260308
907.568 .0260121
908.221 .0259926
908.873 .0259735
909.525 .0259547
910.176 .0259370
910.828 .0259207
911.478 .0259061
912.129 .0258928
912.778 .0258801
913.428 .0258676
914.077 .0258545
914.726 .0258410
915.375 .0258268
916.023 .0258124
916.670 .0257982
917.318 .0257848
917.964 .0257723
918.611 .0257613
919.257 .0257515
919.903 .0257421
920.548 .0257324
921.193 .0257221
921.838 .0257108
922.482 .0256983
923.126 .0256850
923.770 .0256713
924.413 .0256576
925.056 .0256446
925.698 .0256317
926.340 .0256198
926.982 .0256085
927.623 .0255976
928.264 .0255862
928.904 .0255745
929.544 .0255621
930.184 .0255491
930.823 .0255358
931.462 .0255228
932.101 .0255099
932.739 .0254979
933.377 .0254860
934.014 .0254742
934.651 .0254626
935.288 .0254511
935.924 .0254390
936.560 .0254265
937.196 .0254131
937.831 .0253994
938.466 .0253852
939.100 .0253715
939.734 .0253580
940.368 .0253454
941.001 .0253336
941.634 .0253225
942.266 .0253117
942.899 .0253013
943.530 .0252905
944.162 .0252796
944.793 .0252679
945.423 .0252554
946.053 .0252419
946.683 .0252282
947.313 .0252142
947.942 .0252001
948.571 .0251851
949.199 .0251698
949.827 .0251534
950.455 .0251359
951.082 .0251179
951.709 .0250995
952.335 .0250811
952.961 .0250634
953.587 .0250466
954.212 .0250309
954.837 .0250162
955.462 .0250032
956.086 .0249912
956.710 .0249804
957.334 .0249703
957.957 .0249612
958.579 .0249535
959.202 .0249475
959.824 .0249427
960.445 .0249391
961.067 .0249366
961.688 .0249342
962.308 .0249309
962.928 .0249271
963.548 .0249221
964.168 .0249164
964.787 .0249095
965.406 .0249025
966.024 .0248958
966.642 .0248895
967.260 .0248840
967.877 .0248792
968.494 .0248750
969.110 .0248710
969.727 .0248668
970.342 .0248627
970.958 .0248588
971.573 .0248553
972.188 .0248526
972.802 .0248515
973.416 .0248517
974.030 .0248533
974.643 .0248558
975.256 .0248598
975.869 .0248645
976.481 .0248693
977.093 .0248746
977.705 .0248794
978.316 .0248837
978.927 .0248878
979.538 .0248909
980.148 .0248938
980.758 .0248966
981.367 .0249000
981.977 .0249042
982.586 .0249095
983.194 .0249163
983.802 .0249244
984.410 .0249332
985.018 .0249420
985.625 .0249499
986.232 .0249568
986.838 .0249623
987.445 .0249655
988.050 .0249673
988.656 .0249683
989.261 .0249681
989.866 .0249674
990.471 .0249666
991.075 .0249661
991.679 .0249652
992.282 .0249634
992.886 .0249611
993.489 .0249581
994.091 .0249541
994.694 .0249492
995.296 .0249440
995.897 .0249392
996.499 .0249348
997.100 .0249307
997.701 .0249287
998.301 .0249287
998.901 .0249306
999.501 .0249343
1000.101 .0249396
1000.700 .0249464
1001.299 .0249533
1001.898 .0249603
1002.496 .0249679
1003.094 .0249748
1003.692 .0249814
1004.289 .0249877
1004.887 .0249945
1005.484 .0250017
1006.080 .0250089
1006.677 .0250156
1007.273 .0250223
1007.868 .0250287
1008.464 .0250345
1009.059 .0250392
1009.654 .0250437
1010.249 .0250483
1010.843 .0250526
1011.437 .0250568
1012.031 .0250616
1012.625 .0250664
1013.218 .0250716
1013.811 .0250763
1014.404 .0250802
1014.997 .0250833
1015.589 .0250856
1016.181 .0250873
1016.773 .0250885
1017.365 .0250898
1017.956 .0250905
1018.547 .0250908
1019.138 .0250914
1019.728 .0250920
1020.319 .0250922
1020.909 .0250923
1021.499 .0250924
1022.088 .0250921
1022.678 .0250911
1023.267 .0250895
1023.856 .0250874
1024.445 .0250856
1025.033 .0250824
1025.621 .0250783
1026.209 .0250736
1026.797 .0250688
1027.385 .0250628
1027.972 .0250571
1028.560 .0250520
1029.147 .0250472
1029.734 .0250431
1030.320 .0250401
1030.907 .0250387
1031.493 .0250395
1032.079 .0250418
1032.665 .0250455
1033.250 .0250504
1033.836 .0250562
1034.421 .0250614
1035.006 .0250673
1035.591 .0250732
1036.176 .0250800
1036.761 .0250876
1037.345 .0250960
1037.929 .0251050
1038.514 .0251135
1039.097 .0251219
1039.681 .0251291
1040.265 .0251347
1040.848 .0251374
1041.432 .0251366
1042.015 .0251329
1042.598 .0251253
1043.181 .0251143
1043.764 .0251012
1044.346 .0250869
1044.929 .0250721
1045.511 .0250579
1046.094 .0250443
1046.676 .0250318
1047.258 .0250213
1047.840 .0250109
1048.422 .0250008
1049.003 .0249897
1049.585 .0249781
1050.166 .0249645
1050.748 .0249497
1051.329 .0249342
1051.910 .0249180
1052.491 .0249030
1053.072 .0248897
1053.653 .0248769
1054.234 .0248652
1054.815 .0248548
1055.396 .0248455
1055.976 .0248357
1056.557 .0248263
1057.138 .0248167
1057.718 .0248068
1058.298 .0247974
1058.879 .0247884
1059.459 .0247794
1060.039 .0247711
1060.620 .0247625
1061.200 .0247526
1061.780 .0247411
1062.360 .0247277
1062.940 .0247140
1063.520 .0247003
1064.101 .0246875
1064.681 .0246759
1065.261 .0246657
1065.841 .0246562
1066.421 .0246480
1067.001 .0246387
1067.581 .0246295
1068.161 .0246198
1068.741 .0246096
1069.321 .0245983
1069.901 .0245875
1070.482 .0245777
1071.062 .0245687
1071.642 .0245624
1072.222 .0245587
1072.803 .0245556
1073.383 .0245549
1073.963 .0245550
1074.544 .0245536
1075.124 .0245506
1075.705 .0245452
1076.286 .0245359
1076.866 .0245242
1077.447 .0245091
1078.028 .0244907
1078.609 .0244719
1079.190 .0244544
1079.771 .0244379
1080.352 .0244228
1080.934 .0244109
1081.515 .0243994
1082.097 .0243880
1082.679 .0243759
1083.260 .0243598
1083.842 .0243413
1084.424 .0243215
1085.007 .0242988
1085.589 .0242747
1086.172 .0242505
1086.754 .0242275
1087.337 .0242074
1087.920 .0241912
1088.503 .0241765
1089.087 .0241626
1089.670 .0241498
1090.254 .0241358
1090.838 .0241194
1091.422 .0241012
1092.006 .0240794
1092.590 .0240560
1093.175 .0240320
1093.760 .0240068
1094.345 .0239838
1094.930 .0239656
1095.516 .0239543
1096.102 .0239478
1096.688 .0239450
1097.274 .0239442
1097.860 .0239441
1098.447 .0239439
1099.034 .0239423
1099.622 .0239393
1100.209 .0239367
1100.797 .0239342
1101.385 .0239324
1101.973 .0239322
1102.562 .0239324
1103.151 .0239314
1103.740 .0239281
1104.330 .0239206
1104.920 .0239095
1105.510 .0238953
1106.101 .0238808
1106.691 .0238685
1107.283 .0238584
1107.874 .0238508
1108.466 .0238424
1109.058 .0238351
1109.651 .0238260
1110.244 .0238136
1110.837 .0237990
1111.431 .0237845
1112.025 .0237716
1112.620 .0237647
1113.215 .0237637
1113.810 .0237712
1114.406 .0237870
1115.002 .0238082
1115.599 .0238269
1116.196 .0238415
1116.793 .0238497
1117.391 .0238515
1117.989 .0238457
1118.588 .0238399
1119.187 .0238319
1119.787 .0238275
1120.387 .0238262
1120.988 .0238280
1121.589 .0238330
1122.190 .0238413
1122.793 .0238500
1123.395 .0238600
1123.998 .0238717
1124.602 .0238870
1125.206 .0239038
1125.811 .0239282
1126.416 .0239565
1127.022 .0239860
1127.628 .0240156
1128.235 .0240449
1128.843 .0240723
1129.451 .0240990
1130.059 .0241281
1130.669 .0241638
1131.278 .0242069
1131.889 .0242565
1132.500 .0243127
1133.112 .0243735
1133.724 .0244363
1134.337 .0244940
1134.950 .0245411
1135.564 .0245778
1136.179 .0246017
1136.795 .0246180
1137.411 .0246276
1138.028 .0246374
1138.645 .0246539
1139.263 .0246723
1139.882 .0246884
1140.502 .0247030
1141.122 .0247063
1141.743 .0247064
1142.365 .0247049
1142.987 .0246091
1143.611 .0246473
1144.235 .0244425
1144.859 .0246732
1145.485 .0248740
