Measurement Sequence started on: 10-20-44-796
Integration time: 35
Scans to Average: 2 
>>>>>Begin Spectral Data<<<<<
432.953 .0251068
433.882 .0342835
434.810 .0359537
435.737 .0396648
436.662 .0389381
437.586 .0379306
438.509 .0386067
439.431 .0388711
440.351 .0390541
441.269 .0391630
442.187 .0393134
443.103 .0394666
444.018 .0396279
444.932 .0397654
445.844 .0398389
446.756 .0398747
447.666 .0398857
448.575 .0398699
449.482 .0398411
450.388 .0398086
451.294 .0397811
452.198 .0397715
453.100 .0397663
454.002 .0397709
454.902 .0397800
455.801 .0397973
456.699 .0398014
457.596 .0397894
458.492 .0397570
459.387 .0397056
460.280 .0396427
461.172 .0395692
462.064 .0394956
462.954 .0394239
463.843 .0393632
464.730 .0393138
465.617 .0392618
466.503 .0392079
467.387 .0391399
468.271 .0390616
469.153 .0389696
470.035 .0388645
470.915 .0387533
471.794 .0386444
472.673 .0385451
473.550 .0384567
474.426 .0383826
475.301 .0383211
476.175 .0382708
477.048 .0382237
477.920 .0381777
478.791 .0381315
479.661 .0380821
480.530 .0380387
481.398 .0380000
482.266 .0379707
483.132 .0379516
483.997 .0379430
484.861 .0379417
485.724 .0379423
486.587 .0379391
487.448 .0379265
488.308 .0379011
489.168 .0378669
490.026 .0378185
490.884 .0377642
491.741 .0377076
492.597 .0376487
493.452 .0375870
494.306 .0375272
495.159 .0374619
496.011 .0373919
496.862 .0373172
497.713 .0372358
498.562 .0371413
499.411 .0370405
500.259 .0369339
501.106 .0368252
501.952 .0367187
502.798 .0366214
503.642 .0365298
504.486 .0364541
505.329 .0363834
506.171 .0363144
507.012 .0362460
507.852 .0361762
508.692 .0360978
509.531 .0360103
510.369 .0359132
511.206 .0358092
512.043 .0356982
512.878 .0355896
513.713 .0354816
514.547 .0353776
515.381 .0352746
516.213 .0351732
517.045 .0350618
517.876 .0349365
518.706 .0347933
519.536 .0346382
520.365 .0344699
521.193 .0342906
522.020 .0341062
522.847 .0339246
523.673 .0337482
524.498 .0335810
525.323 .0334165
526.146 .0332547
526.969 .0330855
527.792 .0329005
528.614 .0326878
529.435 .0324523
530.255 .0321882
531.075 .0319011
531.894 .0316055
532.712 .0313070
533.530 .0310206
534.347 .0307633
535.163 .0305460
535.979 .0303781
536.794 .0302534
537.608 .0301651
538.422 .0301010
539.235 .0300539
540.048 .0300107
540.860 .0299738
541.671 .0299506
542.481 .0299368
543.292 .0299445
544.101 .0299838
544.910 .0300529
545.718 .0301477
546.526 .0302712
547.333 .0304062
548.139 .0305394
548.945 .0306658
549.750 .0307672
550.555 .0308527
551.359 .0309260
552.162 .0309847
552.965 .0310347
553.768 .0310892
554.569 .0311526
555.371 .0312197
556.171 .0313041
556.972 .0313958
557.771 .0314812
558.570 .0315617
559.369 .0316314
560.167 .0316857
560.964 .0317314
561.761 .0317682
562.558 .0317970
563.354 .0318300
564.149 .0318608
564.944 .0318878
565.738 .0319202
566.532 .0319578
567.325 .0319958
568.118 .0320294
568.910 .0320623
569.702 .0320918
570.494 .0321241
571.285 .0321572
572.075 .0321871
572.865 .0322159
573.654 .0322440
574.443 .0322709
575.232 .0322980
576.020 .0323280
576.807 .0323615
577.594 .0323980
578.381 .0324381
579.167 .0324772
579.952 .0325160
580.738 .0325553
581.522 .0325943
582.307 .0326304
583.091 .0326633
583.874 .0326929
584.657 .0327222
585.440 .0327528
586.222 .0327853
587.004 .0328165
587.785 .0328479
588.566 .0328771
589.346 .0329000
590.126 .0329156
590.906 .0329218
591.685 .0329201
592.464 .0329109
593.242 .0328955
594.020 .0328753
594.797 .0328543
595.575 .0328334
596.351 .0328135
597.128 .0327955
597.904 .0327791
598.679 .0327638
599.454 .0327481
600.229 .0327324
601.004 .0327158
601.778 .0326989
602.551 .0326841
603.325 .0326698
604.097 .0326605
604.870 .0326529
605.642 .0326480
606.414 .0326447
607.185 .0326406
607.956 .0326342
608.727 .0326248
609.497 .0326115
610.267 .0325931
611.037 .0325694
611.806 .0325423
612.575 .0325125
613.344 .0324824
614.112 .0324515
614.880 .0324213
615.647 .0323919
616.414 .0323637
617.181 .0323346
617.948 .0323067
618.714 .0322790
619.480 .0322507
620.245 .0322221
621.011 .0321933
621.775 .0321657
622.540 .0321397
623.304 .0321161
624.068 .0320958
624.832 .0320776
625.595 .0320608
626.358 .0320437
627.120 .0320256
627.883 .0320052
628.645 .0319822
629.406 .0319569
630.168 .0319301
630.929 .0319023
631.689 .0318748
632.450 .0318479
633.210 .0318224
633.970 .0317973
634.729 .0317705
635.489 .0317419
636.248 .0317110
637.006 .0316765
637.765 .0316383
638.523 .0315973
639.280 .0315550
640.038 .0315121
640.795 .0314698
641.552 .0314275
642.309 .0313862
643.065 .0313452
643.821 .0313041
644.577 .0312628
645.332 .0312221
646.088 .0311830
646.843 .0311460
647.597 .0311124
648.352 .0310822
649.106 .0310552
649.860 .0310312
650.613 .0310085
651.367 .0309873
652.120 .0309655
652.872 .0309429
653.625 .0309195
654.377 .0308954
655.129 .0308709
655.881 .0308462
656.632 .0308215
657.384 .0307969
658.135 .0307726
658.885 .0307471
659.636 .0307209
660.386 .0306946
661.136 .0306680
661.885 .0306419
662.635 .0306169
663.384 .0305935
664.133 .0305727
664.881 .0305547
665.630 .0305390
666.378 .0305253
667.126 .0305138
667.874 .0305026
668.621 .0304919
669.368 .0304816
670.115 .0304715
670.862 .0304618
671.608 .0304535
672.354 .0304455
673.100 .0304379
673.846 .0304308
674.591 .0304231
675.337 .0304148
676.082 .0304056
676.826 .0303944
677.571 .0303823
678.315 .0303695
679.059 .0303561
679.803 .0303429
680.547 .0303312
681.290 .0303204
682.033 .0303102
682.776 .0303006
683.518 .0302908
684.261 .0302802
685.003 .0302689
685.745 .0302560
686.487 .0302420
687.228 .0302274
687.969 .0302120
688.710 .0301973
689.451 .0301838
690.192 .0301712
690.932 .0301596
691.672 .0301489
692.412 .0301388
693.152 .0301287
693.891 .0301189
694.630 .0301092
695.369 .0300990
696.108 .0300885
696.846 .0300767
697.585 .0300640
698.323 .0300504
699.061 .0300364
699.798 .0300223
700.536 .0300079
701.273 .0299935
702.010 .0299792
702.746 .0299645
703.483 .0299495
704.219 .0299332
704.955 .0299147
705.691 .0298939
706.427 .0298711
707.162 .0298463
707.897 .0298208
708.632 .0297952
709.367 .0297699
710.101 .0297456
710.835 .0297219
711.569 .0296982
712.303 .0296739
713.037 .0296494
713.770 .0296241
714.503 .0295979
715.236 .0295717
715.969 .0295452
716.702 .0295205
717.434 .0294975
718.166 .0294754
718.898 .0294543
719.629 .0294334
720.361 .0294117
721.092 .0293884
721.823 .0293639
722.554 .0293383
723.284 .0293124
724.014 .0292867
724.744 .0292611
725.474 .0292353
726.204 .0292094
726.933 .0291829
727.662 .0291542
728.391 .0291239
729.120 .0290910
729.849 .0290571
730.577 .0290230
731.305 .0289898
732.033 .0289590
732.760 .0289305
733.488 .0289048
734.215 .0288809
734.942 .0288580
735.669 .0288351
736.395 .0288112
737.122 .0287868
737.848 .0287619
738.573 .0287377
739.299 .0287149
740.024 .0286944
740.750 .0286763
741.474 .0286603
742.199 .0286449
742.924 .0286295
743.648 .0286129
744.372 .0285939
745.096 .0285729
745.819 .0285497
746.543 .0285258
747.266 .0285016
747.989 .0284785
748.711 .0284574
749.434 .0284380
750.156 .0284209
750.878 .0284047
751.599 .0283896
752.321 .0283759
753.042 .0283632
753.763 .0283521
754.484 .0283428
755.205 .0283358
755.925 .0283307
756.645 .0283270
757.365 .0283245
758.085 .0283226
758.804 .0283206
759.523 .0283177
760.242 .0283127
760.961 .0283056
761.679 .0282969
762.397 .0282858
763.115 .0282732
763.833 .0282581
764.551 .0282411
765.268 .0282218
765.985 .0282005
766.702 .0281773
767.418 .0281528
768.134 .0281274
768.850 .0281022
769.566 .0280768
770.282 .0280523
770.997 .0280288
771.712 .0280072
772.427 .0279882
773.142 .0279716
773.856 .0279570
774.570 .0279449
775.284 .0279347
775.998 .0279265
776.711 .0279197
777.424 .0279148
778.137 .0279107
778.849 .0279073
779.562 .0279044
780.274 .0279016
780.986 .0278992
781.697 .0278980
782.409 .0278974
783.120 .0278982
783.831 .0279005
784.541 .0279040
785.252 .0279082
785.962 .0279134
786.671 .0279183
787.381 .0279227
788.090 .0279269
788.799 .0279305
789.508 .0279331
790.217 .0279361
790.925 .0279388
791.633 .0279412
792.341 .0279432
793.048 .0279444
793.755 .0279442
794.462 .0279427
795.169 .0279391
795.875 .0279334
796.581 .0279264
797.287 .0279191
797.993 .0279105
798.698 .0279023
799.403 .0278938
800.108 .0278858
800.812 .0278776
801.517 .0278698
802.221 .0278619
802.924 .0278544
803.628 .0278474
804.331 .0278409
805.034 .0278347
805.736 .0278295
806.439 .0278242
807.141 .0278198
807.843 .0278153
808.544 .0278111
809.245 .0278065
809.946 .0278028
810.647 .0277996
811.347 .0277978
812.047 .0277961
812.747 .0277952
813.447 .0277941
814.146 .0277919
814.845 .0277884
815.543 .0277841
816.242 .0277791
816.940 .0277740
817.638 .0277690
818.335 .0277653
819.032 .0277614
819.729 .0277584
820.426 .0277540
821.122 .0277481
821.818 .0277397
822.514 .0277280
823.209 .0277133
823.905 .0276966
824.599 .0276781
825.294 .0276590
825.988 .0276401
826.682 .0276220
827.376 .0276036
828.069 .0275854
828.762 .0275664
829.455 .0275465
830.147 .0275250
830.840 .0275027
831.531 .0274800
832.223 .0274584
832.914 .0274378
833.605 .0274189
834.296 .0274024
834.986 .0273881
835.676 .0273754
836.366 .0273646
837.055 .0273544
837.744 .0273452
838.433 .0273364
839.121 .0273286
839.809 .0273208
840.497 .0273133
841.185 .0273055
841.872 .0272975
842.559 .0272882
843.245 .0272774
843.932 .0272649
844.617 .0272512
845.303 .0272363
845.988 .0272200
846.673 .0272024
847.358 .0271843
848.042 .0271651
848.726 .0271448
849.410 .0271235
850.093 .0271011
850.776 .0270775
851.459 .0270536
852.141 .0270295
852.823 .0270058
853.505 .0269834
854.186 .0269628
854.867 .0269438
855.548 .0269263
856.228 .0269099
856.908 .0268943
857.588 .0268800
858.267 .0268663
858.946 .0268524
859.625 .0268382
860.303 .0268242
860.981 .0268102
861.659 .0267955
862.336 .0267805
863.013 .0267649
863.690 .0267488
864.366 .0267324
865.042 .0267154
865.718 .0266986
866.393 .0266828
867.068 .0266674
867.743 .0266517
868.417 .0266356
869.091 .0266187
869.765 .0266007
870.438 .0265813
871.111 .0265608
871.783 .0265391
872.456 .0265172
873.127 .0264955
873.799 .0264741
874.470 .0264542
875.141 .0264353
875.811 .0264168
876.481 .0263977
877.151 .0263781
877.820 .0263575
878.489 .0263366
879.158 .0263161
879.826 .0262964
880.494 .0262780
881.162 .0262615
881.829 .0262464
882.496 .0262327
883.163 .0262194
883.829 .0262060
884.495 .0261916
885.160 .0261759
885.825 .0261589
886.490 .0261411
887.154 .0261235
887.818 .0261070
888.482 .0260914
889.145 .0260764
889.808 .0260619
890.471 .0260477
891.133 .0260338
891.795 .0260192
892.456 .0260046
893.117 .0259910
893.778 .0259789
894.439 .0259691
895.099 .0259615
895.758 .0259572
896.417 .0259558
897.076 .0259560
897.735 .0259568
898.393 .0259572
899.051 .0259567
899.708 .0259548
900.365 .0259513
901.022 .0259466
901.678 .0259414
902.334 .0259355
902.990 .0259293
903.645 .0259227
904.300 .0259153
904.954 .0259067
905.608 .0258962
906.262 .0258843
906.915 .0258699
907.568 .0258540
908.221 .0258368
908.873 .0258194
909.525 .0258028
910.176 .0257870
910.828 .0257728
911.478 .0257602
912.129 .0257491
912.778 .0257385
913.428 .0257281
914.077 .0257180
914.726 .0257075
915.375 .0256975
916.023 .0256889
916.670 .0256821
917.318 .0256779
917.964 .0256769
918.611 .0256785
919.257 .0256827
919.903 .0256885
920.548 .0256946
921.193 .0257007
921.838 .0257064
922.482 .0257118
923.126 .0257167
923.770 .0257212
924.413 .0257255
925.056 .0257296
925.698 .0257340
926.340 .0257378
926.982 .0257405
927.623 .0257418
928.264 .0257399
928.904 .0257350
929.544 .0257276
930.184 .0257173
930.823 .0257056
931.462 .0256931
932.101 .0256805
932.739 .0256685
933.377 .0256565
934.014 .0256452
934.651 .0256343
935.288 .0256240
935.924 .0256133
936.560 .0256021
937.196 .0255918
937.831 .0255818
938.466 .0255728
939.100 .0255655
939.734 .0255595
940.368 .0255543
941.001 .0255494
941.634 .0255443
942.266 .0255383
942.899 .0255313
943.530 .0255232
944.162 .0255143
944.793 .0255053
945.423 .0254961
946.053 .0254874
946.683 .0254796
947.313 .0254726
947.942 .0254646
948.571 .0254554
949.199 .0254443
949.827 .0254311
950.455 .0254147
951.082 .0253972
951.709 .0253789
952.335 .0253610
952.961 .0253440
953.587 .0253290
954.212 .0253158
954.837 .0253046
955.462 .0252945
956.086 .0252860
956.710 .0252785
957.334 .0252728
957.957 .0252666
958.579 .0252612
959.202 .0252569
959.824 .0252535
960.445 .0252504
961.067 .0252491
961.688 .0252482
962.308 .0252482
962.928 .0252482
963.548 .0252479
964.168 .0252471
964.787 .0252457
965.406 .0252428
966.024 .0252387
966.642 .0252334
967.260 .0252268
967.877 .0252190
968.494 .0252116
969.110 .0252043
969.727 .0251971
970.342 .0251907
970.958 .0251858
971.573 .0251826
972.188 .0251818
972.802 .0251830
973.416 .0251866
974.030 .0251932
974.643 .0252006
975.256 .0252089
975.869 .0252182
976.481 .0252269
977.093 .0252348
977.705 .0252415
978.316 .0252465
978.927 .0252497
979.538 .0252524
980.148 .0252542
980.758 .0252548
981.367 .0252553
981.977 .0252544
982.586 .0252520
983.194 .0252489
983.802 .0252443
984.410 .0252379
985.018 .0252314
985.625 .0252240
986.232 .0252161
986.838 .0252087
987.445 .0252017
988.050 .0251949
988.656 .0251890
989.261 .0251836
989.866 .0251776
990.471 .0251715
991.075 .0251651
991.679 .0251578
992.282 .0251503
992.886 .0251424
993.489 .0251349
994.091 .0251273
994.694 .0251199
995.296 .0251122
995.897 .0251052
996.499 .0250983
997.100 .0250918
997.701 .0250857
998.301 .0250804
998.901 .0250757
999.501 .0250727
1000.101 .0250704
1000.700 .0250699
1001.299 .0250707
1001.898 .0250719
1002.496 .0250733
1003.094 .0250742
1003.692 .0250733
1004.289 .0250713
1004.887 .0250678
1005.484 .0250635
1006.080 .0250579
1006.677 .0250522
1007.273 .0250467
1007.868 .0250421
1008.464 .0250387
1009.059 .0250363
1009.654 .0250346
1010.249 .0250336
1010.843 .0250319
1011.437 .0250300
1012.031 .0250272
1012.625 .0250235
1013.218 .0250195
1013.811 .0250158
1014.404 .0250115
1014.997 .0250080
1015.589 .0250045
1016.181 .0250012
1016.773 .0249974
1017.365 .0249925
1017.956 .0249858
1018.547 .0249780
1019.138 .0249688
1019.728 .0249577
1020.319 .0249457
1020.909 .0249346
1021.499 .0249235
1022.088 .0249141
1022.678 .0249057
1023.267 .0248975
1023.856 .0248893
1024.445 .0248815
1025.033 .0248729
1025.621 .0248649
1026.209 .0248571
1026.797 .0248491
1027.385 .0248416
1027.972 .0248341
1028.560 .0248257
1029.147 .0248169
1029.734 .0248074
1030.320 .0247966
1030.907 .0247839
1031.493 .0247702
1032.079 .0247551
1032.665 .0247404
1033.250 .0247253
1033.836 .0247103
1034.421 .0246959
1035.006 .0246824
1035.591 .0246681
1036.176 .0246538
1036.761 .0246396
1037.345 .0246251
1037.929 .0246106
1038.514 .0245963
1039.097 .0245823
1039.681 .0245699
1040.265 .0245591
1040.848 .0245501
1041.432 .0245425
1042.015 .0245375
1042.598 .0245335
1043.181 .0245315
1043.764 .0245309
1044.346 .0245308
1044.929 .0245303
1045.511 .0245290
1046.094 .0245266
1046.676 .0245233
1047.258 .0245191
1047.840 .0245147
1048.422 .0245100
1049.003 .0245043
1049.585 .0244980
1050.166 .0244901
1050.748 .0244808
1051.329 .0244697
1051.910 .0244558
1052.491 .0244403
1053.072 .0244230
1053.653 .0244058
1054.234 .0243908
1054.815 .0243782
1055.396 .0243702
1055.976 .0243650
1056.557 .0243621
1057.138 .0243601
1057.718 .0243584
1058.298 .0243553
1058.879 .0243517
1059.459 .0243469
1060.039 .0243409
1060.620 .0243321
1061.200 .0243237
1061.780 .0243148
1062.360 .0243047
1062.940 .0242948
1063.520 .0242830
1064.101 .0242680
1064.681 .0242509
1065.261 .0242292
1065.841 .0242044
1066.421 .0241767
1067.001 .0241471
1067.581 .0241136
1068.161 .0240782
1068.741 .0240420
1069.321 .0240050
1069.901 .0239695
1070.482 .0239370
1071.062 .0239058
1071.642 .0238774
1072.222 .0238527
1072.803 .0238293
1073.383 .0238061
1073.963 .0237826
1074.544 .0237581
1075.124 .0237329
1075.705 .0237070
1076.286 .0236806
1076.866 .0236561
1077.447 .0236363
1078.028 .0236231
1078.609 .0236147
1079.190 .0236124
1079.771 .0236145
1080.352 .0236193
1080.934 .0236243
1081.515 .0236290
1082.097 .0236309
1082.679 .0236309
1083.260 .0236286
1083.842 .0236253
1084.424 .0236187
1085.007 .0236129
1085.589 .0236085
1086.172 .0236061
1086.754 .0236061
1087.337 .0236082
1087.920 .0236122
1088.503 .0236188
1089.087 .0236254
1089.670 .0236318
1090.254 .0236373
1090.838 .0236429
1091.422 .0236481
1092.006 .0236545
1092.590 .0236652
1093.175 .0236809
1093.760 .0236998
1094.345 .0237226
1094.930 .0237430
1095.516 .0237591
1096.102 .0237695
1096.688 .0237724
1097.274 .0237684
1097.860 .0237559
1098.447 .0237393
1099.034 .0237203
1099.622 .0236974
1100.209 .0236739
1100.797 .0236482
1101.385 .0236195
1101.973 .0235879
1102.562 .0235465
1103.151 .0235021
1103.740 .0234576
1104.330 .0234159
1104.920 .0233810
1105.510 .0233546
1106.101 .0233397
1106.691 .0233307
1107.283 .0233267
1107.874 .0233290
1108.466 .0233296
1109.058 .0233314
1109.651 .0233349
1110.244 .0233408
1110.837 .0233532
1111.431 .0233718
1112.025 .0233982
1112.620 .0234362
1113.215 .0234811
1113.810 .0235311
1114.406 .0235830
1115.002 .0236361
1115.599 .0236899
1116.196 .0237398
1116.793 .0237890
1117.391 .0238364
1117.989 .0238782
1118.588 .0239174
1119.187 .0239508
1119.787 .0239803
1120.387 .0240003
1120.988 .0240145
1121.589 .0240251
1122.190 .0240266
1122.793 .0240206
1123.395 .0240104
1123.998 .0239987
1124.602 .0239913
1125.206 .0239881
1125.811 .0239889
1126.416 .0239964
1127.022 .0240121
1127.628 .0240308
1128.235 .0240495
1128.843 .0240693
1129.451 .0240904
1130.059 .0241107
1130.669 .0241372
1131.278 .0241684
1131.889 .0242068
1132.500 .0242597
1133.112 .0243283
1133.724 .0244094
1134.337 .0244974
1134.950 .0245910
1135.564 .0246841
1136.179 .0247745
1136.795 .0248607
1137.411 .0249368
1138.028 .0250089
1138.645 .0250869
1139.263 .0251682
1139.882 .0252530
1140.502 .0253469
1141.122 .0254328
1141.743 .0255003
1142.365 .0255277
1142.987 .0257773
1143.611 .0258834
1144.235 .0254772
1144.859 .0252631
1145.485 .0247758
