Measurement Sequence started on: 10-20-44-796
Integration time: 35
Scans to Average: 2 
>>>>>Begin Spectral Data<<<<<
432.953 .0437050
433.882 .0437172
434.810 .0464685
435.737 .0429764
436.662 .0409969
437.586 .0417386
438.509 .0412416
439.431 .0408055
440.351 .0403752
441.269 .0401048
442.187 .0399141
443.103 .0397393
444.018 .0395801
444.932 .0394519
445.844 .0393488
446.756 .0392512
447.666 .0391356
448.575 .0390143
449.482 .0388780
450.388 .0387388
451.294 .0385873
452.198 .0384306
453.100 .0382867
454.002 .0381604
454.902 .0380395
455.801 .0379273
456.699 .0378281
457.596 .0377371
458.492 .0376449
459.387 .0375567
460.280 .0374788
461.172 .0374144
462.064 .0373646
462.954 .0373233
463.843 .0372820
464.730 .0372420
465.617 .0371991
466.503 .0371510
467.387 .0371008
468.271 .0370443
469.153 .0369821
470.035 .0369213
470.915 .0368650
471.794 .0368118
472.673 .0367561
473.550 .0367025
474.426 .0366522
475.301 .0365959
476.175 .0365352
477.048 .0364667
477.920 .0363983
478.791 .0363306
479.661 .0362619
480.530 .0361931
481.398 .0361286
482.266 .0360797
483.132 .0360393
483.997 .0360083
484.861 .0359855
485.724 .0359700
486.587 .0359587
487.448 .0359490
488.308 .0359374
489.168 .0359227
490.026 .0359102
490.884 .0358972
491.741 .0358868
492.597 .0358812
493.452 .0358766
494.306 .0358755
495.159 .0358695
496.011 .0358560
496.862 .0358276
497.713 .0357891
498.562 .0357362
499.411 .0356730
500.259 .0356007
501.106 .0355223
501.952 .0354404
502.798 .0353585
503.642 .0352724
504.486 .0351823
505.329 .0350899
506.171 .0349927
507.012 .0348878
507.852 .0347793
508.692 .0346614
509.531 .0345394
510.369 .0344097
511.206 .0342713
512.043 .0341226
512.878 .0339662
513.713 .0337981
514.547 .0336181
515.381 .0334293
516.213 .0332329
517.045 .0330296
517.876 .0328187
518.706 .0326015
519.536 .0323723
520.365 .0321351
521.193 .0318955
522.020 .0316597
522.847 .0314392
523.673 .0312402
524.498 .0310759
525.323 .0309502
526.146 .0308650
526.969 .0308254
527.792 .0308115
528.614 .0308124
529.435 .0308105
530.255 .0308006
531.075 .0307709
531.894 .0307292
532.712 .0306738
533.530 .0306172
534.347 .0305753
535.163 .0305380
535.979 .0305162
536.794 .0305098
537.608 .0305172
538.422 .0305232
539.235 .0305083
540.048 .0304805
540.860 .0304220
541.671 .0303492
542.481 .0302613
543.292 .0301639
544.101 .0300816
544.910 .0300120
545.718 .0299631
546.526 .0299353
547.333 .0299337
548.139 .0299504
548.945 .0299783
549.750 .0300141
550.555 .0300556
551.359 .0300990
552.162 .0301505
552.965 .0302088
553.768 .0302647
554.569 .0303273
555.371 .0303846
556.171 .0304405
556.972 .0304992
557.771 .0305579
558.570 .0306185
559.369 .0306788
560.167 .0307418
560.964 .0308018
561.761 .0308578
562.558 .0309114
563.354 .0309566
564.149 .0309967
564.944 .0310301
565.738 .0310608
566.532 .0310899
567.325 .0311248
568.118 .0311602
568.910 .0312043
569.702 .0312565
570.494 .0313142
571.285 .0313746
572.075 .0314379
572.865 .0315043
573.654 .0315687
574.443 .0316282
575.232 .0316843
576.020 .0317326
576.807 .0317778
577.594 .0318156
578.381 .0318518
579.167 .0318874
579.952 .0319280
580.738 .0319690
581.522 .0320111
582.307 .0320545
583.091 .0321008
583.874 .0321460
584.657 .0321910
585.440 .0322336
586.222 .0322731
587.004 .0323111
587.785 .0323514
588.566 .0323886
589.346 .0324270
590.126 .0324623
590.906 .0324952
591.685 .0325218
592.464 .0325422
593.242 .0325547
594.020 .0325618
594.797 .0325651
595.575 .0325635
596.351 .0325555
597.128 .0325460
597.904 .0325333
598.679 .0325187
599.454 .0325014
600.229 .0324821
601.004 .0324593
601.778 .0324358
602.551 .0324095
603.325 .0323826
604.097 .0323559
604.870 .0323314
605.642 .0323082
606.414 .0322877
607.185 .0322693
607.956 .0322536
608.727 .0322410
609.497 .0322317
610.267 .0322238
611.037 .0322171
611.806 .0322099
612.575 .0322036
613.344 .0321957
614.112 .0321864
614.880 .0321747
615.647 .0321610
616.414 .0321452
617.181 .0321281
617.948 .0321088
618.714 .0320891
619.480 .0320687
620.245 .0320485
621.011 .0320266
621.775 .0320041
622.540 .0319808
623.304 .0319555
624.068 .0319296
624.832 .0319021
625.595 .0318725
626.358 .0318426
627.120 .0318122
627.883 .0317820
628.645 .0317540
629.406 .0317277
630.168 .0317026
630.929 .0316800
631.689 .0316583
632.450 .0316365
633.210 .0316140
633.970 .0315905
634.729 .0315661
635.489 .0315402
636.248 .0315134
637.006 .0314849
637.765 .0314574
638.523 .0314311
639.280 .0314056
640.038 .0313823
640.795 .0313604
641.552 .0313391
642.309 .0313180
643.065 .0312958
643.821 .0312716
644.577 .0312453
645.332 .0312170
646.088 .0311873
646.843 .0311572
647.597 .0311270
648.352 .0310987
649.106 .0310733
649.860 .0310508
650.613 .0310299
651.367 .0310104
652.120 .0309924
652.872 .0309749
653.625 .0309575
654.377 .0309400
655.129 .0309235
655.881 .0309079
656.632 .0308932
657.384 .0308795
658.135 .0308669
658.885 .0308547
659.636 .0308430
660.386 .0308315
661.136 .0308191
661.885 .0308060
662.635 .0307928
663.384 .0307801
664.133 .0307680
664.881 .0307565
665.630 .0307452
666.378 .0307343
667.126 .0307234
667.874 .0307105
668.621 .0306965
669.368 .0306815
670.115 .0306656
670.862 .0306486
671.608 .0306313
672.354 .0306136
673.100 .0305958
673.846 .0305785
674.591 .0305610
675.337 .0305431
676.082 .0305253
676.826 .0305066
677.571 .0304873
678.315 .0304677
679.059 .0304483
679.803 .0304297
680.547 .0304128
681.290 .0303972
682.033 .0303825
682.776 .0303687
683.518 .0303566
684.261 .0303448
685.003 .0303334
685.745 .0303216
686.487 .0303088
687.228 .0302946
687.969 .0302792
688.710 .0302621
689.451 .0302439
690.192 .0302248
690.932 .0302045
691.672 .0301824
692.412 .0301593
693.152 .0301354
693.891 .0301109
694.630 .0300859
695.369 .0300607
696.108 .0300342
696.846 .0300076
697.585 .0299807
698.323 .0299536
699.061 .0299276
699.798 .0299030
700.536 .0298801
701.273 .0298586
702.010 .0298385
702.746 .0298194
703.483 .0298013
704.219 .0297842
704.955 .0297668
705.691 .0297485
706.427 .0297296
707.162 .0297096
707.897 .0296886
708.632 .0296672
709.367 .0296452
710.101 .0296226
710.835 .0296003
711.569 .0295771
712.303 .0295538
713.037 .0295301
713.770 .0295064
714.503 .0294824
715.236 .0294585
715.969 .0294346
716.702 .0294107
717.434 .0293871
718.166 .0293641
718.898 .0293409
719.629 .0293183
720.361 .0292959
721.092 .0292734
721.823 .0292508
722.554 .0292280
723.284 .0292049
724.014 .0291816
724.744 .0291580
725.474 .0291338
726.204 .0291085
726.933 .0290821
727.662 .0290547
728.391 .0290261
729.120 .0289973
729.849 .0289685
730.577 .0289402
731.305 .0289129
732.033 .0288873
732.760 .0288637
733.488 .0288424
734.215 .0288227
734.942 .0288044
735.669 .0287867
736.395 .0287686
737.122 .0287500
737.848 .0287308
738.573 .0287115
739.299 .0286926
740.024 .0286747
740.750 .0286579
741.474 .0286421
742.199 .0286275
742.924 .0286135
743.648 .0285997
744.372 .0285856
745.096 .0285709
745.819 .0285554
746.543 .0285398
747.266 .0285245
747.989 .0285097
748.711 .0284961
749.434 .0284832
750.156 .0284711
750.878 .0284593
751.599 .0284479
752.321 .0284366
753.042 .0284253
753.763 .0284143
754.484 .0284036
755.205 .0283931
755.925 .0283836
756.645 .0283750
757.365 .0283671
758.085 .0283599
758.804 .0283524
759.523 .0283445
760.242 .0283354
760.961 .0283252
761.679 .0283138
762.397 .0283011
763.115 .0282879
763.833 .0282736
764.551 .0282592
765.268 .0282447
765.985 .0282305
766.702 .0282165
767.418 .0282023
768.134 .0281881
768.850 .0281728
769.566 .0281570
770.282 .0281404
770.997 .0281232
771.712 .0281062
772.427 .0280901
773.142 .0280748
773.856 .0280609
774.570 .0280491
775.284 .0280385
775.998 .0280289
776.711 .0280194
777.424 .0280093
778.137 .0279979
778.849 .0279850
779.562 .0279708
780.274 .0279555
780.986 .0279402
781.697 .0279245
782.409 .0279094
783.120 .0278950
783.831 .0278811
784.541 .0278681
785.252 .0278560
785.962 .0278444
786.671 .0278329
787.381 .0278221
788.090 .0278116
788.799 .0278012
789.508 .0277910
790.217 .0277807
790.925 .0277708
791.633 .0277607
792.341 .0277499
793.048 .0277383
793.755 .0277262
794.462 .0277133
795.169 .0276998
795.875 .0276860
796.581 .0276713
797.287 .0276566
797.993 .0276415
798.698 .0276264
799.403 .0276116
800.108 .0275972
800.812 .0275837
801.517 .0275711
802.221 .0275591
802.924 .0275476
803.628 .0275366
804.331 .0275267
805.034 .0275170
805.736 .0275076
806.439 .0274981
807.141 .0274887
807.843 .0274799
808.544 .0274715
809.245 .0274633
809.946 .0274550
810.647 .0274467
811.347 .0274379
812.047 .0274281
812.747 .0274170
813.447 .0274048
814.146 .0273916
814.845 .0273774
815.543 .0273625
816.242 .0273468
816.940 .0273314
817.638 .0273164
818.335 .0273014
819.032 .0272866
819.729 .0272712
820.426 .0272559
821.122 .0272393
821.818 .0272219
822.514 .0272034
823.209 .0271840
823.905 .0271646
824.599 .0271450
825.294 .0271258
825.988 .0271073
826.682 .0270901
827.376 .0270741
828.069 .0270592
828.762 .0270457
829.455 .0270327
830.147 .0270201
830.840 .0270080
831.531 .0269957
832.223 .0269830
832.914 .0269704
833.605 .0269581
834.296 .0269458
834.986 .0269341
835.676 .0269227
836.366 .0269119
837.055 .0269010
837.744 .0268898
838.433 .0268770
839.121 .0268631
839.809 .0268480
840.497 .0268312
841.185 .0268133
841.872 .0267950
842.559 .0267766
843.245 .0267582
843.932 .0267399
844.617 .0267220
845.303 .0267040
845.988 .0266860
846.673 .0266675
847.358 .0266490
848.042 .0266307
848.726 .0266132
849.410 .0265963
850.093 .0265806
850.776 .0265663
851.459 .0265528
852.141 .0265398
852.823 .0265275
853.505 .0265154
854.186 .0265033
854.867 .0264908
855.548 .0264778
856.228 .0264644
856.908 .0264508
857.588 .0264363
858.267 .0264213
858.946 .0264059
859.625 .0263902
860.303 .0263738
860.981 .0263577
861.659 .0263418
862.336 .0263259
863.013 .0263109
863.690 .0262962
864.366 .0262821
865.042 .0262693
865.718 .0262577
866.393 .0262472
867.068 .0262381
867.743 .0262300
868.417 .0262223
869.091 .0262153
869.765 .0262088
870.438 .0262015
871.111 .0261943
871.783 .0261868
872.456 .0261791
873.127 .0261709
873.799 .0261621
874.470 .0261517
875.141 .0261404
875.811 .0261272
876.481 .0261119
877.151 .0260951
877.820 .0260777
878.489 .0260605
879.158 .0260438
879.826 .0260283
880.494 .0260141
881.162 .0260009
881.829 .0259888
882.496 .0259763
883.163 .0259635
883.829 .0259505
884.495 .0259376
885.160 .0259257
885.825 .0259148
886.490 .0259060
887.154 .0258996
887.818 .0258953
888.482 .0258922
889.145 .0258897
889.808 .0258872
890.471 .0258841
891.133 .0258801
891.795 .0258759
892.456 .0258712
893.117 .0258668
893.778 .0258628
894.439 .0258596
895.099 .0258565
895.758 .0258537
896.417 .0258502
897.076 .0258463
897.735 .0258412
898.393 .0258348
899.051 .0258269
899.708 .0258180
900.365 .0258081
901.022 .0257970
901.678 .0257852
902.334 .0257732
902.990 .0257607
903.645 .0257487
904.300 .0257364
904.954 .0257243
905.608 .0257117
906.262 .0256992
906.915 .0256867
907.568 .0256744
908.221 .0256632
908.873 .0256533
909.525 .0256448
910.176 .0256372
910.828 .0256306
911.478 .0256248
912.129 .0256188
912.778 .0256122
913.428 .0256044
914.077 .0255952
914.726 .0255843
915.375 .0255720
916.023 .0255590
916.670 .0255464
917.318 .0255339
917.964 .0255212
918.611 .0255087
919.257 .0254957
919.903 .0254818
920.548 .0254668
921.193 .0254516
921.838 .0254360
922.482 .0254201
923.126 .0254049
923.770 .0253910
924.413 .0253792
925.056 .0253701
925.698 .0253636
926.340 .0253603
926.982 .0253588
927.623 .0253581
928.264 .0253573
928.904 .0253564
929.544 .0253541
930.184 .0253500
930.823 .0253440
931.462 .0253368
932.101 .0253282
932.739 .0253189
933.377 .0253090
934.014 .0252992
934.651 .0252902
935.288 .0252807
935.924 .0252701
936.560 .0252589
937.196 .0252459
937.831 .0252316
938.466 .0252155
939.100 .0251985
939.734 .0251799
940.368 .0251610
941.001 .0251419
941.634 .0251231
942.266 .0251057
942.899 .0250894
943.530 .0250739
944.162 .0250595
944.793 .0250451
945.423 .0250296
946.053 .0250131
946.683 .0249958
947.313 .0249771
947.942 .0249571
948.571 .0249360
949.199 .0249148
949.827 .0248937
950.455 .0248731
951.082 .0248534
951.709 .0248351
952.335 .0248185
952.961 .0248028
953.587 .0247880
954.212 .0247739
954.837 .0247605
955.462 .0247473
956.086 .0247344
956.710 .0247223
957.334 .0247108
957.957 .0246998
958.579 .0246899
959.202 .0246814
959.824 .0246737
960.445 .0246674
961.067 .0246622
961.688 .0246577
962.308 .0246538
962.928 .0246498
963.548 .0246450
964.168 .0246395
964.787 .0246330
965.406 .0246248
966.024 .0246155
966.642 .0246057
967.260 .0245944
967.877 .0245822
968.494 .0245695
969.110 .0245562
969.727 .0245421
970.342 .0245285
970.958 .0245147
971.573 .0245016
972.188 .0244898
972.802 .0244793
973.416 .0244693
974.030 .0244605
974.643 .0244519
975.256 .0244429
975.869 .0244334
976.481 .0244239
977.093 .0244140
977.705 .0244056
978.316 .0243989
978.927 .0243946
979.538 .0243926
980.148 .0243932
980.758 .0243948
981.367 .0243971
981.977 .0243993
982.586 .0244005
983.194 .0244000
983.802 .0243991
984.410 .0243961
985.018 .0243930
985.625 .0243897
986.232 .0243872
986.838 .0243854
987.445 .0243838
988.050 .0243814
988.656 .0243776
989.261 .0243719
989.866 .0243631
990.471 .0243514
991.075 .0243374
991.679 .0243205
992.282 .0243021
992.886 .0242830
993.489 .0242643
994.091 .0242468
994.694 .0242324
995.296 .0242190
995.897 .0242075
996.499 .0241981
997.100 .0241894
997.701 .0241828
998.301 .0241781
998.901 .0241747
999.501 .0241732
1000.101 .0241743
1000.700 .0241768
1001.299 .0241809
1001.898 .0241878
1002.496 .0241956
1003.094 .0242040
1003.692 .0242129
1004.289 .0242205
1004.887 .0242266
1005.484 .0242327
1006.080 .0242380
1006.677 .0242411
1007.273 .0242429
1007.868 .0242423
1008.464 .0242406
1009.059 .0242386
1009.654 .0242363
1010.249 .0242348
1010.843 .0242348
1011.437 .0242366
1012.031 .0242389
1012.625 .0242418
1013.218 .0242451
1013.811 .0242467
1014.404 .0242468
1014.997 .0242452
1015.589 .0242413
1016.181 .0242374
1016.773 .0242341
1017.365 .0242330
1017.956 .0242333
1018.547 .0242352
1019.138 .0242375
1019.728 .0242406
1020.319 .0242428
1020.909 .0242444
1021.499 .0242434
1022.088 .0242418
1022.678 .0242392
1023.267 .0242364
1023.856 .0242336
1024.445 .0242314
1025.033 .0242300
1025.621 .0242293
1026.209 .0242276
1026.797 .0242260
1027.385 .0242230
1027.972 .0242206
1028.560 .0242174
1029.147 .0242145
1029.734 .0242116
1030.320 .0242088
1030.907 .0242061
1031.493 .0242036
1032.079 .0242010
1032.665 .0241986
1033.250 .0241954
1033.836 .0241932
1034.421 .0241924
1035.006 .0241927
1035.591 .0241940
1036.176 .0241969
1036.761 .0241998
1037.345 .0242018
1037.929 .0242013
1038.514 .0241993
1039.097 .0241952
1039.681 .0241888
1040.265 .0241808
1040.848 .0241710
1041.432 .0241613
1042.015 .0241513
1042.598 .0241407
1043.181 .0241302
1043.764 .0241192
1044.346 .0241079
1044.929 .0240961
1045.511 .0240837
1046.094 .0240713
1046.676 .0240590
1047.258 .0240475
1047.840 .0240367
1048.422 .0240263
1049.003 .0240168
1049.585 .0240080
1050.166 .0239988
1050.748 .0239895
1051.329 .0239794
1051.910 .0239696
1052.491 .0239595
1053.072 .0239494
1053.653 .0239414
1054.234 .0239358
1054.815 .0239316
1055.396 .0239312
1055.976 .0239340
1056.557 .0239391
1057.138 .0239451
1057.718 .0239515
1058.298 .0239574
1058.879 .0239622
1059.459 .0239664
1060.039 .0239702
1060.620 .0239744
1061.200 .0239807
1061.780 .0239873
1062.360 .0239961
1062.940 .0240074
1063.520 .0240178
1064.101 .0240243
1064.681 .0240284
1065.261 .0240273
1065.841 .0240191
1066.421 .0240067
1067.001 .0239917
1067.581 .0239751
1068.161 .0239585
1068.741 .0239434
1069.321 .0239292
1069.901 .0239177
1070.482 .0239080
1071.062 .0238975
1071.642 .0238874
1072.222 .0238763
1072.803 .0238630
1073.383 .0238498
1073.963 .0238382
1074.544 .0238262
1075.124 .0238130
1075.705 .0238019
1076.286 .0237881
1076.866 .0237739
1077.447 .0237588
1078.028 .0237421
1078.609 .0237261
1079.190 .0237121
1079.771 .0237005
1080.352 .0236913
1080.934 .0236865
1081.515 .0236862
1082.097 .0236872
1082.679 .0236903
1083.260 .0236914
1083.842 .0236897
1084.424 .0236877
1085.007 .0236843
1085.589 .0236792
1086.172 .0236768
1086.754 .0236784
1087.337 .0236843
1087.920 .0236957
1088.503 .0237106
1089.087 .0237256
1089.670 .0237384
1090.254 .0237494
1090.838 .0237551
1091.422 .0237563
1092.006 .0237557
1092.590 .0237531
1093.175 .0237521
1093.760 .0237520
1094.345 .0237507
1094.930 .0237504
1095.516 .0237517
1096.102 .0237541
1096.688 .0237567
1097.274 .0237625
1097.860 .0237702
1098.447 .0237778
1099.034 .0237878
1099.622 .0237938
1100.209 .0237948
1100.797 .0237903
1101.385 .0237788
1101.973 .0237620
1102.562 .0237421
1103.151 .0237199
1103.740 .0236987
1104.330 .0236810
1104.920 .0236661
1105.510 .0236497
1106.101 .0236346
1106.691 .0236175
1107.283 .0235976
1107.874 .0235757
1108.466 .0235520
1109.058 .0235271
1109.651 .0235051
1110.244 .0234873
1110.837 .0234734
1111.431 .0234619
1112.025 .0234531
1112.620 .0234458
1113.215 .0234395
1113.810 .0234359
1114.406 .0234347
1115.002 .0234371
1115.599 .0234480
1116.196 .0234630
1116.793 .0234830
1117.391 .0235075
1117.989 .0235391
1118.588 .0235782
1119.187 .0236215
1119.787 .0236725
1120.387 .0237269
1120.988 .0237867
1121.589 .0238513
1122.190 .0239144
1122.793 .0239748
1123.395 .0240318
1123.998 .0240866
1124.602 .0241384
1125.206 .0241857
1125.811 .0242322
1126.416 .0242778
1127.022 .0243222
1127.628 .0243592
1128.235 .0243861
1128.843 .0244055
1129.451 .0244196
1130.059 .0244270
1130.669 .0244339
1131.278 .0244443
1131.889 .0244604
1132.500 .0244861
1133.112 .0245187
1133.724 .0245635
1134.337 .0246160
1134.950 .0246751
1135.564 .0247439
1136.179 .0248149
1136.795 .0248878
1137.411 .0249602
1138.028 .0250336
1138.645 .0251079
1139.263 .0251813
1139.882 .0252538
1140.502 .0253291
1141.122 .0254075
1141.743 .0254806
1142.365 .0255477
1142.987 .0256449
1143.611 .0258273
1144.235 .0257869
1144.859 .0256691
1145.485 .0257562
