Measurement Sequence started on: 10-20-44-796
Integration time: 35
Scans to Average: 2 
>>>>>Begin Spectral Data<<<<<
432.953 .0396497
433.882 .0377966
434.810 .0365050
435.737 .0359727
436.662 .0360303
437.586 .0368535
438.509 .0367508
439.431 .0367301
440.351 .0367511
441.269 .0367760
442.187 .0367927
443.103 .0367674
444.018 .0367521
444.932 .0367336
445.844 .0366869
446.756 .0366030
447.666 .0364923
448.575 .0363674
449.482 .0362504
450.388 .0361501
451.294 .0360807
452.198 .0360365
453.100 .0360100
454.002 .0360050
454.902 .0360013
455.801 .0359941
456.699 .0359737
457.596 .0359481
458.492 .0359086
459.387 .0358635
460.280 .0358169
461.172 .0357708
462.064 .0357298
462.954 .0356910
463.843 .0356368
464.730 .0355757
465.617 .0355086
466.503 .0354280
467.387 .0353324
468.271 .0352283
469.153 .0351172
470.035 .0349990
470.915 .0348822
471.794 .0347673
472.673 .0346559
473.550 .0345538
474.426 .0344632
475.301 .0343841
476.175 .0343189
477.048 .0342672
477.920 .0342224
478.791 .0341874
479.661 .0341599
480.530 .0341326
481.398 .0341105
482.266 .0340965
483.132 .0340884
483.997 .0340831
484.861 .0340855
485.724 .0340953
486.587 .0341077
487.448 .0341204
488.308 .0341326
489.168 .0341417
490.026 .0341482
490.884 .0341505
491.741 .0341487
492.597 .0341451
493.452 .0341413
494.306 .0341332
495.159 .0341213
496.011 .0341030
496.862 .0340771
497.713 .0340397
498.562 .0339935
499.411 .0339412
500.259 .0338806
501.106 .0338186
501.952 .0337600
502.798 .0337025
503.642 .0336495
504.486 .0336015
505.329 .0335581
506.171 .0335163
507.012 .0334772
507.852 .0334353
508.692 .0333837
509.531 .0333265
510.369 .0332609
511.206 .0331882
512.043 .0331100
512.878 .0330259
513.713 .0329303
514.547 .0328311
515.381 .0327269
516.213 .0326132
517.045 .0324927
517.876 .0323635
518.706 .0322149
519.536 .0320507
520.365 .0318695
521.193 .0316782
522.020 .0314850
522.847 .0312987
523.673 .0311164
524.498 .0309416
525.323 .0307716
526.146 .0306079
526.969 .0304489
527.792 .0302961
528.614 .0301362
529.435 .0299721
530.255 .0298041
531.075 .0296289
531.894 .0294540
532.712 .0292789
533.530 .0290991
534.347 .0289216
535.163 .0287420
535.979 .0285631
536.794 .0284017
537.608 .0282645
538.422 .0281588
539.235 .0280842
540.048 .0280455
540.860 .0280297
541.671 .0280349
542.481 .0280582
543.292 .0280950
544.101 .0281387
544.910 .0281930
545.718 .0282471
546.526 .0283123
547.333 .0283808
548.139 .0284544
548.945 .0285260
549.750 .0285947
550.555 .0286505
551.359 .0286955
552.162 .0287233
552.965 .0287445
553.768 .0287562
554.569 .0287638
555.371 .0287652
556.171 .0287671
556.972 .0287662
557.771 .0287605
558.570 .0287558
559.369 .0287532
560.167 .0287515
560.964 .0287600
561.761 .0287761
562.558 .0288088
563.354 .0288583
564.149 .0289216
564.944 .0289921
565.738 .0290691
566.532 .0291499
567.325 .0292302
568.118 .0293096
568.910 .0293889
569.702 .0294683
570.494 .0295509
571.285 .0296383
572.075 .0297318
572.865 .0298309
573.654 .0299326
574.443 .0300311
575.232 .0301231
576.020 .0302050
576.807 .0302732
577.594 .0303298
578.381 .0303748
579.167 .0304107
579.952 .0304395
580.738 .0304642
581.522 .0304902
582.307 .0305181
583.091 .0305475
583.874 .0305761
584.657 .0306019
585.440 .0306252
586.222 .0306406
587.004 .0306506
587.785 .0306562
588.566 .0306588
589.346 .0306619
590.126 .0306667
590.906 .0306742
591.685 .0306855
592.464 .0307012
593.242 .0307204
594.020 .0307405
594.797 .0307612
595.575 .0307815
596.351 .0308002
597.128 .0308173
597.904 .0308335
598.679 .0308482
599.454 .0308613
600.229 .0308733
601.004 .0308823
601.778 .0308889
602.551 .0308916
603.325 .0308914
604.097 .0308878
604.870 .0308828
605.642 .0308756
606.414 .0308668
607.185 .0308572
607.956 .0308478
608.727 .0308365
609.497 .0308242
610.267 .0308105
611.037 .0307962
611.806 .0307804
612.575 .0307650
613.344 .0307487
614.112 .0307336
614.880 .0307188
615.647 .0307047
616.414 .0306903
617.181 .0306763
617.948 .0306604
618.714 .0306430
619.480 .0306236
620.245 .0306028
621.011 .0305794
621.775 .0305550
622.540 .0305295
623.304 .0305039
624.068 .0304776
624.832 .0304519
625.595 .0304262
626.358 .0304013
627.120 .0303760
627.883 .0303502
628.645 .0303244
629.406 .0302986
630.168 .0302726
630.929 .0302476
631.689 .0302230
632.450 .0301981
633.210 .0301728
633.970 .0301468
634.729 .0301201
635.489 .0300924
636.248 .0300634
637.006 .0300333
637.765 .0300020
638.523 .0299701
639.280 .0299380
640.038 .0299069
640.795 .0298771
641.552 .0298484
642.309 .0298209
643.065 .0297945
643.821 .0297687
644.577 .0297443
645.332 .0297213
646.088 .0296993
646.843 .0296782
647.597 .0296577
648.352 .0296379
649.106 .0296193
649.860 .0296012
650.613 .0295835
651.367 .0295660
652.120 .0295483
652.872 .0295305
653.625 .0295123
654.377 .0294947
655.129 .0294780
655.881 .0294622
656.632 .0294473
657.384 .0294321
658.135 .0294172
658.885 .0294025
659.636 .0293882
660.386 .0293744
661.136 .0293614
661.885 .0293490
662.635 .0293384
663.384 .0293296
664.133 .0293229
664.881 .0293189
665.630 .0293165
666.378 .0293145
667.126 .0293116
667.874 .0293073
668.621 .0293003
669.368 .0292900
670.115 .0292774
670.862 .0292623
671.608 .0292462
672.354 .0292302
673.100 .0292148
673.846 .0292008
674.591 .0291887
675.337 .0291770
676.082 .0291651
676.826 .0291528
677.571 .0291381
678.315 .0291211
679.059 .0291033
679.803 .0290840
680.547 .0290650
681.290 .0290475
682.033 .0290325
682.776 .0290196
683.518 .0290094
684.261 .0290001
685.003 .0289903
685.745 .0289792
686.487 .0289658
687.228 .0289486
687.969 .0289299
688.710 .0289095
689.451 .0288885
690.192 .0288690
690.932 .0288507
691.672 .0288336
692.412 .0288179
693.152 .0288020
693.891 .0287854
694.630 .0287667
695.369 .0287466
696.108 .0287247
696.846 .0287021
697.585 .0286798
698.323 .0286580
699.061 .0286382
699.798 .0286207
700.536 .0286044
701.273 .0285890
702.010 .0285735
702.746 .0285569
703.483 .0285394
704.219 .0285206
704.955 .0285003
705.691 .0284795
706.427 .0284584
707.162 .0284377
707.897 .0284172
708.632 .0283974
709.367 .0283778
710.101 .0283584
710.835 .0283394
711.569 .0283193
712.303 .0282989
713.037 .0282787
713.770 .0282590
714.503 .0282395
715.236 .0282205
715.969 .0282020
716.702 .0281845
717.434 .0281679
718.166 .0281514
718.898 .0281352
719.629 .0281195
720.361 .0281037
721.092 .0280871
721.823 .0280697
722.554 .0280511
723.284 .0280313
724.014 .0280098
724.744 .0279861
725.474 .0279601
726.204 .0279324
726.933 .0279035
727.662 .0278739
728.391 .0278442
729.120 .0278149
729.849 .0277864
730.577 .0277588
731.305 .0277314
732.033 .0277042
732.760 .0276765
733.488 .0276492
734.215 .0276212
734.942 .0275932
735.669 .0275653
736.395 .0275388
737.122 .0275139
737.848 .0274907
738.573 .0274695
739.299 .0274499
740.024 .0274320
740.750 .0274151
741.474 .0273984
742.199 .0273821
742.924 .0273659
743.648 .0273498
744.372 .0273329
745.096 .0273166
745.819 .0273004
746.543 .0272850
747.266 .0272702
747.989 .0272562
748.711 .0272434
749.434 .0272310
750.156 .0272195
750.878 .0272081
751.599 .0271980
752.321 .0271882
753.042 .0271788
753.763 .0271708
754.484 .0271637
755.205 .0271575
755.925 .0271524
756.645 .0271481
757.365 .0271446
758.085 .0271419
758.804 .0271390
759.523 .0271357
760.242 .0271325
760.961 .0271276
761.679 .0271216
762.397 .0271138
763.115 .0271046
763.833 .0270925
764.551 .0270789
765.268 .0270632
765.985 .0270456
766.702 .0270271
767.418 .0270080
768.134 .0269889
768.850 .0269707
769.566 .0269523
770.282 .0269343
770.997 .0269174
771.712 .0269018
772.427 .0268861
773.142 .0268719
773.856 .0268582
774.570 .0268458
775.284 .0268346
775.998 .0268242
776.711 .0268150
777.424 .0268072
778.137 .0267996
778.849 .0267914
779.562 .0267828
780.274 .0267741
780.986 .0267647
781.697 .0267560
782.409 .0267476
783.120 .0267397
783.831 .0267326
784.541 .0267262
785.252 .0267202
785.962 .0267145
786.671 .0267081
787.381 .0267011
788.090 .0266936
788.799 .0266857
789.508 .0266770
790.217 .0266682
790.925 .0266598
791.633 .0266516
792.341 .0266425
793.048 .0266327
793.755 .0266221
794.462 .0266106
795.169 .0265982
795.875 .0265856
796.581 .0265737
797.287 .0265629
797.993 .0265536
798.698 .0265459
799.403 .0265392
800.108 .0265335
800.812 .0265267
801.517 .0265195
802.221 .0265114
802.924 .0265024
803.628 .0264931
804.331 .0264850
805.034 .0264787
805.736 .0264747
806.439 .0264725
807.141 .0264719
807.843 .0264716
808.544 .0264709
809.245 .0264679
809.946 .0264625
810.647 .0264545
811.347 .0264450
812.047 .0264340
812.747 .0264235
813.447 .0264129
814.146 .0264033
814.845 .0263946
815.543 .0263866
816.242 .0263780
816.940 .0263684
817.638 .0263566
818.335 .0263429
819.032 .0263270
819.729 .0263097
820.426 .0262911
821.122 .0262726
821.818 .0262547
822.514 .0262377
823.209 .0262211
823.905 .0262056
824.599 .0261901
825.294 .0261749
825.988 .0261590
826.682 .0261423
827.376 .0261248
828.069 .0261071
828.762 .0260894
829.455 .0260714
830.147 .0260538
830.840 .0260371
831.531 .0260210
832.223 .0260056
832.914 .0259903
833.605 .0259750
834.296 .0259597
834.986 .0259440
835.676 .0259275
836.366 .0259104
837.055 .0258929
837.744 .0258749
838.433 .0258567
839.121 .0258382
839.809 .0258194
840.497 .0258007
841.185 .0257823
841.872 .0257636
842.559 .0257450
843.245 .0257267
843.932 .0257086
844.617 .0256914
845.303 .0256745
845.988 .0256578
846.673 .0256417
847.358 .0256261
848.042 .0256105
848.726 .0255948
849.410 .0255795
850.093 .0255642
850.776 .0255491
851.459 .0255345
852.141 .0255198
852.823 .0255054
853.505 .0254914
854.186 .0254775
854.867 .0254632
855.548 .0254489
856.228 .0254342
856.908 .0254194
857.588 .0254050
858.267 .0253900
858.946 .0253747
859.625 .0253597
860.303 .0253447
860.981 .0253292
861.659 .0253131
862.336 .0252960
863.013 .0252783
863.690 .0252601
864.366 .0252411
865.042 .0252220
865.718 .0252037
866.393 .0251860
867.068 .0251693
867.743 .0251533
868.417 .0251377
869.091 .0251226
869.765 .0251084
870.438 .0250942
871.111 .0250804
871.783 .0250674
872.456 .0250545
873.127 .0250421
873.799 .0250301
874.470 .0250176
875.141 .0250040
875.811 .0249895
876.481 .0249733
877.151 .0249550
877.820 .0249351
878.489 .0249138
879.158 .0248910
879.826 .0248678
880.494 .0248440
881.162 .0248201
881.829 .0247968
882.496 .0247741
883.163 .0247518
883.829 .0247307
884.495 .0247110
885.160 .0246935
885.825 .0246786
886.490 .0246672
887.154 .0246585
887.818 .0246530
888.482 .0246498
889.145 .0246485
889.808 .0246488
890.471 .0246501
891.133 .0246516
891.795 .0246538
892.456 .0246562
893.117 .0246590
893.778 .0246619
894.439 .0246649
895.099 .0246674
895.758 .0246692
896.417 .0246693
897.076 .0246676
897.735 .0246645
898.393 .0246605
899.051 .0246555
899.708 .0246496
900.365 .0246431
901.022 .0246355
901.678 .0246275
902.334 .0246188
902.990 .0246095
903.645 .0246000
904.300 .0245904
904.954 .0245806
905.608 .0245710
906.262 .0245624
906.915 .0245549
907.568 .0245480
908.221 .0245417
908.873 .0245352
909.525 .0245283
910.176 .0245211
910.828 .0245140
911.478 .0245066
912.129 .0244995
912.778 .0244931
913.428 .0244871
914.077 .0244812
914.726 .0244751
915.375 .0244680
916.023 .0244600
916.670 .0244511
917.318 .0244412
917.964 .0244310
918.611 .0244220
919.257 .0244144
919.903 .0244081
920.548 .0244035
921.193 .0244002
921.838 .0243976
922.482 .0243952
923.126 .0243928
923.770 .0243899
924.413 .0243868
925.056 .0243840
925.698 .0243816
926.340 .0243800
926.982 .0243796
927.623 .0243799
928.264 .0243807
928.904 .0243813
929.544 .0243815
930.184 .0243804
930.823 .0243788
931.462 .0243764
932.101 .0243731
932.739 .0243700
933.377 .0243669
934.014 .0243637
934.651 .0243607
935.288 .0243576
935.924 .0243538
936.560 .0243490
937.196 .0243436
937.831 .0243369
938.466 .0243291
939.100 .0243204
939.734 .0243108
940.368 .0243006
941.001 .0242901
941.634 .0242795
942.266 .0242692
942.899 .0242597
943.530 .0242499
944.162 .0242406
944.793 .0242320
945.423 .0242232
946.053 .0242142
946.683 .0242050
947.313 .0241964
947.942 .0241881
948.571 .0241804
949.199 .0241734
949.827 .0241673
950.455 .0241617
951.082 .0241557
951.709 .0241489
952.335 .0241412
952.961 .0241321
953.587 .0241214
954.212 .0241098
954.837 .0240976
955.462 .0240845
956.086 .0240715
956.710 .0240592
957.334 .0240473
957.957 .0240356
958.579 .0240242
959.202 .0240129
959.824 .0240015
960.445 .0239902
961.067 .0239793
961.688 .0239686
962.308 .0239587
962.928 .0239490
963.548 .0239388
964.168 .0239286
964.787 .0239176
965.406 .0239060
966.024 .0238945
966.642 .0238830
967.260 .0238720
967.877 .0238618
968.494 .0238528
969.110 .0238447
969.727 .0238368
970.342 .0238298
970.958 .0238225
971.573 .0238151
972.188 .0238087
972.802 .0238034
973.416 .0237995
974.030 .0237977
974.643 .0237979
975.256 .0238003
975.869 .0238038
976.481 .0238075
977.093 .0238109
977.705 .0238144
978.316 .0238178
978.927 .0238204
979.538 .0238225
980.148 .0238250
980.758 .0238270
981.367 .0238289
981.977 .0238306
982.586 .0238314
983.194 .0238315
983.802 .0238306
984.410 .0238284
985.018 .0238252
985.625 .0238212
986.232 .0238168
986.838 .0238124
987.445 .0238083
988.050 .0238034
988.656 .0237978
989.261 .0237917
989.866 .0237846
990.471 .0237760
991.075 .0237668
991.679 .0237564
992.282 .0237448
992.886 .0237330
993.489 .0237204
994.091 .0237079
994.694 .0236961
995.296 .0236848
995.897 .0236732
996.499 .0236621
997.100 .0236509
997.701 .0236393
998.301 .0236281
998.901 .0236185
999.501 .0236102
1000.101 .0236034
1000.700 .0235981
1001.299 .0235938
1001.898 .0235912
1002.496 .0235896
1003.094 .0235874
1003.692 .0235854
1004.289 .0235833
1004.887 .0235811
1005.484 .0235785
1006.080 .0235765
1006.677 .0235760
1007.273 .0235761
1007.868 .0235774
1008.464 .0235788
1009.059 .0235799
1009.654 .0235799
1010.249 .0235795
1010.843 .0235786
1011.437 .0235775
1012.031 .0235761
1012.625 .0235760
1013.218 .0235770
1013.811 .0235792
1014.404 .0235813
1014.997 .0235829
1015.589 .0235833
1016.181 .0235815
1016.773 .0235756
1017.365 .0235674
1017.956 .0235567
1018.547 .0235454
1019.138 .0235334
1019.728 .0235229
1020.319 .0235141
1020.909 .0235073
1021.499 .0235018
1022.088 .0234973
1022.678 .0234921
1023.267 .0234865
1023.856 .0234785
1024.445 .0234703
1025.033 .0234617
1025.621 .0234537
1026.209 .0234467
1026.797 .0234407
1027.385 .0234361
1027.972 .0234321
1028.560 .0234272
1029.147 .0234213
1029.734 .0234133
1030.320 .0234033
1030.907 .0233906
1031.493 .0233765
1032.079 .0233617
1032.665 .0233470
1033.250 .0233333
1033.836 .0233204
1034.421 .0233077
1035.006 .0232954
1035.591 .0232823
1036.176 .0232683
1036.761 .0232548
1037.345 .0232405
1037.929 .0232273
1038.514 .0232149
1039.097 .0232043
1039.681 .0231965
1040.265 .0231910
1040.848 .0231881
1041.432 .0231863
1042.015 .0231851
1042.598 .0231836
1043.181 .0231799
1043.764 .0231745
1044.346 .0231673
1044.929 .0231591
1045.511 .0231508
1046.094 .0231419
1046.676 .0231339
1047.258 .0231261
1047.840 .0231186
1048.422 .0231108
1049.003 .0231014
1049.585 .0230892
1050.166 .0230739
1050.748 .0230551
1051.329 .0230348
1051.910 .0230124
1052.491 .0229899
1053.072 .0229691
1053.653 .0229527
1054.234 .0229387
1054.815 .0229288
1055.396 .0229219
1055.976 .0229187
1056.557 .0229167
1057.138 .0229152
1057.718 .0229121
1058.298 .0229083
1058.879 .0229040
1059.459 .0228983
1060.039 .0228912
1060.620 .0228840
1061.200 .0228747
1061.780 .0228650
1062.360 .0228536
1062.940 .0228409
1063.520 .0228265
1064.101 .0228129
1064.681 .0227990
1065.261 .0227865
1065.841 .0227772
1066.421 .0227718
1067.001 .0227702
1067.581 .0227723
1068.161 .0227769
1068.741 .0227835
1069.321 .0227918
1069.901 .0228012
1070.482 .0228105
1071.062 .0228218
1071.642 .0228320
1072.222 .0228420
1072.803 .0228497
1073.383 .0228560
1073.963 .0228583
1074.544 .0228566
1075.124 .0228498
1075.705 .0228380
1076.286 .0228219
1076.866 .0228044
1077.447 .0227857
1078.028 .0227696
1078.609 .0227540
1079.190 .0227405
1079.771 .0227283
1080.352 .0227170
1080.934 .0227030
1081.515 .0226907
1082.097 .0226804
1082.679 .0226736
1083.260 .0226693
1083.842 .0226690
1084.424 .0226709
1085.007 .0226746
1085.589 .0226756
1086.172 .0226715
1086.754 .0226635
1087.337 .0226542
1087.920 .0226416
1088.503 .0226312
1089.087 .0226246
1089.670 .0226244
1090.254 .0226286
1090.838 .0226366
1091.422 .0226446
1092.006 .0226479
1092.590 .0226469
1093.175 .0226395
1093.760 .0226270
1094.345 .0226117
1094.930 .0225949
1095.516 .0225790
1096.102 .0225666
1096.688 .0225553
1097.274 .0225450
1097.860 .0225344
1098.447 .0225200
1099.034 .0224995
1099.622 .0224720
1100.209 .0224418
1100.797 .0224112
1101.385 .0223816
1101.973 .0223575
1102.562 .0223390
1103.151 .0223285
1103.740 .0223237
1104.330 .0223235
1104.920 .0223288
1105.510 .0223372
1106.101 .0223472
1106.691 .0223556
1107.283 .0223621
1107.874 .0223682
1108.466 .0223728
1109.058 .0223750
1109.651 .0223752
1110.244 .0223730
1110.837 .0223708
1111.431 .0223695
1112.025 .0223716
1112.620 .0223794
1113.215 .0223907
1113.810 .0224051
1114.406 .0224213
1115.002 .0224383
1115.599 .0224547
1116.196 .0224718
1116.793 .0224876
1117.391 .0225048
1117.989 .0225230
1118.588 .0225446
1119.187 .0225684
1119.787 .0225984
1120.387 .0226289
1120.988 .0226579
1121.589 .0226833
1122.190 .0227026
1122.793 .0227133
1123.395 .0227224
1123.998 .0227282
1124.602 .0227350
1125.206 .0227417
1125.811 .0227530
1126.416 .0227609
1127.022 .0227720
1127.628 .0227748
1128.235 .0227681
1128.843 .0227562
1129.451 .0227445
1130.059 .0227286
1130.669 .0227263
1131.278 .0227358
1131.889 .0227582
1132.500 .0227894
1133.112 .0228242
1133.724 .0228491
1134.337 .0228674
1134.950 .0228743
1135.564 .0228684
1136.179 .0228559
1136.795 .0228498
1137.411 .0228454
1138.028 .0228582
1138.645 .0228847
1139.263 .0229185
1139.882 .0229440
1140.502 .0229700
1141.122 .0229969
1141.743 .0230117
1142.365 .0230141
1142.987 .0227210
1143.611 .0229613
1144.235 .0232955
1144.859 .0230638
1145.485 .0228331
