Measurement Sequence started on: 10-20-44-796
Integration time: 35
Scans to Average: 2 
>>>>>Begin Spectral Data<<<<<
432.953 .0340338
433.882 .0331816
434.810 .0318112
435.737 .0350396
436.662 .0356453
437.586 .0355645
438.509 .0359889
439.431 .0364034
440.351 .0367820
441.269 .0370379
442.187 .0372614
443.103 .0374548
444.018 .0376498
444.932 .0377864
445.844 .0378933
446.756 .0379605
447.666 .0380064
448.575 .0380072
449.482 .0379795
450.388 .0379488
451.294 .0379010
452.198 .0378421
453.100 .0377734
454.002 .0376940
454.902 .0376195
455.801 .0375463
456.699 .0374756
457.596 .0374042
458.492 .0373377
459.387 .0372650
460.280 .0371887
461.172 .0371048
462.064 .0370172
462.954 .0369198
463.843 .0368250
464.730 .0367310
465.617 .0366396
466.503 .0365520
467.387 .0364662
468.271 .0363823
469.153 .0363047
470.035 .0362227
470.915 .0361468
471.794 .0360713
472.673 .0360020
473.550 .0359412
474.426 .0358916
475.301 .0358505
476.175 .0358188
477.048 .0357982
477.920 .0357844
478.791 .0357743
479.661 .0357690
480.530 .0357646
481.398 .0357664
482.266 .0357726
483.132 .0357811
483.997 .0357881
484.861 .0357971
485.724 .0358055
486.587 .0358112
487.448 .0358119
488.308 .0358047
489.168 .0357898
490.026 .0357677
490.884 .0357373
491.741 .0356968
492.597 .0356533
493.452 .0356074
494.306 .0355603
495.159 .0355139
496.011 .0354653
496.862 .0354162
497.713 .0353636
498.562 .0353062
499.411 .0352407
500.259 .0351653
501.106 .0350833
501.952 .0349955
502.798 .0349033
503.642 .0348071
504.486 .0347106
505.329 .0346143
506.171 .0345165
507.012 .0344117
507.852 .0343017
508.692 .0341830
509.531 .0340574
510.369 .0339260
511.206 .0337899
512.043 .0336532
512.878 .0335154
513.713 .0333727
514.547 .0332317
515.381 .0330923
516.213 .0329518
517.045 .0328084
517.876 .0326655
518.706 .0325200
519.536 .0323766
520.365 .0322370
521.193 .0321026
522.020 .0319707
522.847 .0318404
523.673 .0316993
524.498 .0315500
525.323 .0313905
526.146 .0312202
526.969 .0310435
527.792 .0308647
528.614 .0306782
529.435 .0304912
530.255 .0303020
531.075 .0301135
531.894 .0299297
532.712 .0297461
533.530 .0295592
534.347 .0293740
535.163 .0291977
535.979 .0290354
536.794 .0288951
537.608 .0287868
538.422 .0287036
539.235 .0286493
540.048 .0286173
540.860 .0285985
541.671 .0286015
542.481 .0286193
543.292 .0286446
544.101 .0286751
544.910 .0287166
545.718 .0287649
546.526 .0288226
547.333 .0288954
548.139 .0289792
548.945 .0290709
549.750 .0291688
550.555 .0292714
551.359 .0293768
552.162 .0294849
552.965 .0295929
553.768 .0296993
554.569 .0298033
555.371 .0299001
556.171 .0299903
556.972 .0300749
557.771 .0301565
558.570 .0302373
559.369 .0303171
560.167 .0303996
560.964 .0304859
561.761 .0305696
562.558 .0306544
563.354 .0307402
564.149 .0308170
564.944 .0308858
565.738 .0309481
566.532 .0310027
567.325 .0310494
568.118 .0310950
568.910 .0311401
569.702 .0311879
570.494 .0312410
571.285 .0312980
572.075 .0313588
572.865 .0314245
573.654 .0314882
574.443 .0315473
575.232 .0316041
576.020 .0316553
576.807 .0316972
577.594 .0317361
578.381 .0317693
579.167 .0317993
579.952 .0318278
580.738 .0318598
581.522 .0318949
582.307 .0319332
583.091 .0319745
583.874 .0320162
584.657 .0320601
585.440 .0321037
586.222 .0321443
587.004 .0321843
587.785 .0322230
588.566 .0322603
589.346 .0322958
590.126 .0323314
590.906 .0323654
591.685 .0323981
592.464 .0324273
593.242 .0324520
594.020 .0324715
594.797 .0324862
595.575 .0324961
596.351 .0325015
597.128 .0325034
597.904 .0325023
598.679 .0324983
599.454 .0324916
600.229 .0324810
601.004 .0324668
601.778 .0324489
602.551 .0324276
603.325 .0324033
604.097 .0323762
604.870 .0323484
605.642 .0323213
606.414 .0322964
607.185 .0322732
607.956 .0322523
608.727 .0322333
609.497 .0322152
610.267 .0321967
611.037 .0321758
611.806 .0321533
612.575 .0321293
613.344 .0321040
614.112 .0320780
614.880 .0320527
615.647 .0320297
616.414 .0320079
617.181 .0319886
617.948 .0319704
618.714 .0319518
619.480 .0319324
620.245 .0319116
621.011 .0318890
621.775 .0318657
622.540 .0318427
623.304 .0318210
624.068 .0318023
624.832 .0317860
625.595 .0317716
626.358 .0317597
627.120 .0317489
627.883 .0317375
628.645 .0317237
629.406 .0317084
630.168 .0316908
630.929 .0316718
631.689 .0316525
632.450 .0316335
633.210 .0316154
633.970 .0315973
634.729 .0315790
635.489 .0315595
636.248 .0315384
637.006 .0315154
637.765 .0314905
638.523 .0314644
639.280 .0314373
640.038 .0314106
640.795 .0313851
641.552 .0313615
642.309 .0313389
643.065 .0313171
643.821 .0312959
644.577 .0312749
645.332 .0312532
646.088 .0312314
646.843 .0312103
647.597 .0311896
648.352 .0311689
649.106 .0311489
649.860 .0311297
650.613 .0311112
651.367 .0310933
652.120 .0310764
652.872 .0310601
653.625 .0310445
654.377 .0310298
655.129 .0310163
655.881 .0310042
656.632 .0309932
657.384 .0309829
658.135 .0309735
658.885 .0309641
659.636 .0309540
660.386 .0309430
661.136 .0309314
661.885 .0309193
662.635 .0309060
663.384 .0308924
664.133 .0308785
664.881 .0308645
665.630 .0308501
666.378 .0308352
667.126 .0308197
667.874 .0308030
668.621 .0307849
669.368 .0307656
670.115 .0307453
670.862 .0307243
671.608 .0307037
672.354 .0306840
673.100 .0306655
673.846 .0306488
674.591 .0306331
675.337 .0306189
676.082 .0306053
676.826 .0305914
677.571 .0305766
678.315 .0305612
679.059 .0305452
679.803 .0305284
680.547 .0305125
681.290 .0304974
682.033 .0304826
682.776 .0304682
683.518 .0304536
684.261 .0304381
685.003 .0304218
685.745 .0304042
686.487 .0303851
687.228 .0303651
687.969 .0303442
688.710 .0303224
689.451 .0303007
690.192 .0302790
690.932 .0302573
691.672 .0302346
692.412 .0302116
693.152 .0301874
693.891 .0301621
694.630 .0301363
695.369 .0301100
696.108 .0300828
696.846 .0300555
697.585 .0300276
698.323 .0299994
699.061 .0299712
699.798 .0299432
700.536 .0299151
701.273 .0298877
702.010 .0298614
702.746 .0298357
703.483 .0298116
704.219 .0297897
704.955 .0297692
705.691 .0297505
706.427 .0297334
707.162 .0297171
707.897 .0297022
708.632 .0296883
709.367 .0296749
710.101 .0296616
710.835 .0296487
711.569 .0296351
712.303 .0296204
713.037 .0296048
713.770 .0295883
714.503 .0295705
715.236 .0295516
715.969 .0295310
716.702 .0295090
717.434 .0294862
718.166 .0294620
718.898 .0294368
719.629 .0294109
720.361 .0293843
721.092 .0293573
721.823 .0293301
722.554 .0293033
723.284 .0292768
724.014 .0292508
724.744 .0292255
725.474 .0292004
726.204 .0291760
726.933 .0291518
727.662 .0291283
728.391 .0291057
729.120 .0290838
729.849 .0290627
730.577 .0290424
731.305 .0290229
732.033 .0290042
732.760 .0289856
733.488 .0289669
734.215 .0289480
734.942 .0289285
735.669 .0289081
736.395 .0288876
737.122 .0288668
737.848 .0288462
738.573 .0288259
739.299 .0288056
740.024 .0287855
740.750 .0287656
741.474 .0287459
742.199 .0287262
742.924 .0287068
743.648 .0286877
744.372 .0286688
745.096 .0286509
745.819 .0286342
746.543 .0286193
747.266 .0286066
747.989 .0285956
748.711 .0285864
749.434 .0285792
750.156 .0285733
750.878 .0285685
751.599 .0285653
752.321 .0285628
753.042 .0285608
753.763 .0285588
754.484 .0285569
755.205 .0285544
755.925 .0285513
756.645 .0285470
757.365 .0285408
758.085 .0285328
758.804 .0285229
759.523 .0285107
760.242 .0284971
760.961 .0284820
761.679 .0284655
762.397 .0284478
763.115 .0284293
763.833 .0284100
764.551 .0283906
765.268 .0283717
765.985 .0283536
766.702 .0283358
767.418 .0283187
768.134 .0283023
768.850 .0282861
769.566 .0282704
770.282 .0282543
770.997 .0282379
771.712 .0282212
772.427 .0282046
773.142 .0281884
773.856 .0281727
774.570 .0281579
775.284 .0281432
775.998 .0281284
776.711 .0281134
777.424 .0280972
778.137 .0280802
778.849 .0280623
779.562 .0280438
780.274 .0280248
780.986 .0280067
781.697 .0279898
782.409 .0279746
783.120 .0279611
783.831 .0279490
784.541 .0279376
785.252 .0279270
785.962 .0279166
786.671 .0279060
787.381 .0278955
788.090 .0278849
788.799 .0278740
789.508 .0278629
790.217 .0278512
790.925 .0278389
791.633 .0278255
792.341 .0278111
793.048 .0277956
793.755 .0277794
794.462 .0277632
795.169 .0277475
795.875 .0277330
796.581 .0277196
797.287 .0277072
797.993 .0276961
798.698 .0276854
799.403 .0276754
800.108 .0276653
800.812 .0276550
801.517 .0276445
802.221 .0276346
802.924 .0276250
803.628 .0276166
804.331 .0276097
805.034 .0276036
805.736 .0275977
806.439 .0275910
807.141 .0275826
807.843 .0275725
808.544 .0275601
809.245 .0275453
809.946 .0275285
810.647 .0275110
811.347 .0274928
812.047 .0274757
812.747 .0274599
813.447 .0274451
814.146 .0274310
814.845 .0274175
815.543 .0274033
816.242 .0273883
816.940 .0273724
817.638 .0273557
818.335 .0273389
819.032 .0273222
819.729 .0273055
820.426 .0272900
821.122 .0272752
821.818 .0272605
822.514 .0272455
823.209 .0272300
823.905 .0272128
824.599 .0271941
825.294 .0271736
825.988 .0271516
826.682 .0271287
827.376 .0271051
828.069 .0270805
828.762 .0270558
829.455 .0270308
830.147 .0270055
830.840 .0269805
831.531 .0269566
832.223 .0269335
832.914 .0269117
833.605 .0268912
834.296 .0268722
834.986 .0268543
835.676 .0268373
836.366 .0268210
837.055 .0268056
837.744 .0267908
838.433 .0267767
839.121 .0267637
839.809 .0267521
840.497 .0267419
841.185 .0267328
841.872 .0267244
842.559 .0267161
843.245 .0267074
843.932 .0266975
844.617 .0266863
845.303 .0266736
845.988 .0266596
846.673 .0266447
847.358 .0266296
848.042 .0266147
848.726 .0266005
849.410 .0265869
850.093 .0265740
850.776 .0265618
851.459 .0265496
852.141 .0265370
852.823 .0265239
853.505 .0265105
854.186 .0264966
854.867 .0264825
855.548 .0264686
856.228 .0264550
856.908 .0264421
857.588 .0264298
858.267 .0264176
858.946 .0264055
859.625 .0263928
860.303 .0263795
860.981 .0263654
861.659 .0263507
862.336 .0263354
863.013 .0263204
863.690 .0263058
864.366 .0262917
865.042 .0262780
865.718 .0262647
866.393 .0262515
867.068 .0262382
867.743 .0262245
868.417 .0262104
869.091 .0261962
869.765 .0261824
870.438 .0261690
871.111 .0261567
871.783 .0261448
872.456 .0261336
873.127 .0261228
873.799 .0261119
874.470 .0261003
875.141 .0260883
875.811 .0260761
876.481 .0260636
877.151 .0260514
877.820 .0260399
878.489 .0260290
879.158 .0260191
879.826 .0260099
880.494 .0260008
881.162 .0259914
881.829 .0259819
882.496 .0259716
883.163 .0259606
883.829 .0259490
884.495 .0259367
885.160 .0259248
885.825 .0259138
886.490 .0259040
887.154 .0258956
887.818 .0258889
888.482 .0258838
889.145 .0258791
889.808 .0258753
890.471 .0258714
891.133 .0258674
891.795 .0258624
892.456 .0258563
893.117 .0258493
893.778 .0258417
894.439 .0258340
895.099 .0258271
895.758 .0258209
896.417 .0258158
897.076 .0258109
897.735 .0258058
898.393 .0258004
899.051 .0257945
899.708 .0257872
900.365 .0257788
901.022 .0257696
901.678 .0257608
902.334 .0257522
902.990 .0257454
903.645 .0257407
904.300 .0257381
904.954 .0257368
905.608 .0257358
906.262 .0257340
906.915 .0257313
907.568 .0257266
908.221 .0257204
908.873 .0257129
909.525 .0257043
910.176 .0256953
910.828 .0256863
911.478 .0256783
912.129 .0256706
912.778 .0256623
913.428 .0256533
914.077 .0256430
914.726 .0256312
915.375 .0256174
916.023 .0256028
916.670 .0255885
917.318 .0255743
917.964 .0255608
918.611 .0255480
919.257 .0255363
919.903 .0255251
920.548 .0255142
921.193 .0255037
921.838 .0254935
922.482 .0254836
923.126 .0254745
923.770 .0254663
924.413 .0254593
925.056 .0254531
925.698 .0254475
926.340 .0254424
926.982 .0254373
927.623 .0254319
928.264 .0254262
928.904 .0254202
929.544 .0254143
930.184 .0254078
930.823 .0254014
931.462 .0253947
932.101 .0253877
932.739 .0253802
933.377 .0253716
934.014 .0253618
934.651 .0253512
935.288 .0253398
935.924 .0253279
936.560 .0253157
937.196 .0253034
937.831 .0252909
938.466 .0252782
939.100 .0252652
939.734 .0252513
940.368 .0252371
941.001 .0252226
941.634 .0252074
942.266 .0251922
942.899 .0251772
943.530 .0251619
944.162 .0251463
944.793 .0251302
945.423 .0251135
946.053 .0250953
946.683 .0250764
947.313 .0250565
947.942 .0250357
948.571 .0250144
949.199 .0249925
949.827 .0249702
950.455 .0249483
951.082 .0249263
951.709 .0249044
952.335 .0248832
952.961 .0248629
953.587 .0248428
954.212 .0248236
954.837 .0248053
955.462 .0247880
956.086 .0247713
956.710 .0247555
957.334 .0247406
957.957 .0247272
958.579 .0247153
959.202 .0247050
959.824 .0246962
960.445 .0246890
961.067 .0246824
961.688 .0246763
962.308 .0246703
962.928 .0246640
963.548 .0246567
964.168 .0246487
964.787 .0246398
965.406 .0246303
966.024 .0246205
966.642 .0246111
967.260 .0246024
967.877 .0245941
968.494 .0245856
969.110 .0245767
969.727 .0245667
970.342 .0245560
970.958 .0245439
971.573 .0245311
972.188 .0245181
972.802 .0245046
973.416 .0244918
974.030 .0244800
974.643 .0244693
975.256 .0244593
975.869 .0244502
976.481 .0244413
977.093 .0244322
977.705 .0244232
978.316 .0244141
978.927 .0244058
979.538 .0243983
980.148 .0243914
980.758 .0243854
981.367 .0243808
981.977 .0243776
982.586 .0243751
983.194 .0243739
983.802 .0243727
984.410 .0243715
985.018 .0243698
985.625 .0243678
986.232 .0243658
986.838 .0243639
987.445 .0243620
988.050 .0243604
988.656 .0243591
989.261 .0243577
989.866 .0243558
990.471 .0243535
991.075 .0243504
991.679 .0243466
992.282 .0243414
992.886 .0243360
993.489 .0243304
994.091 .0243249
994.694 .0243195
995.296 .0243141
995.897 .0243083
996.499 .0243015
997.100 .0242934
997.701 .0242839
998.301 .0242738
998.901 .0242634
999.501 .0242529
1000.101 .0242432
1000.700 .0242348
1001.299 .0242276
1001.898 .0242216
1002.496 .0242171
1003.094 .0242133
1003.692 .0242103
1004.289 .0242077
1004.887 .0242053
1005.484 .0242029
1006.080 .0242008
1006.677 .0241982
1007.273 .0241953
1007.868 .0241919
1008.464 .0241880
1009.059 .0241837
1009.654 .0241799
1010.249 .0241764
1010.843 .0241738
1011.437 .0241719
1012.031 .0241704
1012.625 .0241685
1013.218 .0241659
1013.811 .0241619
1014.404 .0241571
1014.997 .0241515
1015.589 .0241461
1016.181 .0241410
1016.773 .0241374
1017.365 .0241353
1017.956 .0241343
1018.547 .0241341
1019.138 .0241340
1019.728 .0241336
1020.319 .0241325
1020.909 .0241311
1021.499 .0241295
1022.088 .0241284
1022.678 .0241282
1023.267 .0241293
1023.856 .0241308
1024.445 .0241323
1025.033 .0241336
1025.621 .0241342
1026.209 .0241344
1026.797 .0241344
1027.385 .0241343
1027.972 .0241351
1028.560 .0241367
1029.147 .0241387
1029.734 .0241407
1030.320 .0241422
1030.907 .0241422
1031.493 .0241406
1032.079 .0241380
1032.665 .0241349
1033.250 .0241314
1033.836 .0241287
1034.421 .0241272
1035.006 .0241267
1035.591 .0241269
1036.176 .0241267
1036.761 .0241262
1037.345 .0241249
1037.929 .0241225
1038.514 .0241181
1039.097 .0241127
1039.681 .0241067
1040.265 .0241004
1040.848 .0240938
1041.432 .0240871
1042.015 .0240801
1042.598 .0240730
1043.181 .0240656
1043.764 .0240581
1044.346 .0240503
1044.929 .0240429
1045.511 .0240355
1046.094 .0240292
1046.676 .0240232
1047.258 .0240183
1047.840 .0240150
1048.422 .0240144
1049.003 .0240158
1049.585 .0240190
1050.166 .0240234
1050.748 .0240286
1051.329 .0240339
1051.910 .0240374
1052.491 .0240386
1053.072 .0240379
1053.653 .0240350
1054.234 .0240303
1054.815 .0240238
1055.396 .0240173
1055.976 .0240110
1056.557 .0240052
1057.138 .0240004
1057.718 .0239952
1058.298 .0239894
1058.879 .0239831
1059.459 .0239753
1060.039 .0239663
1060.620 .0239553
1061.200 .0239435
1061.780 .0239304
1062.360 .0239168
1062.940 .0239035
1063.520 .0238910
1064.101 .0238807
1064.681 .0238725
1065.261 .0238649
1065.841 .0238576
1066.421 .0238490
1067.001 .0238377
1067.581 .0238235
1068.161 .0238068
1068.741 .0237878
1069.321 .0237689
1069.901 .0237523
1070.482 .0237411
1071.062 .0237341
1071.642 .0237334
1072.222 .0237379
1072.803 .0237452
1073.383 .0237540
1073.963 .0237601
1074.544 .0237646
1075.124 .0237671
1075.705 .0237669
1076.286 .0237660
1076.866 .0237650
1077.447 .0237659
1078.028 .0237669
1078.609 .0237691
1079.190 .0237695
1079.771 .0237684
1080.352 .0237634
1080.934 .0237541
1081.515 .0237425
1082.097 .0237289
1082.679 .0237144
1083.260 .0237010
1083.842 .0236920
1084.424 .0236868
1085.007 .0236850
1085.589 .0236866
1086.172 .0236891
1086.754 .0236933
1087.337 .0236962
1087.920 .0236981
1088.503 .0236994
1089.087 .0237009
1089.670 .0237007
1090.254 .0236999
1090.838 .0236998
1091.422 .0236990
1092.006 .0236967
1092.590 .0236927
1093.175 .0236851
1093.760 .0236749
1094.345 .0236609
1094.930 .0236428
1095.516 .0236227
1096.102 .0236026
1096.688 .0235821
1097.274 .0235657
1097.860 .0235534
1098.447 .0235458
1099.034 .0235427
1099.622 .0235452
1100.209 .0235497
1100.797 .0235560
1101.385 .0235628
1101.973 .0235696
1102.562 .0235745
1103.151 .0235808
1103.740 .0235866
1104.330 .0235957
1104.920 .0236103
1105.510 .0236288
1106.101 .0236508
1106.691 .0236762
1107.283 .0237008
1107.874 .0237239
1108.466 .0237425
1109.058 .0237580
1109.651 .0237670
1110.244 .0237732
1110.837 .0237771
1111.431 .0237790
1112.025 .0237811
1112.620 .0237858
1113.215 .0237909
1113.810 .0237952
1114.406 .0237998
1115.002 .0238034
1115.599 .0238070
1116.196 .0238106
1116.793 .0238117
1117.391 .0238126
1117.989 .0238122
1118.588 .0238132
1119.187 .0238124
1119.787 .0238145
1120.387 .0238215
1120.988 .0238320
1121.589 .0238471
1122.190 .0238648
1122.793 .0238868
1123.395 .0239095
1123.998 .0239319
1124.602 .0239517
1125.206 .0239674
1125.811 .0239847
1126.416 .0240020
1127.022 .0240215
1127.628 .0240434
1128.235 .0240725
1128.843 .0241047
1129.451 .0241410
1130.059 .0241795
1130.669 .0242171
1131.278 .0242547
1131.889 .0242915
1132.500 .0243277
1133.112 .0243626
1133.724 .0243995
1134.337 .0244403
1134.950 .0244781
1135.564 .0245170
1136.179 .0245476
1136.795 .0245756
1137.411 .0246026
1138.028 .0246285
1138.645 .0246543
1139.263 .0246834
1139.882 .0247158
1140.502 .0247504
1141.122 .0247851
1141.743 .0248277
1142.365 .0248991
1142.987 .0248359
1143.611 .0248896
1144.235 .0249290
1144.859 .0251404
1145.485 .0259640
