Measurement Sequence started on: 10-20-44-796
Integration time: 35
Scans to Average: 2 
>>>>>Begin Spectral Data<<<<<
432.953 .0384237
433.882 .0379460
434.810 .0354840
435.737 .0367334
436.662 .0344728
437.586 .0370846
438.509 .0374059
439.431 .0378195
440.351 .0383063
441.269 .0387137
442.187 .0390908
443.103 .0393573
444.018 .0395337
444.932 .0396408
445.844 .0397058
446.756 .0397403
447.666 .0397503
448.575 .0397185
449.482 .0396693
450.388 .0395951
451.294 .0395082
452.198 .0394207
453.100 .0393097
454.002 .0392062
454.902 .0391046
455.801 .0390012
456.699 .0389133
457.596 .0388360
458.492 .0387624
459.387 .0386972
460.280 .0386446
461.172 .0385923
462.064 .0385439
462.954 .0384954
463.843 .0384466
464.730 .0383989
465.617 .0383476
466.503 .0382938
467.387 .0382393
468.271 .0381878
469.153 .0381317
470.035 .0380754
470.915 .0380248
471.794 .0379699
472.673 .0379189
473.550 .0378706
474.426 .0378285
475.301 .0377904
476.175 .0377557
477.048 .0377216
477.920 .0376888
478.791 .0376527
479.661 .0376118
480.530 .0375659
481.398 .0375151
482.266 .0374581
483.132 .0373998
483.997 .0373372
484.861 .0372760
485.724 .0372149
486.587 .0371564
487.448 .0370987
488.308 .0370408
489.168 .0369835
490.026 .0369274
490.884 .0368729
491.741 .0368175
492.597 .0367598
493.452 .0367017
494.306 .0366385
495.159 .0365737
496.011 .0365078
496.862 .0364417
497.713 .0363767
498.562 .0363136
499.411 .0362488
500.259 .0361785
501.106 .0361012
501.952 .0360113
502.798 .0359104
503.642 .0357960
504.486 .0356683
505.329 .0355330
506.171 .0353942
507.012 .0352581
507.852 .0351269
508.692 .0350055
509.531 .0348916
510.369 .0347810
511.206 .0346766
512.043 .0345705
512.878 .0344640
513.713 .0343558
514.547 .0342462
515.381 .0341373
516.213 .0340290
517.045 .0339209
517.876 .0338126
518.706 .0337066
519.536 .0336033
520.365 .0335009
521.193 .0333968
522.020 .0332884
522.847 .0331687
523.673 .0330355
524.498 .0328862
525.323 .0327103
526.146 .0325173
526.969 .0323070
527.792 .0320882
528.614 .0318749
529.435 .0316789
530.255 .0315153
531.075 .0313788
531.894 .0312770
532.712 .0311965
533.530 .0311211
534.347 .0310566
535.163 .0309793
535.979 .0308971
536.794 .0308131
537.608 .0307324
538.422 .0306659
539.235 .0306181
540.048 .0305915
540.860 .0305766
541.671 .0305717
542.481 .0305733
543.292 .0305609
544.101 .0305417
544.910 .0305160
545.718 .0304803
546.526 .0304464
547.333 .0304191
548.139 .0303998
548.945 .0303950
549.750 .0303988
550.555 .0304114
551.359 .0304293
552.162 .0304523
552.965 .0304792
553.768 .0305036
554.569 .0305325
555.371 .0305619
556.171 .0305956
556.972 .0306397
557.771 .0306858
558.570 .0307400
559.369 .0308004
560.167 .0308632
560.964 .0309275
561.761 .0309861
562.558 .0310415
563.354 .0310940
564.149 .0311432
564.944 .0311897
565.738 .0312322
566.532 .0312767
567.325 .0313199
568.118 .0313642
568.910 .0314079
569.702 .0314510
570.494 .0314955
571.285 .0315402
572.075 .0315836
572.865 .0316247
573.654 .0316652
574.443 .0317052
575.232 .0317450
576.020 .0317860
576.807 .0318283
577.594 .0318742
578.381 .0319221
579.167 .0319725
579.952 .0320258
580.738 .0320805
581.522 .0321345
582.307 .0321861
583.091 .0322333
583.874 .0322751
584.657 .0323107
585.440 .0323412
586.222 .0323667
587.004 .0323881
587.785 .0324071
588.566 .0324249
589.346 .0324426
590.126 .0324608
590.906 .0324775
591.685 .0324927
592.464 .0325042
593.242 .0325114
594.020 .0325143
594.797 .0325145
595.575 .0325115
596.351 .0325070
597.128 .0325017
597.904 .0324976
598.679 .0324948
599.454 .0324930
600.229 .0324917
601.004 .0324911
601.778 .0324899
602.551 .0324868
603.325 .0324808
604.097 .0324730
604.870 .0324628
605.642 .0324518
606.414 .0324393
607.185 .0324259
607.956 .0324113
608.727 .0323978
609.497 .0323830
610.267 .0323678
611.037 .0323506
611.806 .0323320
612.575 .0323117
613.344 .0322899
614.112 .0322657
614.880 .0322404
615.647 .0322135
616.414 .0321852
617.181 .0321550
617.948 .0321244
618.714 .0320920
619.480 .0320595
620.245 .0320261
621.011 .0319928
621.775 .0319586
622.540 .0319252
623.304 .0318923
624.068 .0318604
624.832 .0318285
625.595 .0317963
626.358 .0317643
627.120 .0317320
627.883 .0316985
628.645 .0316649
629.406 .0316311
630.168 .0315975
630.929 .0315641
631.689 .0315312
632.450 .0314982
633.210 .0314660
633.970 .0314334
634.729 .0314009
635.489 .0313679
636.248 .0313335
637.006 .0312980
637.765 .0312625
638.523 .0312274
639.280 .0311919
640.038 .0311570
640.795 .0311238
641.552 .0310916
642.309 .0310613
643.065 .0310324
643.821 .0310052
644.577 .0309795
645.332 .0309547
646.088 .0309302
646.843 .0309066
647.597 .0308837
648.352 .0308615
649.106 .0308402
649.860 .0308201
650.613 .0308009
651.367 .0307833
652.120 .0307679
652.872 .0307545
653.625 .0307419
654.377 .0307304
655.129 .0307188
655.881 .0307065
656.632 .0306925
657.384 .0306770
658.135 .0306600
658.885 .0306425
659.636 .0306253
660.386 .0306091
661.136 .0305951
661.885 .0305839
662.635 .0305750
663.384 .0305676
664.133 .0305610
664.881 .0305542
665.630 .0305465
666.378 .0305382
667.126 .0305292
667.874 .0305196
668.621 .0305110
669.368 .0305038
670.115 .0304983
670.862 .0304946
671.608 .0304922
672.354 .0304895
673.100 .0304860
673.846 .0304803
674.591 .0304718
675.337 .0304608
676.082 .0304483
676.826 .0304341
677.571 .0304193
678.315 .0304050
679.059 .0303915
679.803 .0303781
680.547 .0303652
681.290 .0303510
682.033 .0303352
682.776 .0303170
683.518 .0302967
684.261 .0302741
685.003 .0302506
685.745 .0302269
686.487 .0302042
687.228 .0301832
687.969 .0301646
688.710 .0301471
689.451 .0301305
690.192 .0301139
690.932 .0300955
691.672 .0300749
692.412 .0300518
693.152 .0300270
693.891 .0300007
694.630 .0299739
695.369 .0299478
696.108 .0299230
696.846 .0298996
697.585 .0298774
698.323 .0298556
699.061 .0298341
699.798 .0298114
700.536 .0297876
701.273 .0297618
702.010 .0297348
702.746 .0297063
703.483 .0296771
704.219 .0296479
704.955 .0296195
705.691 .0295916
706.427 .0295648
707.162 .0295387
707.897 .0295130
708.632 .0294866
709.367 .0294596
710.101 .0294311
710.835 .0294014
711.569 .0293697
712.303 .0293373
713.037 .0293044
713.770 .0292724
714.503 .0292410
715.236 .0292108
715.969 .0291818
716.702 .0291541
717.434 .0291274
718.166 .0291006
718.898 .0290732
719.629 .0290456
720.361 .0290177
721.092 .0289895
721.823 .0289612
722.554 .0289334
723.284 .0289059
724.014 .0288784
724.744 .0288501
725.474 .0288203
726.204 .0287902
726.933 .0287594
727.662 .0287288
728.391 .0286984
729.120 .0286693
729.849 .0286420
730.577 .0286173
731.305 .0285955
732.033 .0285759
732.760 .0285581
733.488 .0285422
734.215 .0285270
734.942 .0285126
735.669 .0284985
736.395 .0284854
737.122 .0284735
737.848 .0284631
738.573 .0284536
739.299 .0284452
740.024 .0284380
740.750 .0284323
741.474 .0284266
742.199 .0284206
742.924 .0284143
743.648 .0284071
744.372 .0283993
745.096 .0283910
745.819 .0283827
746.543 .0283750
747.266 .0283687
747.989 .0283640
748.711 .0283610
749.434 .0283598
750.156 .0283609
750.878 .0283633
751.599 .0283670
752.321 .0283710
753.042 .0283750
753.763 .0283790
754.484 .0283829
755.205 .0283865
755.925 .0283904
756.645 .0283944
757.365 .0283987
758.085 .0284026
758.804 .0284062
759.523 .0284085
760.242 .0284091
760.961 .0284076
761.679 .0284038
762.397 .0283970
763.115 .0283880
763.833 .0283773
764.551 .0283655
765.268 .0283532
765.985 .0283410
766.702 .0283294
767.418 .0283184
768.134 .0283082
768.850 .0282983
769.566 .0282887
770.282 .0282799
770.997 .0282715
771.712 .0282633
772.427 .0282561
773.142 .0282497
773.856 .0282443
774.570 .0282398
775.284 .0282354
775.998 .0282311
776.711 .0282265
777.424 .0282211
778.137 .0282148
778.849 .0282073
779.562 .0281988
780.274 .0281891
780.986 .0281786
781.697 .0281675
782.409 .0281559
783.120 .0281445
783.831 .0281335
784.541 .0281232
785.252 .0281138
785.962 .0281050
786.671 .0280972
787.381 .0280903
788.090 .0280842
788.799 .0280783
789.508 .0280721
790.217 .0280659
790.925 .0280594
791.633 .0280515
792.341 .0280421
793.048 .0280312
793.755 .0280183
794.462 .0280031
795.169 .0279856
795.875 .0279661
796.581 .0279449
797.287 .0279219
797.993 .0278974
798.698 .0278715
799.403 .0278451
800.108 .0278176
800.812 .0277900
801.517 .0277624
802.221 .0277352
802.924 .0277090
803.628 .0276846
804.331 .0276623
805.034 .0276423
805.736 .0276240
806.439 .0276074
807.141 .0275918
807.843 .0275764
808.544 .0275603
809.245 .0275438
809.946 .0275265
810.647 .0275085
811.347 .0274899
812.047 .0274717
812.747 .0274534
813.447 .0274355
814.146 .0274176
814.845 .0273993
815.543 .0273802
816.242 .0273606
816.940 .0273398
817.638 .0273187
818.335 .0272977
819.032 .0272769
819.729 .0272566
820.426 .0272375
821.122 .0272186
821.818 .0271998
822.514 .0271810
823.209 .0271620
823.905 .0271415
824.599 .0271201
825.294 .0270973
825.988 .0270730
826.682 .0270476
827.376 .0270211
828.069 .0269939
828.762 .0269662
829.455 .0269384
830.147 .0269106
830.840 .0268835
831.531 .0268574
832.223 .0268323
832.914 .0268088
833.605 .0267865
834.296 .0267655
834.986 .0267456
835.676 .0267268
836.366 .0267089
837.055 .0266914
837.744 .0266748
838.433 .0266586
839.121 .0266433
839.809 .0266285
840.497 .0266145
841.185 .0266011
841.872 .0265883
842.559 .0265759
843.245 .0265637
843.932 .0265513
844.617 .0265389
845.303 .0265261
845.988 .0265131
846.673 .0264998
847.358 .0264874
848.042 .0264759
848.726 .0264659
849.410 .0264568
850.093 .0264492
850.776 .0264427
851.459 .0264372
852.141 .0264315
852.823 .0264255
853.505 .0264192
854.186 .0264124
854.867 .0264048
855.548 .0263971
856.228 .0263899
856.908 .0263836
857.588 .0263782
858.267 .0263736
858.946 .0263689
859.625 .0263645
860.303 .0263602
860.981 .0263556
861.659 .0263506
862.336 .0263451
863.013 .0263390
863.690 .0263330
864.366 .0263267
865.042 .0263203
865.718 .0263140
866.393 .0263085
867.068 .0263032
867.743 .0262978
868.417 .0262926
869.091 .0262874
869.765 .0262822
870.438 .0262766
871.111 .0262701
871.783 .0262631
872.456 .0262557
873.127 .0262483
873.799 .0262415
874.470 .0262354
875.141 .0262303
875.811 .0262263
876.481 .0262230
877.151 .0262202
877.820 .0262176
878.489 .0262151
879.158 .0262123
879.826 .0262091
880.494 .0262061
881.162 .0262028
881.829 .0261998
882.496 .0261967
883.163 .0261938
883.829 .0261913
884.495 .0261886
885.160 .0261863
885.825 .0261842
886.490 .0261832
887.154 .0261829
887.818 .0261835
888.482 .0261849
889.145 .0261870
889.808 .0261897
890.471 .0261927
891.133 .0261961
891.795 .0261997
892.456 .0262034
893.117 .0262077
893.778 .0262126
894.439 .0262182
895.099 .0262240
895.758 .0262302
896.417 .0262361
897.076 .0262415
897.735 .0262460
898.393 .0262501
899.051 .0262536
899.708 .0262564
900.365 .0262584
901.022 .0262596
901.678 .0262603
902.334 .0262602
902.990 .0262592
903.645 .0262578
904.300 .0262558
904.954 .0262535
905.608 .0262507
906.262 .0262481
906.915 .0262454
907.568 .0262421
908.221 .0262382
908.873 .0262338
909.525 .0262288
910.176 .0262234
910.828 .0262175
911.478 .0262119
912.129 .0262066
912.778 .0262017
913.428 .0261974
914.077 .0261934
914.726 .0261893
915.375 .0261846
916.023 .0261797
916.670 .0261742
917.318 .0261676
917.964 .0261600
918.611 .0261513
919.257 .0261418
919.903 .0261317
920.548 .0261205
921.193 .0261087
921.838 .0260965
922.482 .0260834
923.126 .0260693
923.770 .0260550
924.413 .0260401
925.056 .0260249
925.698 .0260096
926.340 .0259941
926.982 .0259788
927.623 .0259641
928.264 .0259503
928.904 .0259376
929.544 .0259261
930.184 .0259154
930.823 .0259054
931.462 .0258958
932.101 .0258859
932.739 .0258753
933.377 .0258641
934.014 .0258519
934.651 .0258390
935.288 .0258255
935.924 .0258120
936.560 .0257985
937.196 .0257852
937.831 .0257713
938.466 .0257564
939.100 .0257402
939.734 .0257224
940.368 .0257034
941.001 .0256831
941.634 .0256618
942.266 .0256400
942.899 .0256181
943.530 .0255964
944.162 .0255741
944.793 .0255517
945.423 .0255280
946.053 .0255028
946.683 .0254759
947.313 .0254473
947.942 .0254176
948.571 .0253873
949.199 .0253568
949.827 .0253267
950.455 .0252972
951.082 .0252692
951.709 .0252421
952.335 .0252160
952.961 .0251907
953.587 .0251657
954.212 .0251409
954.837 .0251170
955.462 .0250933
956.086 .0250709
956.710 .0250496
957.334 .0250296
957.957 .0250103
958.579 .0249914
959.202 .0249727
959.824 .0249533
960.445 .0249327
961.067 .0249108
961.688 .0248869
962.308 .0248622
962.928 .0248364
963.548 .0248102
964.168 .0247840
964.787 .0247581
965.406 .0247325
966.024 .0247076
966.642 .0246831
967.260 .0246593
967.877 .0246360
968.494 .0246134
969.110 .0245909
969.727 .0245687
970.342 .0245471
970.958 .0245262
971.573 .0245065
972.188 .0244877
972.802 .0244696
973.416 .0244525
974.030 .0244361
974.643 .0244207
975.256 .0244061
975.869 .0243920
976.481 .0243779
977.093 .0243641
977.705 .0243499
978.316 .0243355
978.927 .0243213
979.538 .0243079
980.148 .0242942
980.758 .0242804
981.367 .0242665
981.977 .0242526
982.586 .0242388
983.194 .0242252
983.802 .0242120
984.410 .0241989
985.018 .0241862
985.625 .0241737
986.232 .0241616
986.838 .0241505
987.445 .0241394
988.050 .0241278
988.656 .0241154
989.261 .0241021
989.866 .0240869
990.471 .0240708
991.075 .0240543
991.679 .0240371
992.282 .0240200
992.886 .0240034
993.489 .0239875
994.091 .0239724
994.694 .0239577
995.296 .0239428
995.897 .0239278
996.499 .0239125
997.100 .0238968
997.701 .0238820
998.301 .0238688
998.901 .0238582
999.501 .0238500
1000.101 .0238450
1000.700 .0238427
1001.299 .0238424
1001.898 .0238438
1002.496 .0238453
1003.094 .0238473
1003.692 .0238490
1004.289 .0238502
1004.887 .0238519
1005.484 .0238539
1006.080 .0238564
1006.677 .0238590
1007.273 .0238621
1007.868 .0238653
1008.464 .0238683
1009.059 .0238708
1009.654 .0238731
1010.249 .0238753
1010.843 .0238778
1011.437 .0238806
1012.031 .0238835
1012.625 .0238870
1013.218 .0238905
1013.811 .0238940
1014.404 .0238976
1014.997 .0239012
1015.589 .0239040
1016.181 .0239068
1016.773 .0239101
1017.365 .0239133
1017.956 .0239163
1018.547 .0239196
1019.138 .0239223
1019.728 .0239246
1020.319 .0239269
1020.909 .0239290
1021.499 .0239314
1022.088 .0239351
1022.678 .0239386
1023.267 .0239414
1023.856 .0239427
1024.445 .0239426
1025.033 .0239402
1025.621 .0239364
1026.209 .0239306
1026.797 .0239235
1027.385 .0239163
1027.972 .0239095
1028.560 .0239040
1029.147 .0239008
1029.734 .0238992
1030.320 .0238986
1030.907 .0238980
1031.493 .0238972
1032.079 .0238949
1032.665 .0238926
1033.250 .0238899
1033.836 .0238890
1034.421 .0238898
1035.006 .0238924
1035.591 .0238981
1036.176 .0239070
1036.761 .0239178
1037.345 .0239292
1037.929 .0239405
1038.514 .0239504
1039.097 .0239583
1039.681 .0239655
1040.265 .0239715
1040.848 .0239787
1041.432 .0239864
1042.015 .0239954
1042.598 .0240046
1043.181 .0240149
1043.764 .0240247
1044.346 .0240328
1044.929 .0240406
1045.511 .0240470
1046.094 .0240515
1046.676 .0240560
1047.258 .0240605
1047.840 .0240657
1048.422 .0240714
1049.003 .0240783
1049.585 .0240841
1050.166 .0240903
1050.748 .0240953
1051.329 .0240989
1051.910 .0241015
1052.491 .0241050
1053.072 .0241087
1053.653 .0241140
1054.234 .0241218
1054.815 .0241309
1055.396 .0241423
1055.976 .0241564
1056.557 .0241705
1057.138 .0241853
1057.718 .0241997
1058.298 .0242130
1058.879 .0242238
1059.459 .0242333
1060.039 .0242411
1060.620 .0242463
1061.200 .0242501
1061.780 .0242531
1062.360 .0242545
1062.940 .0242558
1063.520 .0242554
1064.101 .0242532
1064.681 .0242492
1065.261 .0242430
1065.841 .0242336
1066.421 .0242232
1067.001 .0242111
1067.581 .0241984
1068.161 .0241852
1068.741 .0241726
1069.321 .0241615
1069.901 .0241515
1070.482 .0241433
1071.062 .0241373
1071.642 .0241333
1072.222 .0241325
1072.803 .0241334
1073.383 .0241382
1073.963 .0241446
1074.544 .0241524
1075.124 .0241591
1075.705 .0241645
1076.286 .0241676
1076.866 .0241698
1077.447 .0241696
1078.028 .0241699
1078.609 .0241725
1079.190 .0241783
1079.771 .0241873
1080.352 .0241992
1080.934 .0242125
1081.515 .0242250
1082.097 .0242342
1082.679 .0242399
1083.260 .0242386
1083.842 .0242347
1084.424 .0242282
1085.007 .0242213
1085.589 .0242152
1086.172 .0242128
1086.754 .0242128
1087.337 .0242169
1087.920 .0242263
1088.503 .0242367
1089.087 .0242480
1089.670 .0242613
1090.254 .0242738
1090.838 .0242846
1091.422 .0242940
1092.006 .0243028
1092.590 .0243084
1093.175 .0243142
1093.760 .0243172
1094.345 .0243183
1094.930 .0243181
1095.516 .0243169
1096.102 .0243128
1096.688 .0243078
1097.274 .0243016
1097.860 .0242910
1098.447 .0242781
1099.034 .0242628
1099.622 .0242439
1100.209 .0242239
1100.797 .0242037
1101.385 .0241873
1101.973 .0241742
1102.562 .0241691
1103.151 .0241727
1103.740 .0241855
1104.330 .0242075
1104.920 .0242360
1105.510 .0242688
1106.101 .0243040
1106.691 .0243385
1107.283 .0243691
1107.874 .0243969
1108.466 .0244216
1109.058 .0244409
1109.651 .0244563
1110.244 .0244703
1110.837 .0244834
1111.431 .0244934
1112.025 .0245036
1112.620 .0245127
1113.215 .0245207
1113.810 .0245290
1114.406 .0245366
1115.002 .0245448
1115.599 .0245524
1116.196 .0245585
1116.793 .0245633
1117.391 .0245696
1117.989 .0245742
1118.588 .0245783
1119.187 .0245821
1119.787 .0245849
1120.387 .0245868
1120.988 .0245876
1121.589 .0245874
1122.190 .0245873
1122.793 .0245878
1123.395 .0245885
1123.998 .0245888
1124.602 .0245918
1125.206 .0245953
1125.811 .0246001
1126.416 .0246064
1127.022 .0246096
1127.628 .0246123
1128.235 .0246185
1128.843 .0246254
1129.451 .0246386
1130.059 .0246566
1130.669 .0246821
1131.278 .0247142
1131.889 .0247522
1132.500 .0247930
1133.112 .0248356
1133.724 .0248819
1134.337 .0249257
1134.950 .0249659
1135.564 .0250048
1136.179 .0250436
1136.795 .0250847
1137.411 .0251326
1138.028 .0251847
1138.645 .0252413
1139.263 .0253064
1139.882 .0253730
1140.502 .0254418
1141.122 .0255042
1141.743 .0255750
1142.365 .0256478
1142.987 .0256594
1143.611 .0257957
1144.235 .0256450
1144.859 .0260974
1145.485 .0261558
