Measurement Sequence started on: 10-20-44-796
Integration time: 35
Scans to Average: 2 
>>>>>Begin Spectral Data<<<<<
432.953 .0464008
433.882 .0401933
434.810 .0354988
435.737 .0335479
436.662 .0334631
437.586 .0346559
438.509 .0340314
439.431 .0337941
440.351 .0337805
441.269 .0338328
442.187 .0338715
443.103 .0338929
444.018 .0339297
444.932 .0339494
445.844 .0339517
446.756 .0339492
447.666 .0339366
448.575 .0339054
449.482 .0338543
450.388 .0337712
451.294 .0336713
452.198 .0335665
453.100 .0334586
454.002 .0333464
454.902 .0332471
455.801 .0331525
456.699 .0330682
457.596 .0329900
458.492 .0329083
459.387 .0328182
460.280 .0327234
461.172 .0326258
462.064 .0325249
462.954 .0324208
463.843 .0323263
464.730 .0322428
465.617 .0321801
466.503 .0321306
467.387 .0320902
468.271 .0320606
469.153 .0320393
470.035 .0320204
470.915 .0319977
471.794 .0319752
472.673 .0319527
473.550 .0319312
474.426 .0319117
475.301 .0318974
476.175 .0318875
477.048 .0318802
477.920 .0318723
478.791 .0318626
479.661 .0318444
480.530 .0318200
481.398 .0317835
482.266 .0317417
483.132 .0316965
483.997 .0316507
484.861 .0316042
485.724 .0315654
486.587 .0315321
487.448 .0315040
488.308 .0314823
489.168 .0314699
490.026 .0314576
490.884 .0314473
491.741 .0314378
492.597 .0314307
493.452 .0314211
494.306 .0314166
495.159 .0314116
496.011 .0314113
496.862 .0314125
497.713 .0314078
498.562 .0313949
499.411 .0313779
500.259 .0313488
501.106 .0313065
501.952 .0312534
502.798 .0311921
503.642 .0311176
504.486 .0310406
505.329 .0309563
506.171 .0308715
507.012 .0307849
507.852 .0307016
508.692 .0306137
509.531 .0305253
510.369 .0304364
511.206 .0303449
512.043 .0302488
512.878 .0301496
513.713 .0300398
514.547 .0299268
515.381 .0298115
516.213 .0296981
517.045 .0295842
517.876 .0294770
518.706 .0293674
519.536 .0292563
520.365 .0291319
521.193 .0289991
522.020 .0288448
522.847 .0286779
523.673 .0284976
524.498 .0283033
525.323 .0281051
526.146 .0279184
526.969 .0277511
527.792 .0276013
528.614 .0274635
529.435 .0273426
530.255 .0272216
531.075 .0271030
531.894 .0269783
532.712 .0268544
533.530 .0267289
534.347 .0266022
535.163 .0264717
535.979 .0263458
536.794 .0262298
537.608 .0261165
538.422 .0260115
539.235 .0259128
540.048 .0258206
540.860 .0257351
541.671 .0256627
542.481 .0256113
543.292 .0255751
544.101 .0255609
544.910 .0255627
545.718 .0255812
546.526 .0256192
547.333 .0256712
548.139 .0257460
548.945 .0258389
549.750 .0259441
550.555 .0260547
551.359 .0261707
552.162 .0262863
552.965 .0263915
553.768 .0264894
554.569 .0265749
555.371 .0266462
556.171 .0267099
556.972 .0267623
557.771 .0268059
558.570 .0268483
559.369 .0268895
560.167 .0269262
560.964 .0269693
561.761 .0270170
562.558 .0270709
563.354 .0271397
564.149 .0272184
564.944 .0273049
565.738 .0274025
566.532 .0275065
567.325 .0276074
568.118 .0277033
568.910 .0277944
569.702 .0278779
570.494 .0279571
571.285 .0280350
572.075 .0281105
572.865 .0281872
573.654 .0282676
574.443 .0283511
575.232 .0284359
576.020 .0285238
576.807 .0286095
577.594 .0286913
578.381 .0287681
579.167 .0288414
579.952 .0289125
580.738 .0289824
581.522 .0290544
582.307 .0291260
583.091 .0291974
583.874 .0292690
584.657 .0293355
585.440 .0293965
586.222 .0294502
587.004 .0294956
587.785 .0295338
588.566 .0295645
589.346 .0295892
590.126 .0296085
590.906 .0296256
591.685 .0296406
592.464 .0296518
593.242 .0296616
594.020 .0296707
594.797 .0296786
595.575 .0296862
596.351 .0296931
597.128 .0296990
597.904 .0297040
598.679 .0297085
599.454 .0297104
600.229 .0297117
601.004 .0297114
601.778 .0297092
602.551 .0297045
603.325 .0296985
604.097 .0296904
604.870 .0296814
605.642 .0296716
606.414 .0296617
607.185 .0296504
607.956 .0296398
608.727 .0296287
609.497 .0296173
610.267 .0296055
611.037 .0295932
611.806 .0295788
612.575 .0295638
613.344 .0295468
614.112 .0295295
614.880 .0295111
615.647 .0294933
616.414 .0294755
617.181 .0294592
617.948 .0294445
618.714 .0294312
619.480 .0294187
620.245 .0294070
621.011 .0293939
621.775 .0293801
622.540 .0293649
623.304 .0293498
624.068 .0293343
624.832 .0293196
625.595 .0293060
626.358 .0292944
627.120 .0292830
627.883 .0292724
628.645 .0292615
629.406 .0292507
630.168 .0292382
630.929 .0292248
631.689 .0292100
632.450 .0291941
633.210 .0291781
633.970 .0291610
634.729 .0291432
635.489 .0291254
636.248 .0291051
637.006 .0290837
637.765 .0290599
638.523 .0290345
639.280 .0290074
640.038 .0289802
640.795 .0289539
641.552 .0289286
642.309 .0289047
643.065 .0288824
643.821 .0288603
644.577 .0288389
645.332 .0288160
646.088 .0287924
646.843 .0287678
647.597 .0287422
648.352 .0287165
649.106 .0286921
649.860 .0286691
650.613 .0286490
651.367 .0286311
652.120 .0286157
652.872 .0286016
653.625 .0285884
654.377 .0285763
655.129 .0285650
655.881 .0285541
656.632 .0285439
657.384 .0285344
658.135 .0285264
658.885 .0285190
659.636 .0285130
660.386 .0285079
661.136 .0285033
661.885 .0284993
662.635 .0284955
663.384 .0284921
664.133 .0284893
664.881 .0284863
665.630 .0284843
666.378 .0284831
667.126 .0284813
667.874 .0284787
668.621 .0284754
669.368 .0284706
670.115 .0284638
670.862 .0284555
671.608 .0284457
672.354 .0284352
673.100 .0284246
673.846 .0284134
674.591 .0284025
675.337 .0283927
676.082 .0283833
676.826 .0283741
677.571 .0283648
678.315 .0283553
679.059 .0283452
679.803 .0283352
680.547 .0283251
681.290 .0283150
682.033 .0283056
682.776 .0282974
683.518 .0282901
684.261 .0282837
685.003 .0282781
685.745 .0282724
686.487 .0282666
687.228 .0282593
687.969 .0282502
688.710 .0282390
689.451 .0282256
690.192 .0282102
690.932 .0281929
691.672 .0281746
692.412 .0281555
693.152 .0281358
693.891 .0281166
694.630 .0280971
695.369 .0280779
696.108 .0280586
696.846 .0280397
697.585 .0280209
698.323 .0280026
699.061 .0279849
699.798 .0279687
700.536 .0279538
701.273 .0279399
702.010 .0279277
702.746 .0279173
703.483 .0279075
704.219 .0278983
704.955 .0278890
705.691 .0278795
706.427 .0278687
707.162 .0278573
707.897 .0278442
708.632 .0278303
709.367 .0278152
710.101 .0277986
710.835 .0277806
711.569 .0277620
712.303 .0277424
713.037 .0277214
713.770 .0276996
714.503 .0276763
715.236 .0276514
715.969 .0276251
716.702 .0275972
717.434 .0275688
718.166 .0275402
718.898 .0275119
719.629 .0274845
720.361 .0274588
721.092 .0274354
721.823 .0274137
722.554 .0273940
723.284 .0273758
724.014 .0273586
724.744 .0273407
725.474 .0273224
726.204 .0273034
726.933 .0272838
727.662 .0272634
728.391 .0272429
729.120 .0272224
729.849 .0272028
730.577 .0271842
731.305 .0271665
732.033 .0271494
732.760 .0271325
733.488 .0271146
734.215 .0270952
734.942 .0270748
735.669 .0270536
736.395 .0270312
737.122 .0270093
737.848 .0269884
738.573 .0269690
739.299 .0269513
740.024 .0269353
740.750 .0269212
741.474 .0269075
742.199 .0268938
742.924 .0268792
743.648 .0268638
744.372 .0268479
745.096 .0268316
745.819 .0268149
746.543 .0267992
747.266 .0267847
747.989 .0267719
748.711 .0267604
749.434 .0267511
750.156 .0267430
750.878 .0267365
751.599 .0267314
752.321 .0267282
753.042 .0267262
753.763 .0267262
754.484 .0267270
755.205 .0267286
755.925 .0267303
756.645 .0267317
757.365 .0267322
758.085 .0267322
758.804 .0267309
759.523 .0267279
760.242 .0267227
760.961 .0267158
761.679 .0267063
762.397 .0266946
763.115 .0266807
763.833 .0266644
764.551 .0266463
765.268 .0266272
765.985 .0266073
766.702 .0265871
767.418 .0265671
768.134 .0265478
768.850 .0265289
769.566 .0265110
770.282 .0264936
770.997 .0264771
771.712 .0264621
772.427 .0264479
773.142 .0264341
773.856 .0264211
774.570 .0264090
775.284 .0263974
775.998 .0263866
776.711 .0263760
777.424 .0263657
778.137 .0263563
778.849 .0263470
779.562 .0263379
780.274 .0263289
780.986 .0263199
781.697 .0263104
782.409 .0263005
783.120 .0262900
783.831 .0262789
784.541 .0262682
785.252 .0262582
785.962 .0262488
786.671 .0262408
787.381 .0262337
788.090 .0262280
788.799 .0262232
789.508 .0262183
790.217 .0262128
790.925 .0262067
791.633 .0261996
792.341 .0261907
793.048 .0261806
793.755 .0261696
794.462 .0261582
795.169 .0261467
795.875 .0261351
796.581 .0261241
797.287 .0261131
797.993 .0261016
798.698 .0260888
799.403 .0260744
800.108 .0260582
800.812 .0260402
801.517 .0260208
802.221 .0260005
802.924 .0259802
803.628 .0259604
804.331 .0259416
805.034 .0259243
805.736 .0259081
806.439 .0258924
807.141 .0258774
807.843 .0258631
808.544 .0258485
809.245 .0258344
809.946 .0258207
810.647 .0258078
811.347 .0257956
812.047 .0257834
812.747 .0257714
813.447 .0257591
814.146 .0257459
814.845 .0257318
815.543 .0257166
816.242 .0257008
816.940 .0256839
817.638 .0256664
818.335 .0256491
819.032 .0256319
819.729 .0256146
820.426 .0255973
821.122 .0255796
821.818 .0255612
822.514 .0255416
823.209 .0255214
823.905 .0255012
824.599 .0254815
825.294 .0254624
825.988 .0254443
826.682 .0254276
827.376 .0254129
828.069 .0253996
828.762 .0253866
829.455 .0253735
830.147 .0253596
830.840 .0253436
831.531 .0253256
832.223 .0253059
832.914 .0252849
833.605 .0252631
834.296 .0252414
834.986 .0252197
835.676 .0251982
836.366 .0251767
837.055 .0251550
837.744 .0251328
838.433 .0251100
839.121 .0250860
839.809 .0250617
840.497 .0250380
841.185 .0250154
841.872 .0249939
842.559 .0249744
843.245 .0249563
843.932 .0249396
844.617 .0249237
845.303 .0249089
845.988 .0248950
846.673 .0248822
847.358 .0248706
848.042 .0248605
848.726 .0248517
849.410 .0248436
850.093 .0248355
850.776 .0248268
851.459 .0248165
852.141 .0248046
852.823 .0247907
853.505 .0247761
854.186 .0247606
854.867 .0247456
855.548 .0247305
856.228 .0247160
856.908 .0247022
857.588 .0246885
858.267 .0246744
858.946 .0246594
859.625 .0246439
860.303 .0246280
860.981 .0246126
861.659 .0245983
862.336 .0245852
863.013 .0245741
863.690 .0245646
864.366 .0245562
865.042 .0245481
865.718 .0245410
866.393 .0245341
867.068 .0245270
867.743 .0245209
868.417 .0245154
869.091 .0245108
869.765 .0245072
870.438 .0245048
871.111 .0245026
871.783 .0245006
872.456 .0244979
873.127 .0244940
873.799 .0244895
874.470 .0244844
875.141 .0244787
875.811 .0244729
876.481 .0244674
877.151 .0244620
877.820 .0244566
878.489 .0244515
879.158 .0244455
879.826 .0244387
880.494 .0244302
881.162 .0244201
881.829 .0244081
882.496 .0243946
883.163 .0243806
883.829 .0243666
884.495 .0243532
885.160 .0243415
885.825 .0243312
886.490 .0243234
887.154 .0243176
887.818 .0243136
888.482 .0243113
889.145 .0243107
889.808 .0243120
890.471 .0243151
891.133 .0243196
891.795 .0243259
892.456 .0243328
893.117 .0243405
893.778 .0243479
894.439 .0243545
895.099 .0243605
895.758 .0243658
896.417 .0243700
897.076 .0243737
897.735 .0243772
898.393 .0243808
899.051 .0243844
899.708 .0243873
900.365 .0243894
901.022 .0243896
901.678 .0243883
902.334 .0243852
902.990 .0243810
903.645 .0243770
904.300 .0243729
904.954 .0243699
905.608 .0243684
906.262 .0243681
906.915 .0243694
907.568 .0243710
908.221 .0243730
908.873 .0243740
909.525 .0243741
910.176 .0243723
910.828 .0243696
911.478 .0243657
912.129 .0243612
912.778 .0243555
913.428 .0243496
914.077 .0243427
914.726 .0243351
915.375 .0243276
916.023 .0243203
916.670 .0243131
917.318 .0243064
917.964 .0242994
918.611 .0242929
919.257 .0242859
919.903 .0242786
920.548 .0242702
921.193 .0242615
921.838 .0242523
922.482 .0242427
923.126 .0242336
923.770 .0242258
924.413 .0242189
925.056 .0242131
925.698 .0242085
926.340 .0242046
926.982 .0242013
927.623 .0241981
928.264 .0241946
928.904 .0241908
929.544 .0241867
930.184 .0241817
930.823 .0241759
931.462 .0241699
932.101 .0241635
932.739 .0241564
933.377 .0241488
934.014 .0241399
934.651 .0241300
935.288 .0241192
935.924 .0241081
936.560 .0240967
937.196 .0240859
937.831 .0240753
938.466 .0240649
939.100 .0240547
939.734 .0240441
940.368 .0240320
941.001 .0240188
941.634 .0240042
942.266 .0239886
942.899 .0239722
943.530 .0239560
944.162 .0239403
944.793 .0239259
945.423 .0239118
946.053 .0238971
946.683 .0238817
947.313 .0238652
947.942 .0238468
948.571 .0238260
949.199 .0238032
949.827 .0237784
950.455 .0237522
951.082 .0237257
951.709 .0236988
952.335 .0236732
952.961 .0236486
953.587 .0236246
954.212 .0236007
954.837 .0235769
955.462 .0235522
956.086 .0235266
956.710 .0235008
957.334 .0234744
957.957 .0234474
958.579 .0234204
959.202 .0233937
959.824 .0233681
960.445 .0233444
961.067 .0233225
961.688 .0233017
962.308 .0232828
962.928 .0232646
963.548 .0232464
964.168 .0232283
964.787 .0232095
965.406 .0231901
966.024 .0231708
966.642 .0231520
967.260 .0231341
967.877 .0231182
968.494 .0231048
969.110 .0230929
969.727 .0230823
970.342 .0230721
970.958 .0230614
971.573 .0230506
972.188 .0230399
972.802 .0230291
973.416 .0230194
974.030 .0230113
974.643 .0230050
975.256 .0230004
975.869 .0229971
976.481 .0229946
977.093 .0229924
977.705 .0229900
978.316 .0229865
978.927 .0229816
979.538 .0229757
980.148 .0229690
980.758 .0229609
981.367 .0229519
981.977 .0229419
982.586 .0229302
983.194 .0229174
983.802 .0229033
984.410 .0228875
985.018 .0228711
985.625 .0228545
986.232 .0228386
986.838 .0228231
987.445 .0228091
988.050 .0227957
988.656 .0227836
989.261 .0227722
989.866 .0227606
990.471 .0227480
991.075 .0227359
991.679 .0227225
992.282 .0227086
992.886 .0226948
993.489 .0226815
994.091 .0226683
994.694 .0226561
995.296 .0226442
995.897 .0226328
996.499 .0226209
997.100 .0226090
997.701 .0225963
998.301 .0225840
998.901 .0225722
999.501 .0225612
1000.101 .0225519
1000.700 .0225445
1001.299 .0225386
1001.898 .0225349
1002.496 .0225332
1003.094 .0225332
1003.692 .0225338
1004.289 .0225348
1004.887 .0225358
1005.484 .0225361
1006.080 .0225352
1006.677 .0225340
1007.273 .0225316
1007.868 .0225288
1008.464 .0225252
1009.059 .0225212
1009.654 .0225169
1010.249 .0225131
1010.843 .0225089
1011.437 .0225050
1012.031 .0225005
1012.625 .0224955
1013.218 .0224898
1013.811 .0224849
1014.404 .0224803
1014.997 .0224772
1015.589 .0224758
1016.181 .0224768
1016.773 .0224785
1017.365 .0224827
1017.956 .0224875
1018.547 .0224933
1019.138 .0224982
1019.728 .0225033
1020.319 .0225075
1020.909 .0225127
1021.499 .0225179
1022.088 .0225248
1022.678 .0225325
1023.267 .0225415
1023.856 .0225500
1024.445 .0225584
1025.033 .0225650
1025.621 .0225697
1026.209 .0225716
1026.797 .0225715
1027.385 .0225679
1027.972 .0225633
1028.560 .0225578
1029.147 .0225524
1029.734 .0225469
1030.320 .0225418
1030.907 .0225376
1031.493 .0225339
1032.079 .0225295
1032.665 .0225239
1033.250 .0225170
1033.836 .0225097
1034.421 .0225021
1035.006 .0224952
1035.591 .0224896
1036.176 .0224859
1036.761 .0224845
1037.345 .0224855
1037.929 .0224877
1038.514 .0224905
1039.097 .0224935
1039.681 .0224968
1040.265 .0224998
1040.848 .0225011
1041.432 .0225019
1042.015 .0225034
1042.598 .0225053
1043.181 .0225076
1043.764 .0225092
1044.346 .0225120
1044.929 .0225151
1045.511 .0225191
1046.094 .0225243
1046.676 .0225309
1047.258 .0225384
1047.840 .0225465
1048.422 .0225541
1049.003 .0225619
1049.585 .0225685
1050.166 .0225745
1050.748 .0225797
1051.329 .0225856
1051.910 .0225919
1052.491 .0225992
1053.072 .0226075
1053.653 .0226178
1054.234 .0226272
1054.815 .0226356
1055.396 .0226418
1055.976 .0226464
1056.557 .0226494
1057.138 .0226512
1057.718 .0226523
1058.298 .0226536
1058.879 .0226544
1059.459 .0226551
1060.039 .0226556
1060.620 .0226553
1061.200 .0226531
1061.780 .0226503
1062.360 .0226470
1062.940 .0226449
1063.520 .0226439
1064.101 .0226457
1064.681 .0226496
1065.261 .0226541
1065.841 .0226588
1066.421 .0226638
1067.001 .0226704
1067.581 .0226778
1068.161 .0226860
1068.741 .0226961
1069.321 .0227072
1069.901 .0227194
1070.482 .0227324
1071.062 .0227458
1071.642 .0227577
1072.222 .0227678
1072.803 .0227747
1073.383 .0227799
1073.963 .0227839
1074.544 .0227867
1075.124 .0227906
1075.705 .0227947
1076.286 .0227977
1076.866 .0227994
1077.447 .0228013
1078.028 .0228022
1078.609 .0228016
1079.190 .0228011
1079.771 .0227990
1080.352 .0227967
1080.934 .0227937
1081.515 .0227897
1082.097 .0227872
1082.679 .0227850
1083.260 .0227808
1083.842 .0227745
1084.424 .0227689
1085.007 .0227616
1085.589 .0227530
1086.172 .0227441
1086.754 .0227356
1087.337 .0227265
1087.920 .0227194
1088.503 .0227123
1089.087 .0227068
1089.670 .0227055
1090.254 .0227082
1090.838 .0227150
1091.422 .0227286
1092.006 .0227471
1092.590 .0227709
1093.175 .0227988
1093.760 .0228302
1094.345 .0228607
1094.930 .0228918
1095.516 .0229191
1096.102 .0229421
1096.688 .0229602
1097.274 .0229739
1097.860 .0229831
1098.447 .0229892
1099.034 .0229949
1099.622 .0229963
1100.209 .0229950
1100.797 .0229907
1101.385 .0229793
1101.973 .0229626
1102.562 .0229395
1103.151 .0229107
1103.740 .0228789
1104.330 .0228461
1104.920 .0228124
1105.510 .0227820
1106.101 .0227609
1106.691 .0227452
1107.283 .0227371
1107.874 .0227374
1108.466 .0227441
1109.058 .0227530
1109.651 .0227652
1110.244 .0227770
1110.837 .0227871
1111.431 .0227963
1112.025 .0228009
1112.620 .0228029
1113.215 .0228084
1113.810 .0228128
1114.406 .0228220
1115.002 .0228357
1115.599 .0228523
1116.196 .0228679
1116.793 .0228813
1117.391 .0228881
1117.989 .0228873
1118.588 .0228781
1119.187 .0228586
1119.787 .0228363
1120.387 .0228134
1120.988 .0227893
1121.589 .0227705
1122.190 .0227588
1122.793 .0227535
1123.395 .0227456
1123.998 .0227384
1124.602 .0227221
1125.206 .0226985
1125.811 .0226664
1126.416 .0226218
1127.022 .0225781
1127.628 .0225345
1128.235 .0224895
1128.843 .0224513
1129.451 .0224210
1130.059 .0223951
1130.669 .0223714
1131.278 .0223517
1131.889 .0223336
1132.500 .0223204
1133.112 .0223094
1133.724 .0223056
1134.337 .0223106
1134.950 .0223290
1135.564 .0223568
1136.179 .0223986
1136.795 .0224598
1137.411 .0225284
1138.028 .0226099
1138.645 .0227040
1139.263 .0228092
1139.882 .0229248
1140.502 .0230470
1141.122 .0231771
1141.743 .0233257
1142.365 .0234865
1142.987 .0235779
1143.611 .0237962
1144.235 .0238546
1144.859 .0243714
1145.485 .0245118
