Measurement Sequence started on: 10-20-44-796
Integration time: 35
Scans to Average: 2 
>>>>>Begin Spectral Data<<<<<
432.953 .0648219
433.882 .0450312
434.810 .0441668
435.737 .0415840
436.662 .0426155
437.586 .0417204
438.509 .0403127
439.431 .0397149
440.351 .0392727
441.269 .0390238
442.187 .0388512
443.103 .0388245
444.018 .0388811
444.932 .0389546
445.844 .0390505
446.756 .0391440
447.666 .0392340
448.575 .0392870
449.482 .0393430
450.388 .0393997
451.294 .0394602
452.198 .0395249
453.100 .0395872
454.002 .0396437
454.902 .0396924
455.801 .0397302
456.699 .0397597
457.596 .0397764
458.492 .0397838
459.387 .0397702
460.280 .0397504
461.172 .0397169
462.064 .0396861
462.954 .0396503
463.843 .0396236
464.730 .0395963
465.617 .0395686
466.503 .0395387
467.387 .0395077
468.271 .0394710
469.153 .0394304
470.035 .0393697
470.915 .0393029
471.794 .0392253
472.673 .0391432
473.550 .0390582
474.426 .0389792
475.301 .0388992
476.175 .0388252
477.048 .0387528
477.920 .0386833
478.791 .0386134
479.661 .0385462
480.530 .0384821
481.398 .0384155
482.266 .0383483
483.132 .0382847
483.997 .0382285
484.861 .0381896
485.724 .0381628
486.587 .0381518
487.448 .0381541
488.308 .0381684
489.168 .0381869
490.026 .0382060
490.884 .0382191
491.741 .0382186
492.597 .0382044
493.452 .0381766
494.306 .0381371
495.159 .0380894
496.011 .0380428
496.862 .0380011
497.713 .0379635
498.562 .0379226
499.411 .0378730
500.259 .0378139
501.106 .0377394
501.952 .0376485
502.798 .0375393
503.642 .0374147
504.486 .0372833
505.329 .0371533
506.171 .0370302
507.012 .0369192
507.852 .0368212
508.692 .0367348
509.531 .0366553
510.369 .0365734
511.206 .0364838
512.043 .0363810
512.878 .0362703
513.713 .0361481
514.547 .0360133
515.381 .0358714
516.213 .0357197
517.045 .0355614
517.876 .0353967
518.706 .0352267
519.536 .0350521
520.365 .0348734
521.193 .0346966
522.020 .0345221
522.847 .0343495
523.673 .0341768
524.498 .0340112
525.323 .0338455
526.146 .0336882
526.969 .0335337
527.792 .0333843
528.614 .0332424
529.435 .0331123
530.255 .0329902
531.075 .0328713
531.894 .0327639
532.712 .0326593
533.530 .0325495
534.347 .0324414
535.163 .0323286
535.979 .0322190
536.794 .0321219
537.608 .0320423
538.422 .0319663
539.235 .0319065
540.048 .0318580
540.860 .0318173
541.671 .0317870
542.481 .0317605
543.292 .0317365
544.101 .0317153
544.910 .0317073
545.718 .0317056
546.526 .0317168
547.333 .0317428
548.139 .0317774
548.945 .0318097
549.750 .0318423
550.555 .0318705
551.359 .0318938
552.162 .0319118
552.965 .0319277
553.768 .0319313
554.569 .0319279
555.371 .0319202
556.171 .0319140
556.972 .0319037
557.771 .0319063
558.570 .0319129
559.369 .0319332
560.167 .0319614
560.964 .0319980
561.761 .0320417
562.558 .0320952
563.354 .0321497
564.149 .0321969
564.944 .0322409
565.738 .0322902
566.532 .0323371
567.325 .0323883
568.118 .0324437
568.910 .0325057
569.702 .0325701
570.494 .0326405
571.285 .0327147
572.075 .0327958
572.865 .0328779
573.654 .0329566
574.443 .0330253
575.232 .0330906
576.020 .0331462
576.807 .0331937
577.594 .0332360
578.381 .0332725
579.167 .0333008
579.952 .0333298
580.738 .0333578
581.522 .0333895
582.307 .0334245
583.091 .0334637
583.874 .0335018
584.657 .0335405
585.440 .0335768
586.222 .0336082
587.004 .0336344
587.785 .0336587
588.566 .0336769
589.346 .0336911
590.126 .0337006
590.906 .0337051
591.685 .0337060
592.464 .0337037
593.242 .0336971
594.020 .0336870
594.797 .0336756
595.575 .0336625
596.351 .0336466
597.128 .0336304
597.904 .0336133
598.679 .0335937
599.454 .0335724
600.229 .0335506
601.004 .0335290
601.778 .0335075
602.551 .0334874
603.325 .0334695
604.097 .0334535
604.870 .0334385
605.642 .0334237
606.414 .0334077
607.185 .0333911
607.956 .0333719
608.727 .0333510
609.497 .0333305
610.267 .0333103
611.037 .0332910
611.806 .0332733
612.575 .0332570
613.344 .0332413
614.112 .0332247
614.880 .0332078
615.647 .0331885
616.414 .0331669
617.181 .0331431
617.948 .0331187
618.714 .0330935
619.480 .0330692
620.245 .0330467
621.011 .0330257
621.775 .0330061
622.540 .0329873
623.304 .0329684
624.068 .0329480
624.832 .0329257
625.595 .0329003
626.358 .0328712
627.120 .0328401
627.883 .0328050
628.645 .0327680
629.406 .0327315
630.168 .0326960
630.929 .0326617
631.689 .0326293
632.450 .0325983
633.210 .0325671
633.970 .0325363
634.729 .0325039
635.489 .0324698
636.248 .0324343
637.006 .0323973
637.765 .0323603
638.523 .0323248
639.280 .0322918
640.038 .0322610
640.795 .0322346
641.552 .0322112
642.309 .0321890
643.065 .0321675
643.821 .0321458
644.577 .0321236
645.332 .0321004
646.088 .0320761
646.843 .0320512
647.597 .0320265
648.352 .0320024
649.106 .0319790
649.860 .0319569
650.613 .0319350
651.367 .0319145
652.120 .0318937
652.872 .0318735
653.625 .0318524
654.377 .0318311
655.129 .0318093
655.881 .0317874
656.632 .0317654
657.384 .0317440
658.135 .0317234
658.885 .0317035
659.636 .0316838
660.386 .0316644
661.136 .0316442
661.885 .0316237
662.635 .0316019
663.384 .0315793
664.133 .0315558
664.881 .0315326
665.630 .0315092
666.378 .0314872
667.126 .0314669
667.874 .0314471
668.621 .0314286
669.368 .0314096
670.115 .0313900
670.862 .0313697
671.608 .0313490
672.354 .0313274
673.100 .0313063
673.846 .0312863
674.591 .0312680
675.337 .0312519
676.082 .0312380
676.826 .0312250
677.571 .0312132
678.315 .0312014
679.059 .0311892
679.803 .0311763
680.547 .0311638
681.290 .0311510
682.033 .0311395
682.776 .0311289
683.518 .0311192
684.261 .0311094
685.003 .0310999
685.745 .0310895
686.487 .0310781
687.228 .0310648
687.969 .0310499
688.710 .0310340
689.451 .0310171
690.192 .0309988
690.932 .0309792
691.672 .0309584
692.412 .0309368
693.152 .0309141
693.891 .0308903
694.630 .0308660
695.369 .0308423
696.108 .0308190
696.846 .0307968
697.585 .0307746
698.323 .0307528
699.061 .0307309
699.798 .0307082
700.536 .0306852
701.273 .0306614
702.010 .0306388
702.746 .0306173
703.483 .0305980
704.219 .0305809
704.955 .0305652
705.691 .0305511
706.427 .0305368
707.162 .0305210
707.897 .0305033
708.632 .0304830
709.367 .0304606
710.101 .0304372
710.835 .0304138
711.569 .0303903
712.303 .0303687
713.037 .0303483
713.770 .0303292
714.503 .0303098
715.236 .0302899
715.969 .0302678
716.702 .0302437
717.434 .0302170
718.166 .0301878
718.898 .0301579
719.629 .0301286
720.361 .0300994
721.092 .0300720
721.823 .0300466
722.554 .0300233
723.284 .0300005
724.014 .0299782
724.744 .0299546
725.474 .0299296
726.204 .0299032
726.933 .0298750
727.662 .0298463
728.391 .0298186
729.120 .0297919
729.849 .0297670
730.577 .0297442
731.305 .0297233
732.033 .0297031
732.760 .0296829
733.488 .0296625
734.215 .0296407
734.942 .0296183
735.669 .0295958
736.395 .0295736
737.122 .0295527
737.848 .0295331
738.573 .0295139
739.299 .0294955
740.024 .0294770
740.750 .0294583
741.474 .0294387
742.199 .0294190
742.924 .0293995
743.648 .0293806
744.372 .0293626
745.096 .0293461
745.819 .0293306
746.543 .0293161
747.266 .0293018
747.989 .0292871
748.711 .0292725
749.434 .0292581
750.156 .0292443
750.878 .0292325
751.599 .0292225
752.321 .0292149
753.042 .0292087
753.763 .0292045
754.484 .0292007
755.205 .0291962
755.925 .0291901
756.645 .0291823
757.365 .0291719
758.085 .0291591
758.804 .0291441
759.523 .0291274
760.242 .0291093
760.961 .0290897
761.679 .0290682
762.397 .0290449
763.115 .0290196
763.833 .0289930
764.551 .0289646
765.268 .0289350
765.985 .0289045
766.702 .0288736
767.418 .0288437
768.134 .0288153
768.850 .0287887
769.566 .0287649
770.282 .0287440
770.997 .0287258
771.712 .0287099
772.427 .0286961
773.142 .0286842
773.856 .0286731
774.570 .0286624
775.284 .0286516
775.998 .0286407
776.711 .0286309
777.424 .0286217
778.137 .0286136
778.849 .0286066
779.562 .0286001
780.274 .0285940
780.986 .0285873
781.697 .0285799
782.409 .0285712
783.120 .0285614
783.831 .0285506
784.541 .0285396
785.252 .0285290
785.962 .0285193
786.671 .0285102
787.381 .0285018
788.090 .0284939
788.799 .0284855
789.508 .0284763
790.217 .0284662
790.925 .0284549
791.633 .0284428
792.341 .0284295
793.048 .0284162
793.755 .0284027
794.462 .0283895
795.169 .0283761
795.875 .0283626
796.581 .0283491
797.287 .0283352
797.993 .0283211
798.698 .0283077
799.403 .0282948
800.108 .0282822
800.812 .0282700
801.517 .0282585
802.221 .0282471
802.924 .0282358
803.628 .0282242
804.331 .0282126
805.034 .0282007
805.736 .0281888
806.439 .0281771
807.141 .0281663
807.843 .0281567
808.544 .0281476
809.245 .0281389
809.946 .0281305
810.647 .0281219
811.347 .0281129
812.047 .0281036
812.747 .0280938
813.447 .0280835
814.146 .0280727
814.845 .0280618
815.543 .0280507
816.242 .0280401
816.940 .0280299
817.638 .0280198
818.335 .0280100
819.032 .0280004
819.729 .0279912
820.426 .0279820
821.122 .0279729
821.818 .0279635
822.514 .0279534
823.209 .0279427
823.905 .0279312
824.599 .0279184
825.294 .0279046
825.988 .0278908
826.682 .0278767
827.376 .0278630
828.069 .0278503
828.762 .0278377
829.455 .0278257
830.147 .0278139
830.840 .0278017
831.531 .0277892
832.223 .0277773
832.914 .0277655
833.605 .0277540
834.296 .0277442
834.986 .0277355
835.676 .0277282
836.366 .0277222
837.055 .0277165
837.744 .0277104
838.433 .0277037
839.121 .0276964
839.809 .0276881
840.497 .0276800
841.185 .0276723
841.872 .0276645
842.559 .0276568
843.245 .0276487
843.932 .0276402
844.617 .0276303
845.303 .0276197
845.988 .0276070
846.673 .0275932
847.358 .0275793
848.042 .0275660
848.726 .0275543
849.410 .0275446
850.093 .0275372
850.776 .0275313
851.459 .0275263
852.141 .0275212
852.823 .0275152
853.505 .0275084
854.186 .0275009
854.867 .0274924
855.548 .0274824
856.228 .0274727
856.908 .0274628
857.588 .0274531
858.267 .0274432
858.946 .0274328
859.625 .0274226
860.303 .0274119
860.981 .0274014
861.659 .0273905
862.336 .0273798
863.013 .0273693
863.690 .0273582
864.366 .0273468
865.042 .0273348
865.718 .0273224
866.393 .0273095
867.068 .0272966
867.743 .0272839
868.417 .0272717
869.091 .0272603
869.765 .0272495
870.438 .0272386
871.111 .0272271
871.783 .0272155
872.456 .0272019
873.127 .0271872
873.799 .0271714
874.470 .0271546
875.141 .0271377
875.811 .0271208
876.481 .0271044
877.151 .0270890
877.820 .0270753
878.489 .0270626
879.158 .0270503
879.826 .0270391
880.494 .0270280
881.162 .0270172
881.829 .0270068
882.496 .0269957
883.163 .0269839
883.829 .0269723
884.495 .0269601
885.160 .0269478
885.825 .0269354
886.490 .0269239
887.154 .0269131
887.818 .0269030
888.482 .0268931
889.145 .0268828
889.808 .0268728
890.471 .0268626
891.133 .0268513
891.795 .0268397
892.456 .0268276
893.117 .0268163
893.778 .0268054
894.439 .0267953
895.099 .0267859
895.758 .0267776
896.417 .0267700
897.076 .0267630
897.735 .0267555
898.393 .0267482
899.051 .0267412
899.708 .0267341
900.365 .0267260
901.022 .0267180
901.678 .0267096
902.334 .0267012
902.990 .0266925
903.645 .0266840
904.300 .0266752
904.954 .0266671
905.608 .0266588
906.262 .0266498
906.915 .0266408
907.568 .0266314
908.221 .0266209
908.873 .0266103
909.525 .0265987
910.176 .0265864
910.828 .0265734
911.478 .0265608
912.129 .0265470
912.778 .0265333
913.428 .0265193
914.077 .0265047
914.726 .0264902
915.375 .0264757
916.023 .0264612
916.670 .0264474
917.318 .0264345
917.964 .0264221
918.611 .0264098
919.257 .0263980
919.903 .0263859
920.548 .0263741
921.193 .0263622
921.838 .0263503
922.482 .0263386
923.126 .0263278
923.770 .0263173
924.413 .0263071
925.056 .0262979
925.698 .0262887
926.340 .0262798
926.982 .0262700
927.623 .0262595
928.264 .0262484
928.904 .0262357
929.544 .0262216
930.184 .0262066
930.823 .0261908
931.462 .0261743
932.101 .0261574
932.739 .0261409
933.377 .0261242
934.014 .0261082
934.651 .0260924
935.288 .0260768
935.924 .0260613
936.560 .0260455
937.196 .0260287
937.831 .0260117
938.466 .0259939
939.100 .0259752
939.734 .0259558
940.368 .0259361
941.001 .0259154
941.634 .0258946
942.266 .0258732
942.899 .0258516
943.530 .0258293
944.162 .0258068
944.793 .0257837
945.423 .0257603
946.053 .0257367
946.683 .0257130
947.313 .0256891
947.942 .0256654
948.571 .0256413
949.199 .0256173
949.827 .0255928
950.455 .0255684
951.082 .0255443
951.709 .0255210
952.335 .0254986
952.961 .0254778
953.587 .0254581
954.212 .0254395
954.837 .0254221
955.462 .0254053
956.086 .0253891
956.710 .0253735
957.334 .0253584
957.957 .0253441
958.579 .0253310
959.202 .0253193
959.824 .0253085
960.445 .0252990
961.067 .0252906
961.688 .0252833
962.308 .0252768
962.928 .0252708
963.548 .0252646
964.168 .0252573
964.787 .0252486
965.406 .0252385
966.024 .0252265
966.642 .0252129
967.260 .0251982
967.877 .0251827
968.494 .0251664
969.110 .0251498
969.727 .0251329
970.342 .0251159
970.958 .0250992
971.573 .0250815
972.188 .0250635
972.802 .0250454
973.416 .0250273
974.030 .0250098
974.643 .0249940
975.256 .0249807
975.869 .0249695
976.481 .0249610
977.093 .0249548
977.705 .0249507
978.316 .0249488
978.927 .0249480
979.538 .0249479
980.148 .0249477
980.758 .0249468
981.367 .0249456
981.977 .0249442
982.586 .0249423
983.194 .0249404
983.802 .0249387
984.410 .0249370
985.018 .0249356
985.625 .0249340
986.232 .0249323
986.838 .0249300
987.445 .0249267
988.050 .0249215
988.656 .0249145
989.261 .0249064
989.866 .0248956
990.471 .0248847
991.075 .0248743
991.679 .0248649
992.282 .0248582
992.886 .0248540
993.489 .0248527
994.091 .0248532
994.694 .0248549
995.296 .0248569
995.897 .0248583
996.499 .0248591
997.100 .0248585
997.701 .0248580
998.301 .0248583
998.901 .0248595
999.501 .0248621
1000.101 .0248672
1000.700 .0248732
1001.299 .0248795
1001.898 .0248849
1002.496 .0248890
1003.094 .0248911
1003.692 .0248907
1004.289 .0248885
1004.887 .0248850
1005.484 .0248816
1006.080 .0248790
1006.677 .0248766
1007.273 .0248760
1007.868 .0248764
1008.464 .0248773
1009.059 .0248781
1009.654 .0248785
1010.249 .0248794
1010.843 .0248799
1011.437 .0248815
1012.031 .0248839
1012.625 .0248872
1013.218 .0248922
1013.811 .0248988
1014.404 .0249068
1014.997 .0249160
1015.589 .0249254
1016.181 .0249357
1016.773 .0249459
1017.365 .0249557
1017.956 .0249645
1018.547 .0249723
1019.138 .0249787
1019.728 .0249842
1020.319 .0249881
1020.909 .0249923
1021.499 .0249968
1022.088 .0250020
1022.678 .0250066
1023.267 .0250113
1023.856 .0250151
1024.445 .0250178
1025.033 .0250187
1025.621 .0250184
1026.209 .0250162
1026.797 .0250140
1027.385 .0250115
1027.972 .0250096
1028.560 .0250089
1029.147 .0250095
1029.734 .0250115
1030.320 .0250143
1030.907 .0250163
1031.493 .0250174
1032.079 .0250182
1032.665 .0250192
1033.250 .0250200
1033.836 .0250217
1034.421 .0250242
1035.006 .0250282
1035.591 .0250335
1036.176 .0250382
1036.761 .0250425
1037.345 .0250463
1037.929 .0250487
1038.514 .0250497
1039.097 .0250507
1039.681 .0250525
1040.265 .0250561
1040.848 .0250617
1041.432 .0250686
1042.015 .0250767
1042.598 .0250846
1043.181 .0250926
1043.764 .0250998
1044.346 .0251072
1044.929 .0251141
1045.511 .0251207
1046.094 .0251281
1046.676 .0251362
1047.258 .0251439
1047.840 .0251507
1048.422 .0251566
1049.003 .0251610
1049.585 .0251627
1050.166 .0251629
1050.748 .0251623
1051.329 .0251616
1051.910 .0251610
1052.491 .0251611
1053.072 .0251594
1053.653 .0251568
1054.234 .0251518
1054.815 .0251429
1055.396 .0251310
1055.976 .0251168
1056.557 .0251003
1057.138 .0250839
1057.718 .0250693
1058.298 .0250566
1058.879 .0250460
1059.459 .0250384
1060.039 .0250306
1060.620 .0250204
1061.200 .0250091
1061.780 .0249949
1062.360 .0249795
1062.940 .0249664
1063.520 .0249570
1064.101 .0249528
1064.681 .0249545
1065.261 .0249626
1065.841 .0249739
1066.421 .0249885
1067.001 .0250040
1067.581 .0250169
1068.161 .0250280
1068.741 .0250356
1069.321 .0250383
1069.901 .0250409
1070.482 .0250463
1071.062 .0250541
1071.642 .0250640
1072.222 .0250782
1072.803 .0250930
1073.383 .0251078
1073.963 .0251207
1074.544 .0251321
1075.124 .0251408
1075.705 .0251483
1076.286 .0251517
1076.866 .0251539
1077.447 .0251589
1078.028 .0251662
1078.609 .0251768
1079.190 .0251918
1079.771 .0252078
1080.352 .0252244
1080.934 .0252379
1081.515 .0252496
1082.097 .0252568
1082.679 .0252607
1083.260 .0252593
1083.842 .0252533
1084.424 .0252439
1085.007 .0252312
1085.589 .0252157
1086.172 .0251997
1086.754 .0251825
1087.337 .0251623
1087.920 .0251398
1088.503 .0251161
1089.087 .0250910
1089.670 .0250648
1090.254 .0250371
1090.838 .0250086
1091.422 .0249802
1092.006 .0249509
1092.590 .0249210
1093.175 .0248917
1093.760 .0248669
1094.345 .0248444
1094.930 .0248250
1095.516 .0248097
1096.102 .0248007
1096.688 .0247993
1097.274 .0248059
1097.860 .0248214
1098.447 .0248468
1099.034 .0248812
1099.622 .0249218
1100.209 .0249672
1100.797 .0250144
1101.385 .0250596
1101.973 .0251028
1102.562 .0251392
1103.151 .0251720
1103.740 .0251991
1104.330 .0252218
1104.920 .0252421
1105.510 .0252615
1106.101 .0252788
1106.691 .0252915
1107.283 .0253026
1107.874 .0253103
1108.466 .0253103
1109.058 .0253063
1109.651 .0252956
1110.244 .0252793
1110.837 .0252602
1111.431 .0252374
1112.025 .0252120
1112.620 .0251916
1113.215 .0251733
1113.810 .0251580
1114.406 .0251458
1115.002 .0251373
1115.599 .0251272
1116.196 .0251143
1116.793 .0251020
1117.391 .0250842
1117.989 .0250612
1118.588 .0250371
1119.187 .0250099
1119.787 .0249871
1120.387 .0249725
1120.988 .0249637
1121.589 .0249664
1122.190 .0249772
1122.793 .0249975
1123.395 .0250215
1123.998 .0250521
1124.602 .0250891
1125.206 .0251295
1125.811 .0251772
1126.416 .0252332
1127.022 .0252859
1127.628 .0253454
1128.235 .0253992
1128.843 .0254507
1129.451 .0254935
1130.059 .0255240
1130.669 .0255413
1131.278 .0255496
1131.889 .0255473
1132.500 .0255422
1133.112 .0255340
1133.724 .0255329
1134.337 .0255313
1134.950 .0255382
1135.564 .0255438
1136.179 .0255489
1136.795 .0255561
1137.411 .0255667
1138.028 .0255736
1138.645 .0255799
1139.263 .0255915
1139.882 .0256170
1140.502 .0256535
1141.122 .0256955
1141.743 .0257299
1142.365 .0257847
1142.987 .0259919
1143.611 .0260156
1144.235 .0258644
1144.859 .0255893
1145.485 .0262507
