Measurement Sequence started on: 10-20-44-796
Integration time: 35
Scans to Average: 2 
>>>>>Begin Spectral Data<<<<<
432.953 .0463558
433.882 .0377481
434.810 .0283503
435.737 .0286587
436.662 .0276675
437.586 .0297441
438.509 .0289474
439.431 .0286767
440.351 .0287364
441.269 .0287858
442.187 .0288699
443.103 .0289553
444.018 .0290818
444.932 .0292546
445.844 .0294638
446.756 .0297069
447.666 .0299630
448.575 .0302286
449.482 .0304798
450.388 .0307203
451.294 .0309440
452.198 .0311473
453.100 .0313385
454.002 .0315201
454.902 .0316946
455.801 .0318581
456.699 .0320110
457.596 .0321430
458.492 .0322399
459.387 .0323062
460.280 .0323333
461.172 .0323217
462.064 .0322797
462.954 .0322135
463.843 .0321361
464.730 .0320631
465.617 .0319958
466.503 .0319473
467.387 .0319137
468.271 .0318883
469.153 .0318621
470.035 .0318342
470.915 .0318038
471.794 .0317661
472.673 .0317306
473.550 .0317091
474.426 .0317009
475.301 .0317157
476.175 .0317464
477.048 .0317886
477.920 .0318394
478.791 .0318911
479.661 .0319329
480.530 .0319619
481.398 .0319723
482.266 .0319655
483.132 .0319448
483.997 .0319143
484.861 .0318778
485.724 .0318439
486.587 .0318217
487.448 .0318030
488.308 .0317858
489.168 .0317706
490.026 .0317486
490.884 .0317226
491.741 .0316868
492.597 .0316392
493.452 .0315851
494.306 .0315288
495.159 .0314744
496.011 .0314245
496.862 .0313851
497.713 .0313507
498.562 .0313211
499.411 .0312923
500.259 .0312550
501.106 .0312034
501.952 .0311439
502.798 .0310763
503.642 .0310049
504.486 .0309353
505.329 .0308708
506.171 .0308159
507.012 .0307744
507.852 .0307354
508.692 .0306927
509.531 .0306404
510.369 .0305756
511.206 .0304917
512.043 .0303964
512.878 .0302934
513.713 .0301936
514.547 .0301007
515.381 .0300143
516.213 .0299292
517.045 .0298393
517.876 .0297348
518.706 .0296070
519.536 .0294507
520.365 .0292692
521.193 .0290562
522.020 .0288248
522.847 .0285862
523.673 .0283489
524.498 .0281222
525.323 .0279071
526.146 .0277062
526.969 .0275163
527.792 .0273221
528.614 .0271243
529.435 .0269263
530.255 .0267344
531.075 .0265482
531.894 .0263716
532.712 .0262177
533.530 .0260952
534.347 .0259928
535.163 .0259100
535.979 .0258460
536.794 .0257977
537.608 .0257528
538.422 .0257105
539.235 .0256787
540.048 .0256614
540.860 .0256580
541.671 .0256720
542.481 .0256986
543.292 .0257468
544.101 .0257994
544.910 .0258534
545.718 .0259089
546.526 .0259656
547.333 .0260097
548.139 .0260497
548.945 .0260841
549.750 .0261143
550.555 .0261420
551.359 .0261671
552.162 .0261899
552.965 .0262112
553.768 .0262228
554.569 .0262240
555.371 .0262070
556.171 .0261863
556.972 .0261612
557.771 .0261399
558.570 .0261283
559.369 .0261302
560.167 .0261490
560.964 .0261846
561.761 .0262349
562.558 .0263020
563.354 .0263825
564.149 .0264744
564.944 .0265764
565.738 .0266837
566.532 .0267971
567.325 .0269169
568.118 .0270366
568.910 .0271581
569.702 .0272781
570.494 .0273906
571.285 .0274970
572.075 .0276000
572.865 .0276997
573.654 .0277901
574.443 .0278754
575.232 .0279553
576.020 .0280301
576.807 .0281029
577.594 .0281735
578.381 .0282420
579.167 .0283124
579.952 .0283814
580.738 .0284502
581.522 .0285186
582.307 .0285870
583.091 .0286533
583.874 .0287201
584.657 .0287841
585.440 .0288443
586.222 .0288992
587.004 .0289511
587.785 .0289988
588.566 .0290421
589.346 .0290797
590.126 .0291130
590.906 .0291419
591.685 .0291682
592.464 .0291895
593.242 .0292076
594.020 .0292216
594.797 .0292346
595.575 .0292447
596.351 .0292533
597.128 .0292595
597.904 .0292640
598.679 .0292670
599.454 .0292674
600.229 .0292655
601.004 .0292622
601.778 .0292575
602.551 .0292526
603.325 .0292460
604.097 .0292395
604.870 .0292322
605.642 .0292253
606.414 .0292185
607.185 .0292110
607.956 .0292025
608.727 .0291932
609.497 .0291833
610.267 .0291718
611.037 .0291589
611.806 .0291442
612.575 .0291291
613.344 .0291131
614.112 .0290960
614.880 .0290782
615.647 .0290596
616.414 .0290413
617.181 .0290219
617.948 .0290017
618.714 .0289818
619.480 .0289615
620.245 .0289412
621.011 .0289196
621.775 .0288974
622.540 .0288747
623.304 .0288506
624.068 .0288255
624.832 .0287997
625.595 .0287733
626.358 .0287471
627.120 .0287214
627.883 .0286964
628.645 .0286729
629.406 .0286505
630.168 .0286293
630.929 .0286088
631.689 .0285894
632.450 .0285701
633.210 .0285513
633.970 .0285343
634.729 .0285182
635.489 .0285026
636.248 .0284892
637.006 .0284773
637.765 .0284660
638.523 .0284542
639.280 .0284414
640.038 .0284265
640.795 .0284096
641.552 .0283901
642.309 .0283692
643.065 .0283475
643.821 .0283258
644.577 .0283037
645.332 .0282829
646.088 .0282635
646.843 .0282440
647.597 .0282244
648.352 .0282055
649.106 .0281863
649.860 .0281675
650.613 .0281492
651.367 .0281330
652.120 .0281184
652.872 .0281061
653.625 .0280958
654.377 .0280882
655.129 .0280820
655.881 .0280765
656.632 .0280708
657.384 .0280653
658.135 .0280590
658.885 .0280517
659.636 .0280437
660.386 .0280365
661.136 .0280288
661.885 .0280222
662.635 .0280163
663.384 .0280122
664.133 .0280085
664.881 .0280060
665.630 .0280041
666.378 .0280023
667.126 .0279993
667.874 .0279954
668.621 .0279893
669.368 .0279822
670.115 .0279727
670.862 .0279620
671.608 .0279500
672.354 .0279383
673.100 .0279258
673.846 .0279139
674.591 .0279021
675.337 .0278906
676.082 .0278782
676.826 .0278652
677.571 .0278508
678.315 .0278353
679.059 .0278193
679.803 .0278034
680.547 .0277864
681.290 .0277702
682.033 .0277538
682.776 .0277383
683.518 .0277225
684.261 .0277074
685.003 .0276925
685.745 .0276779
686.487 .0276634
687.228 .0276481
687.969 .0276326
688.710 .0276166
689.451 .0275997
690.192 .0275823
690.932 .0275641
691.672 .0275454
692.412 .0275265
693.152 .0275090
693.891 .0274923
694.630 .0274770
695.369 .0274625
696.108 .0274491
696.846 .0274360
697.585 .0274226
698.323 .0274088
699.061 .0273949
699.798 .0273809
700.536 .0273661
701.273 .0273510
702.010 .0273367
702.746 .0273228
703.483 .0273094
704.219 .0272966
704.955 .0272844
705.691 .0272715
706.427 .0272587
707.162 .0272458
707.897 .0272324
708.632 .0272190
709.367 .0272058
710.101 .0271926
710.835 .0271802
711.569 .0271679
712.303 .0271552
713.037 .0271425
713.770 .0271305
714.503 .0271166
715.236 .0271016
715.969 .0270858
716.702 .0270687
717.434 .0270497
718.166 .0270300
718.898 .0270095
719.629 .0269877
720.361 .0269654
721.092 .0269421
721.823 .0269176
722.554 .0268925
723.284 .0268653
724.014 .0268362
724.744 .0268063
725.474 .0267756
726.204 .0267442
726.933 .0267144
727.662 .0266870
728.391 .0266619
729.120 .0266391
729.849 .0266188
730.577 .0266005
731.305 .0265833
732.033 .0265666
732.760 .0265503
733.488 .0265350
734.215 .0265208
734.942 .0265071
735.669 .0264945
736.395 .0264826
737.122 .0264709
737.848 .0264586
738.573 .0264461
739.299 .0264325
740.024 .0264181
740.750 .0264023
741.474 .0263862
742.199 .0263699
742.924 .0263528
743.648 .0263353
744.372 .0263176
745.096 .0262999
745.819 .0262815
746.543 .0262623
747.266 .0262437
747.989 .0262257
748.711 .0262090
749.434 .0261935
750.156 .0261796
750.878 .0261673
751.599 .0261567
752.321 .0261470
753.042 .0261390
753.763 .0261323
754.484 .0261272
755.205 .0261230
755.925 .0261201
756.645 .0261179
757.365 .0261157
758.085 .0261134
758.804 .0261104
759.523 .0261057
760.242 .0261002
760.961 .0260939
761.679 .0260876
762.397 .0260816
763.115 .0260758
763.833 .0260695
764.551 .0260628
765.268 .0260546
765.985 .0260442
766.702 .0260311
767.418 .0260161
768.134 .0259991
768.850 .0259813
769.566 .0259638
770.282 .0259470
770.997 .0259314
771.712 .0259174
772.427 .0259044
773.142 .0258920
773.856 .0258798
774.570 .0258678
775.284 .0258552
775.998 .0258419
776.711 .0258280
777.424 .0258137
778.137 .0257998
778.849 .0257863
779.562 .0257737
780.274 .0257621
780.986 .0257513
781.697 .0257408
782.409 .0257305
783.120 .0257203
783.831 .0257098
784.541 .0256990
785.252 .0256879
785.962 .0256766
786.671 .0256655
787.381 .0256547
788.090 .0256449
788.799 .0256369
789.508 .0256301
790.217 .0256245
790.925 .0256196
791.633 .0256149
792.341 .0256099
793.048 .0256039
793.755 .0255969
794.462 .0255888
795.169 .0255795
795.875 .0255694
796.581 .0255587
797.287 .0255483
797.993 .0255381
798.698 .0255283
799.403 .0255181
800.108 .0255070
800.812 .0254951
801.517 .0254820
802.221 .0254679
802.924 .0254535
803.628 .0254393
804.331 .0254258
805.034 .0254137
805.736 .0254029
806.439 .0253931
807.141 .0253844
807.843 .0253772
808.544 .0253699
809.245 .0253624
809.946 .0253544
810.647 .0253460
811.347 .0253373
812.047 .0253286
812.747 .0253190
813.447 .0253085
814.146 .0252973
814.845 .0252851
815.543 .0252721
816.242 .0252590
816.940 .0252463
817.638 .0252343
818.335 .0252236
819.032 .0252134
819.729 .0252031
820.426 .0251929
821.122 .0251819
821.818 .0251693
822.514 .0251551
823.209 .0251402
823.905 .0251249
824.599 .0251102
825.294 .0250966
825.988 .0250835
826.682 .0250712
827.376 .0250590
828.069 .0250460
828.762 .0250319
829.455 .0250167
830.147 .0250002
830.840 .0249831
831.531 .0249664
832.223 .0249509
832.914 .0249366
833.605 .0249235
834.296 .0249114
834.986 .0248990
835.676 .0248864
836.366 .0248728
837.055 .0248582
837.744 .0248428
838.433 .0248270
839.121 .0248112
839.809 .0247955
840.497 .0247806
841.185 .0247663
841.872 .0247523
842.559 .0247386
843.245 .0247239
843.932 .0247089
844.617 .0246939
845.303 .0246791
845.988 .0246644
846.673 .0246506
847.358 .0246376
848.042 .0246259
848.726 .0246154
849.410 .0246060
850.093 .0245976
850.776 .0245895
851.459 .0245811
852.141 .0245719
852.823 .0245616
853.505 .0245505
854.186 .0245381
854.867 .0245252
855.548 .0245119
856.228 .0244986
856.908 .0244859
857.588 .0244745
858.267 .0244645
858.946 .0244555
859.625 .0244468
860.303 .0244380
860.981 .0244291
861.659 .0244196
862.336 .0244097
863.013 .0243994
863.690 .0243892
864.366 .0243787
865.042 .0243682
865.718 .0243579
866.393 .0243473
867.068 .0243359
867.743 .0243234
868.417 .0243091
869.091 .0242931
869.765 .0242755
870.438 .0242570
871.111 .0242384
871.783 .0242202
872.456 .0242024
873.127 .0241855
873.799 .0241695
874.470 .0241546
875.141 .0241406
875.811 .0241275
876.481 .0241152
877.151 .0241035
877.820 .0240926
878.489 .0240833
879.158 .0240750
879.826 .0240678
880.494 .0240613
881.162 .0240552
881.829 .0240488
882.496 .0240416
883.163 .0240335
883.829 .0240246
884.495 .0240153
885.160 .0240060
885.825 .0239965
886.490 .0239884
887.154 .0239809
887.818 .0239740
888.482 .0239678
889.145 .0239620
889.808 .0239561
890.471 .0239503
891.133 .0239444
891.795 .0239386
892.456 .0239330
893.117 .0239273
893.778 .0239217
894.439 .0239164
895.099 .0239111
895.758 .0239049
896.417 .0238982
897.076 .0238917
897.735 .0238843
898.393 .0238773
899.051 .0238712
899.708 .0238657
900.365 .0238611
901.022 .0238569
901.678 .0238534
902.334 .0238503
902.990 .0238476
903.645 .0238444
904.300 .0238410
904.954 .0238376
905.608 .0238340
906.262 .0238304
906.915 .0238272
907.568 .0238245
908.221 .0238211
908.873 .0238172
909.525 .0238124
910.176 .0238068
910.828 .0238002
911.478 .0237929
912.129 .0237847
912.778 .0237756
913.428 .0237661
914.077 .0237557
914.726 .0237452
915.375 .0237349
916.023 .0237247
916.670 .0237150
917.318 .0237059
917.964 .0236976
918.611 .0236894
919.257 .0236821
919.903 .0236753
920.548 .0236689
921.193 .0236624
921.838 .0236557
922.482 .0236499
923.126 .0236446
923.770 .0236394
924.413 .0236347
925.056 .0236307
925.698 .0236279
926.340 .0236255
926.982 .0236238
927.623 .0236218
928.264 .0236205
928.904 .0236188
929.544 .0236162
930.184 .0236134
930.823 .0236099
931.462 .0236055
932.101 .0236006
932.739 .0235951
933.377 .0235884
934.014 .0235803
934.651 .0235717
935.288 .0235618
935.924 .0235511
936.560 .0235401
937.196 .0235293
937.831 .0235192
938.466 .0235101
939.100 .0235015
939.734 .0234931
940.368 .0234850
941.001 .0234765
941.634 .0234677
942.266 .0234582
942.899 .0234483
943.530 .0234379
944.162 .0234273
944.793 .0234170
945.423 .0234060
946.053 .0233947
946.683 .0233829
947.313 .0233704
947.942 .0233565
948.571 .0233411
949.199 .0233250
949.827 .0233077
950.455 .0232891
951.082 .0232701
951.709 .0232498
952.335 .0232289
952.961 .0232076
953.587 .0231861
954.212 .0231649
954.837 .0231445
955.462 .0231252
956.086 .0231076
956.710 .0230922
957.334 .0230781
957.957 .0230641
958.579 .0230502
959.202 .0230363
959.824 .0230210
960.445 .0230048
961.067 .0229888
961.688 .0229734
962.308 .0229592
962.928 .0229464
963.548 .0229350
964.168 .0229250
964.787 .0229155
965.406 .0229062
966.024 .0228955
966.642 .0228847
967.260 .0228726
967.877 .0228597
968.494 .0228472
969.110 .0228354
969.727 .0228241
970.342 .0228140
970.958 .0228056
971.573 .0227978
972.188 .0227910
972.802 .0227850
973.416 .0227788
974.030 .0227724
974.643 .0227658
975.256 .0227584
975.869 .0227503
976.481 .0227427
977.093 .0227349
977.705 .0227278
978.316 .0227225
978.927 .0227180
979.538 .0227149
980.148 .0227132
980.758 .0227125
981.367 .0227114
981.977 .0227111
982.586 .0227105
983.194 .0227090
983.802 .0227073
984.410 .0227050
985.018 .0227017
985.625 .0226984
986.232 .0226944
986.838 .0226905
987.445 .0226871
988.050 .0226838
988.656 .0226803
989.261 .0226775
989.866 .0226749
990.471 .0226716
991.075 .0226676
991.679 .0226629
992.282 .0226570
992.886 .0226506
993.489 .0226437
994.091 .0226376
994.694 .0226336
995.296 .0226312
995.897 .0226296
996.499 .0226287
997.100 .0226274
997.701 .0226254
998.301 .0226221
998.901 .0226176
999.501 .0226126
1000.101 .0226071
1000.700 .0226020
1001.299 .0225975
1001.898 .0225941
1002.496 .0225919
1003.094 .0225899
1003.692 .0225880
1004.289 .0225850
1004.887 .0225820
1005.484 .0225790
1006.080 .0225767
1006.677 .0225763
1007.273 .0225769
1007.868 .0225779
1008.464 .0225796
1009.059 .0225816
1009.654 .0225825
1010.249 .0225820
1010.843 .0225811
1011.437 .0225787
1012.031 .0225755
1012.625 .0225715
1013.218 .0225667
1013.811 .0225618
1014.404 .0225562
1014.997 .0225486
1015.589 .0225390
1016.181 .0225289
1016.773 .0225187
1017.365 .0225087
1017.956 .0225002
1018.547 .0224938
1019.138 .0224887
1019.728 .0224848
1020.319 .0224817
1020.909 .0224781
1021.499 .0224741
1022.088 .0224701
1022.678 .0224654
1023.267 .0224613
1023.856 .0224587
1024.445 .0224589
1025.033 .0224609
1025.621 .0224652
1026.209 .0224709
1026.797 .0224763
1027.385 .0224816
1027.972 .0224862
1028.560 .0224889
1029.147 .0224905
1029.734 .0224920
1030.320 .0224926
1030.907 .0224930
1031.493 .0224942
1032.079 .0224954
1032.665 .0224964
1033.250 .0224964
1033.836 .0224945
1034.421 .0224905
1035.006 .0224852
1035.591 .0224782
1036.176 .0224693
1036.761 .0224602
1037.345 .0224505
1037.929 .0224405
1038.514 .0224311
1039.097 .0224224
1039.681 .0224144
1040.265 .0224076
1040.848 .0224019
1041.432 .0223985
1042.015 .0223969
1042.598 .0223964
1043.181 .0223981
1043.764 .0224014
1044.346 .0224052
1044.929 .0224096
1045.511 .0224139
1046.094 .0224182
1046.676 .0224216
1047.258 .0224238
1047.840 .0224238
1048.422 .0224223
1049.003 .0224194
1049.585 .0224148
1050.166 .0224095
1050.748 .0224041
1051.329 .0223973
1051.910 .0223902
1052.491 .0223835
1053.072 .0223769
1053.653 .0223702
1054.234 .0223640
1054.815 .0223580
1055.396 .0223528
1055.976 .0223483
1056.557 .0223451
1057.138 .0223437
1057.718 .0223442
1058.298 .0223456
1058.879 .0223464
1059.459 .0223454
1060.039 .0223418
1060.620 .0223343
1061.200 .0223225
1061.780 .0223066
1062.360 .0222873
1062.940 .0222668
1063.520 .0222464
1064.101 .0222276
1064.681 .0222106
1065.261 .0221956
1065.841 .0221810
1066.421 .0221671
1067.001 .0221531
1067.581 .0221390
1068.161 .0221256
1068.741 .0221168
1069.321 .0221125
1069.901 .0221151
1070.482 .0221241
1071.062 .0221391
1071.642 .0221571
1072.222 .0221784
1072.803 .0221970
1073.383 .0222125
1073.963 .0222249
1074.544 .0222346
1075.124 .0222427
1075.705 .0222522
1076.286 .0222610
1076.866 .0222720
1077.447 .0222833
1078.028 .0222934
1078.609 .0222967
1079.190 .0222960
1079.771 .0222885
1080.352 .0222753
1080.934 .0222588
1081.515 .0222427
1082.097 .0222295
1082.679 .0222234
1083.260 .0222213
1083.842 .0222234
1084.424 .0222270
1085.007 .0222291
1085.589 .0222284
1086.172 .0222238
1086.754 .0222135
1087.337 .0221993
1087.920 .0221840
1088.503 .0221702
1089.087 .0221588
1089.670 .0221526
1090.254 .0221510
1090.838 .0221539
1091.422 .0221611
1092.006 .0221690
1092.590 .0221784
1093.175 .0221911
1093.760 .0222033
1094.345 .0222122
1094.930 .0222186
1095.516 .0222192
1096.102 .0222156
1096.688 .0222081
1097.274 .0221990
1097.860 .0221885
1098.447 .0221789
1099.034 .0221705
1099.622 .0221619
1100.209 .0221529
1100.797 .0221414
1101.385 .0221236
1101.973 .0221029
1102.562 .0220751
1103.151 .0220407
1103.740 .0220047
1104.330 .0219723
1104.920 .0219458
1105.510 .0219288
1106.101 .0219212
1106.691 .0219253
1107.283 .0219386
1107.874 .0219570
1108.466 .0219777
1109.058 .0220028
1109.651 .0220280
1110.244 .0220519
1110.837 .0220743
1111.431 .0220974
1112.025 .0221184
1112.620 .0221392
1113.215 .0221611
1113.810 .0221830
1114.406 .0222074
1115.002 .0222312
1115.599 .0222546
1116.196 .0222765
1116.793 .0222934
1117.391 .0223050
1117.989 .0223104
1118.588 .0223112
1119.187 .0223066
1119.787 .0222994
1120.387 .0222935
1120.988 .0222907
1121.589 .0222896
1122.190 .0222885
1122.793 .0222915
1123.395 .0222912
1123.998 .0222866
1124.602 .0222789
1125.206 .0222698
1125.811 .0222656
1126.416 .0222693
1127.022 .0222798
1127.628 .0223000
1128.235 .0223329
1128.843 .0223738
1129.451 .0224173
1130.059 .0224637
1130.669 .0225114
1131.278 .0225552
1131.889 .0225975
1132.500 .0226331
1133.112 .0226620
1133.724 .0226941
1134.337 .0227278
1134.950 .0227609
1135.564 .0227964
1136.179 .0228283
1136.795 .0228601
1137.411 .0228883
1138.028 .0229123
1138.645 .0229300
1139.263 .0229430
1139.882 .0229523
1140.502 .0229646
1141.122 .0229755
1141.743 .0229837
1142.365 .0229889
1142.987 .0229231
1143.611 .0232118
1144.235 .0231257
1144.859 .0228943
1145.485 .0228403
