BestFit value for E:\RC_data\Compressed_For_Future_Analysis_Lite\test_shlomo\aqueous_test\GoodSpectraLarge_Full\0012_2025-06-24_09-45-30\Interpretation_History\2025-07-21_16-23-34\ResultsGraphs\BestFit\(Run)spectra_09-46-24-631_BestFit.txt
600.203 0.0550623
600.975 0.0551015
601.747 0.0551400
602.518 0.0551777
603.289 0.0552147
604.059 0.0552509
604.829 0.0552865
605.599 0.0553214
606.369 0.0553556
607.138 0.0553892
607.906 0.0554220
608.675 0.0554544
609.443 0.0554861
610.210 0.0555173
610.977 0.0555480
611.744 0.0555782
612.511 0.0556080
613.277 0.0556373
614.043 0.0556663
614.809 0.0556950
615.574 0.0557234
616.339 0.0557514
617.104 0.0557793
617.868 0.0558068
618.632 0.0558342
619.395 0.0558613
620.159 0.0558883
620.922 0.0559151
621.684 0.0559417
622.447 0.0559682
623.209 0.0559945
623.970 0.0560205
624.732 0.0560464
625.493 0.0560720
626.254 0.0560974
627.014 0.0561226
627.774 0.0561474
628.534 0.0561719
629.294 0.0561961
630.053 0.0562199
630.812 0.0562432
631.571 0.0562661
632.329 0.0562886
633.087 0.0563105
633.845 0.0563318
634.602 0.0563526
635.359 0.0563728
636.116 0.0563923
636.873 0.0564113
637.629 0.0564295
638.385 0.0564471
639.141 0.0564640
639.897 0.0564802
640.652 0.0564957
641.407 0.0565105
642.161 0.0565247
642.916 0.0565382
643.670 0.0565511
644.424 0.0565633
645.177 0.0565750
645.931 0.0565861
646.684 0.0565967
647.436 0.0566068
648.189 0.0566164
648.941 0.0566256
649.693 0.0566345
650.445 0.0566431
651.196 0.0566514
651.947 0.0566594
652.698 0.0566673
653.449 0.0566750
654.199 0.0566826
654.949 0.0566901
655.699 0.0566977
656.449 0.0567052
657.198 0.0567128
657.947 0.0567204
658.696 0.0567281
659.445 0.0567359
660.193 0.0567438
660.941 0.0567518
661.689 0.0567599
662.436 0.0567682
663.184 0.0567765
663.931 0.0567850
664.678 0.0567935
665.424 0.0568021
666.171 0.0568107
666.917 0.0568193
667.663 0.0568278
668.408 0.0568363
669.154 0.0568447
669.899 0.0568529
670.644 0.0568609
671.388 0.0568687
672.133 0.0568762
672.877 0.0568833
673.621 0.0568901
674.365 0.0568965
675.108 0.0569023
675.851 0.0569077
676.594 0.0569125
677.337 0.0569168
678.080 0.0569204
678.822 0.0569233
679.564 0.0569256
680.306 0.0569272
681.047 0.0569281
681.789 0.0569283
682.530 0.0569278
683.271 0.0569265
684.012 0.0569245
684.752 0.0569218
685.492 0.0569184
686.232 0.0569144
686.972 0.0569096
687.712 0.0569043
688.451 0.0568984
689.190 0.0568919
689.929 0.0568849
690.667 0.0568775
691.406 0.0568696
692.144 0.0568614
692.882 0.0568529
693.620 0.0568441
694.357 0.0568351
695.095 0.0568259
695.832 0.0568167
696.569 0.0568074
697.305 0.0567981
698.042 0.0567889
698.778 0.0567799
699.514 0.0567710
700.249 0.0567623
700.985 0.0567538
701.720 0.0567456
702.455 0.0567378
703.190 0.0567303
703.925 0.0567231
704.659 0.0567164
705.393 0.0567101
706.127 0.0567041
706.861 0.0566986
707.595 0.0566935
708.328 0.0566889
709.061 0.0566846
709.794 0.0566806
710.527 0.0566771
711.259 0.0566738
711.991 0.0566709
712.723 0.0566682
713.455 0.0566657
714.186 0.0566634
714.918 0.0566612
715.649 0.0566591
716.380 0.0566570
717.110 0.0566549
717.841 0.0566527
718.571 0.0566504
719.301 0.0566478
720.031 0.0566450
720.760 0.0566419
721.490 0.0566383
722.219 0.0566344
722.948 0.0566300
723.676 0.0566250
724.405 0.0566195
725.133 0.0566134
725.861 0.0566065
726.589 0.0565990
727.317 0.0565908
728.044 0.0565818
728.771 0.0565720
729.498 0.0565614
730.225 0.0565500
730.951 0.0565378
731.677 0.0565247
732.403 0.0565108
733.129 0.0564961
733.855 0.0564806
734.580 0.0564643
735.305 0.0564473
736.030 0.0564295
736.755 0.0564110
737.479 0.0563918
738.203 0.0563721
738.927 0.0563517
739.651 0.0563308
740.375 0.0563095
741.098 0.0562877
741.821 0.0562656
742.544 0.0562431
743.267 0.0562204
743.989 0.0561976
744.711 0.0561746
745.433 0.0561516
746.155 0.0561286
746.877 0.0561056
747.598 0.0560828
748.319 0.0560602
749.040 0.0560379
749.760 0.0560159
750.481 0.0559942
751.201 0.0559730
751.921 0.0559522
752.640 0.0559320
753.360 0.0559122
754.079 0.0558931
754.798 0.0558746
755.517 0.0558567
756.235 0.0558396
756.953 0.0558231
757.671 0.0558073
758.389 0.0557922
759.107 0.0557778
759.824 0.0557641
760.541 0.0557511
761.258 0.0557388
761.974 0.0557271
762.691 0.0557161
763.407 0.0557057
764.123 0.0556958
764.838 0.0556866
765.554 0.0556777
766.269 0.0556694
766.984 0.0556615
767.699 0.0556539
768.413 0.0556466
769.127 0.0556396
769.841 0.0556327
770.555 0.0556260
771.268 0.0556193
771.982 0.0556126
772.694 0.0556058
773.407 0.0555989
774.120 0.0555918
774.832 0.0555845
775.544 0.0555768
776.256 0.0555687
776.967 0.0555602
777.678 0.0555512
778.389 0.0555416
779.100 0.0555314
779.810 0.0555205
780.521 0.0555089
781.231 0.0554966
781.940 0.0554835
782.650 0.0554695
783.359 0.0554547
784.068 0.0554390
784.776 0.0554224
785.485 0.0554048
786.193 0.0553863
786.901 0.0553668
787.609 0.0553464
788.316 0.0553250
789.023 0.0553027
789.730 0.0552794
790.436 0.0552553
791.143 0.0552302
791.849 0.0552042
792.555 0.0551774
793.260 0.0551497
793.965 0.0551213
794.670 0.0550922
795.375 0.0550623
796.080 0.0550318
796.784 0.0550007
797.488 0.0549691
798.191 0.0549370
798.895 0.0549044
799.598 0.0548715
800.301 0.0548383
801.003 0.0548049
801.705 0.0547713
802.408 0.0547376
803.109 0.0547038
803.811 0.0546701
804.512 0.0546365
805.213 0.0546030
805.913 0.0545698
806.614 0.0545369
807.314 0.0545043
808.014 0.0544721
808.713 0.0544404
809.412 0.0544093
810.111 0.0543787
810.810 0.0543487
811.508 0.0543194
812.206 0.0542908
812.904 0.0542630
813.602 0.0542360
814.299 0.0542099
814.996 0.0541846
815.692 0.0541602
816.389 0.0541366
817.085 0.0541140
817.781 0.0540924
818.476 0.0540717
819.171 0.0540519
819.866 0.0540331
820.561 0.0540152
821.255 0.0539983
821.949 0.0539823
822.643 0.0539671
823.336 0.0539529
824.029 0.0539395
824.722 0.0539269
825.415 0.0539151
826.107 0.0539040
826.799 0.0538937
827.490 0.0538840
828.182 0.0538749
828.873 0.0538664
829.563 0.0538584
830.254 0.0538509
830.944 0.0538438
831.634 0.0538370
832.323 0.0538305
833.012 0.0538242
833.701 0.0538181
834.390 0.0538120
835.078 0.0538060
835.766 0.0538000
836.453 0.0537939
837.141 0.0537876
837.828 0.0537811
838.514 0.0537743
839.201 0.0537671
839.887 0.0537596
840.572 0.0537516
841.258 0.0537430
841.943 0.0537339
842.628 0.0537242
843.312 0.0537138
843.996 0.0537026
844.680 0.0536907
845.363 0.0536780
846.046 0.0536644
846.729 0.0536499
847.412 0.0536345
848.094 0.0536182
848.776 0.0536008
849.457 0.0535825
850.139 0.0535632
850.819 0.0535428
851.500 0.0535214
852.180 0.0534989
852.860 0.0534754
853.540 0.0534508
854.219 0.0534251
854.898 0.0533985
855.576 0.0533708
856.254 0.0533421
856.932 0.0533124
857.610 0.0532816
858.287 0.0532500
858.964 0.0532174
859.640 0.0531840
860.317 0.0531497
860.993 0.0531146
861.668 0.0530787
862.343 0.0530421
863.018 0.0530048
863.693 0.0529668
864.367 0.0529283
865.041 0.0528892
865.714 0.0528497
866.387 0.0528097
867.060 0.0527694
867.732 0.0527288
868.404 0.0526879
869.076 0.0526468
869.748 0.0526055
870.419 0.0525642
871.089 0.0525229
871.760 0.0524817
872.430 0.0524405
873.099 0.0523996
873.769 0.0523588
874.438 0.0523183
875.106 0.0522783
875.774 0.0522386
876.442 0.0521993
877.110 0.0521606
877.777 0.0521224
878.444 0.0520848
879.110 0.0520480
879.776 0.0520118
880.442 0.0519763
881.108 0.0519417
881.773 0.0519079
882.437 0.0518749
883.102 0.0518429
883.766 0.0518118
884.429 0.0517816
885.093 0.0517524
885.755 0.0517243
886.418 0.0516972
887.080 0.0516711
887.742 0.0516460
888.403 0.0516221
889.064 0.0515992
889.725 0.0515773
890.385 0.0515566
891.045 0.0515369
891.705 0.0515183
892.364 0.0515007
893.023 0.0514842
893.682 0.0514687
894.340 0.0514542
894.998 0.0514408
895.655 0.0514283
896.312 0.0514167
896.969 0.0514060
897.625 0.0513963
898.281 0.0513873
898.937 0.0513792
899.592 0.0513719
900.247 0.0513653
900.901 0.0513594
901.555 0.0513541
902.209 0.0513495
902.862 0.0513454
903.515 0.0513418
904.168 0.0513387
904.820 0.0513360
905.472 0.0513336
906.123 0.0513316
906.774 0.0513298
907.425 0.0513282
908.076 0.0513268
908.726 0.0513254
909.375 0.0513241
910.024 0.0513228
910.673 0.0513214
911.322 0.0513199
911.970 0.0513182
912.618 0.0513163
913.265 0.0513141
913.912 0.0513115
914.558 0.0513086
915.205 0.0513053
915.850 0.0513015
916.496 0.0512971
917.141 0.0512922
917.786 0.0512867
918.430 0.0512805
919.074 0.0512736
919.718 0.0512660
920.361 0.0512577
921.004 0.0512485
921.646 0.0512385
922.288 0.0512276
922.930 0.0512158
923.571 0.0512032
924.212 0.0511895
924.853 0.0511749
925.493 0.0511594
926.133 0.0511428
926.772 0.0511252
927.411 0.0511066
928.050 0.0510869
928.688 0.0510662
929.326 0.0510445
929.963 0.0510217
930.600 0.0509979
931.237 0.0509730
931.874 0.0509470
932.510 0.0509200
933.145 0.0508921
933.780 0.0508631
934.415 0.0508331
935.050 0.0508021
935.684 0.0507701
936.318 0.0507372
936.951 0.0507034
937.584 0.0506687
938.217 0.0506331
938.849 0.0505966
939.481 0.0505594
940.112 0.0505214
940.743 0.0504826
941.374 0.0504431
942.004 0.0504029
942.634 0.0503621
943.264 0.0503207
943.893 0.0502787
944.522 0.0502362
945.150 0.0501933
945.778 0.0501499
946.406 0.0501061
947.033 0.0500619
947.660 0.0500175
948.287 0.0499727
948.913 0.0499278
949.539 0.0498827
950.165 0.0498375
950.790 0.0497922
951.414 0.0497470
952.039 0.0497016
952.663 0.0496564
953.286 0.0496113
953.910 0.0495663
954.533 0.0495216
955.155 0.0494771
955.777 0.0494329
956.399 0.0493891
957.020 0.0493456
957.641 0.0493025
958.262 0.0492599
958.882 0.0492179
959.502 0.0491763
960.122 0.0491375
960.741 0.0491085
961.360 0.0490802
961.979 0.0490524
962.597 0.0490254
963.214 0.0489991
963.832 0.0489735
964.449 0.0489488
965.066 0.0489248
965.682 0.0489016
966.298 0.0488794
966.914 0.0488579
967.529 0.0488374
968.144 0.0488179
968.758 0.0487992
969.373 0.0487815
969.986 0.0487648
970.600 0.0487491
971.213 0.0487343
971.826 0.0487205
972.438 0.0487078
973.050 0.0486960
973.662 0.0486853
974.274 0.0486756
974.885 0.0486669
975.495 0.0486592
976.106 0.0486525
976.716 0.0486468
977.325 0.0486422
977.935 0.0486385
978.544 0.0486358
979.152 0.0486340
979.761 0.0486332
980.369 0.0486334
980.976 0.0486344
981.584 0.0486364
982.191 0.0486392
982.797 0.0486430
983.404 0.0486475
984.010 0.0486529
984.615 0.0486590
985.221 0.0486660
985.826 0.0486736
986.430 0.0486820
987.035 0.0486911
987.639 0.0487008
988.243 0.0487111
988.846 0.0487220
989.449 0.0487335
990.052 0.0487455
990.654 0.0487580
991.256 0.0487709
991.858 0.0487842
992.460 0.0487980
993.061 0.0488120
993.662 0.0488264
994.262 0.0488410
994.863 0.0488559
995.463 0.0488710
996.062 0.0488862
996.662 0.0489015
997.261 0.0489170
997.860 0.0489324
998.458 0.0489479
999.056 0.0489633
999.654 0.0489786
1000.252 0.0489896
1000.849 0.0489945
1001.446 0.0489993
1002.043 0.0490038
1002.639 0.0490081
1003.235 0.0490121
1003.831 0.0490158
1004.427 0.0490191
1005.022 0.0490220
1005.617 0.0490245
1006.212 0.0490265
1006.806 0.0490281
1007.401 0.0490291
1007.995 0.0490296
1008.588 0.0490295
1009.182 0.0490287
1009.775 0.0490274
1010.368 0.0490254
1010.96 0.0490226
1011.553 0.0490192
1012.145 0.0490150
1012.737 0.0490101
1013.328 0.0490044
1013.92 0.0489978
1014.511 0.0489905
1015.102 0.0489823
1015.692 0.0489732
1016.283 0.0489633
1016.873 0.0489525
1017.463 0.0489408
1018.052 0.0489282
1018.642 0.0489146
1019.231 0.0489002
1019.82 0.0488848
1020.409 0.0488684
1020.997 0.0488511
1021.585 0.0488329
1022.173 0.0488137
1022.761 0.0487935
1023.349 0.0487724
1023.936 0.0487503
1024.524 0.0487272
1025.111 0.0487032
1025.697 0.0486783
1026.284 0.0486524
1026.87 0.0486256
1027.457 0.0485978
1028.043 0.0485691
1028.628 0.0485396
1029.214 0.0485091
1029.80 0.0484778
1030.385 0.0484456
1030.97 0.0484125
1031.555 0.0483786
1032.139 0.0483439
1032.724 0.0483083
1033.308 0.0482720
1033.893 0.0482349
1034.477 0.0481971
1035.06 0.0481586
1035.644 0.0481194
1036.228 0.0480794
1036.811 0.0480389
1037.394 0.0479977
1037.977 0.0479559
1038.56 0.0479135
1039.143 0.0478706
1039.726 0.0478271
1040.308 0.0477832
1040.891 0.0477388
1041.473 0.0476940
1042.055 0.0476488
1042.637 0.0476031
1043.219 0.0475572
1043.801 0.0475109
1044.382 0.0474644
1044.964 0.0474175
1045.545 0.0473705
1046.127 0.0473232
1046.708 0.0472758
1047.289 0.0472283
1047.87 0.0471807
1048.451 0.0471330
1049.032 0.0470853
1049.612 0.0470377
1050.193 0.0469900
1050.774 0.0469423
1051.354 0.0468949
1051.935 0.0468475
1052.515 0.0468003
1053.095 0.0467533
1053.675 0.0467065
1054.256 0.0466599
1054.836 0.0466136
1055.416 0.0465677
1055.996 0.0465221
1056.576 0.0464769
1057.156 0.0464320
1057.735 0.0463877
1058.315 0.0463438
1058.895 0.0463003
1059.475 0.0462573
1060.055 0.0462149
1060.634 0.0461732
1061.214 0.0461319
1061.794 0.0460913
1062.373 0.0460513
1062.953 0.0460120
1063.533 0.0459733
1064.113 0.0459353
1064.692 0.0458982
1065.272 0.0458617
1065.852 0.0458260
1066.431 0.0457911
1067.011 0.0457569
1067.591 0.0457236
1068.171 0.0456911
1068.751 0.0456595
1069.331 0.0456287
1069.91 0.0455989
1070.49 0.0455699
1071.071 0.0455417
1071.651 0.0455145
1072.231 0.0454882
1072.811 0.0454629
1073.391 0.0454385
1073.972 0.0454149
1074.552 0.0453924
1075.133 0.0453708
1075.713 0.0453502
1076.294 0.0453305
1076.875 0.0453117
1077.456 0.0452939
1078.037 0.0452771
1078.618 0.0452613
1079.199 0.0452464
1079.78 0.0452324
1080.362 0.0452194
1080.943 0.0452073
1081.525 0.0451962
1082.107 0.0451859
1082.689 0.0451766
1083.271 0.0451683
1083.853 0.0451608
1084.436 0.0451542
1085.018 0.0451485
1085.601 0.0451436
1086.184 0.0451396
1086.767 0.0451365
1087.351 0.0451341
1087.934 0.0451326
1088.518 0.0451319
1089.102 0.0451319
1089.686 0.0451327
1090.27 0.0451343
1090.855 0.0451365
1091.439 0.0451395
1092.024 0.0451431
1092.609 0.0451474
1093.195 0.0451523
1093.78 0.0451578
1094.366 0.0451640
1094.952 0.0451706
1095.539 0.0451779
1096.125 0.0451856
1096.712 0.0451938
1097.299 0.0452025
1097.887 0.0452117
1098.475 0.0452212
1099.063 0.0452311
1099.651 0.0452414
1100.239 0.0452520
1100.828 0.0452629
1101.417 0.0452740
1102.007 0.0452854
1102.597 0.0452970
1103.187 0.0453088
1103.777 0.0453208
1104.368 0.0453329
1104.959 0.0453450
1105.551 0.0453572
1106.143 0.0453695
1106.735 0.0453818
1107.328 0.0453940
1107.921 0.0454062
1108.514 0.0454182
1109.108 0.0454302
1109.702 0.0454420
1110.296 0.0454536
1110.891 0.0454650
1111.486 0.0454762
1112.082 0.0454871
1112.678 0.0454977
1113.275 0.0455080
1113.872 0.0455179
1114.469 0.0455275
1115.067 0.0455366
1115.665 0.0455453
1116.264 0.0455535
1116.864 0.0455612
1117.463 0.0455684
1118.063 0.0455750
1118.664 0.0455810
1119.265 0.0455865
1119.867 0.0455913
1120.469 0.0455955
1121.072 0.0455990
1121.675 0.0456018
1122.279 0.0456038
1122.883 0.0456052
1123.488 0.0456057
1124.093 0.0456055
1124.699 0.0456044
1125.305 0.0456025
1125.912 0.0455998
1126.52 0.0455962
1127.128 0.0455917
1127.737 0.0455863
1128.346 0.0455801
1128.956 0.0455728
1129.567 0.0455646
1130.178 0.0455555
1130.79 0.0455454
1131.402 0.0455343
1132.015 0.0455222
1132.629 0.0455090
1133.243 0.0454949
1133.858 0.0454798
1134.474 0.0454636
1135.09 0.0454463
1135.707 0.0454280
1136.325 0.0454087
1136.943 0.0453883
1137.562 0.0453669
1138.182 0.0453443
1138.802 0.0453208
1139.423 0.0452961
1140.045 0.0452704
1140.668 0.0452437
1141.291 0.0452158
1141.916 0.0451869
1142.54 0.0451570
1143.166 0.0451260
1143.793 0.0450940
1144.42 0.0450610
1145.048 0.0450269
