Measurement Sequence started on: 09-46-08-630
Integration time: 30
Scans to Average: 2 
>>>>>Begin Spectral Data<<<<<
434.745 .0875805
435.665 .0786400
436.585 .0758929
437.503 .0698953
438.420 .0656538
439.335 .0639965
440.249 .0609726
441.162 .0585821
442.074 .0566058
442.984 .0550717
443.894 .0538596
444.802 .0529082
445.708 .0521268
446.614 .0514656
447.518 .0509231
448.422 .0504652
449.324 .0500808
450.224 .0497525
451.124 .0494626
452.022 .0492088
452.920 .0489786
453.816 .0487674
454.711 .0485861
455.605 .0484269
456.497 .0482958
457.389 .0482013
458.279 .0481433
459.169 .0481066
460.057 .0480885
460.944 .0480828
461.830 .0480816
462.715 .0480861
463.599 .0480950
464.482 .0481105
465.363 .0481402
466.244 .0481809
467.124 .0482302
468.002 .0482903
468.880 .0483655
469.756 .0484454
470.632 .0485318
471.506 .0486184
472.379 .0487033
473.252 .0487878
474.123 .0488754
474.994 .0489694
475.863 .0490745
476.731 .0491854
477.599 .0493041
478.465 .0494288
479.331 .0495589
480.195 .0496866
481.059 .0498121
481.921 .0499305
482.783 .0500407
483.643 .0501396
484.503 .0502292
485.362 .0503149
486.220 .0504025
487.077 .0504902
487.933 .0505770
488.788 .0506641
489.642 .0507510
490.496 .0508327
491.348 .0509130
492.200 .0509931
493.050 .0510774
493.900 .0511704
494.749 .0512742
495.597 .0513940
496.445 .0515330
497.291 .0516900
498.136 .0518616
498.981 .0520436
499.825 .0522281
500.668 .0524120
501.510 .0525882
502.352 .0527626
503.192 .0529366
504.032 .0531094
504.871 .0532830
505.709 .0534619
506.546 .0536416
507.383 .0538215
508.219 .0539956
509.054 .0541630
509.888 .0543262
510.722 .0544857
511.554 .0546437
512.386 .0548046
513.217 .0549806
514.048 .0551784
514.877 .0553951
515.706 .0556407
516.535 .0559097
517.362 .0562043
518.189 .0565172
519.015 .0568442
519.840 .0571812
520.665 .0575231
521.489 .0578695
522.312 .0582129
523.134 .0585632
523.956 .0589211
524.777 .0592947
525.598 .0596924
526.417 .0601088
527.236 .0605534
528.055 .0610083
528.872 .0614603
529.690 .0619007
530.506 .0623068
531.322 .0626605
532.137 .0629628
532.951 .0632225
533.765 .0634434
534.578 .0636408
535.391 .0638231
536.203 .0639834
537.014 .0641348
537.824 .0642595
538.634 .0643367
539.444 .0643571
540.253 .0643179
541.061 .0642032
541.868 .0640199
542.675 .0637857
543.482 .0635211
544.288 .0632545
545.093 .0629998
545.897 .0627590
546.702 .0625445
547.505 .0623463
548.308 .0621665
549.110 .0619841
549.912 .0617939
550.713 .0615852
551.514 .0613565
552.314 .0611118
553.114 .0608658
553.913 .0606233
554.711 .0603937
555.509 .0601862
556.306 .0600010
557.103 .0598265
557.900 .0596595
558.695 .0594881
559.491 .0593153
560.285 .0591360
561.080 .0589510
561.873 .0587537
562.667 .0585657
563.459 .0583843
564.252 .0582066
565.043 .0580342
565.835 .0578670
566.625 .0576998
567.416 .0575284
568.205 .0573478
568.995 .0571569
569.783 .0569590
570.572 .0567664
571.360 .0565721
572.147 .0563888
572.934 .0562175
573.720 .0560534
574.506 .0559011
575.292 .0557635
576.077 .0556353
576.862 .0555121
577.646 .0553928
578.429 .0552795
579.213 .0551698
579.996 .0550675
580.778 .0549717
581.560 .0548875
582.341 .0548183
583.123 .0547592
583.903 .0547068
584.684 .0546622
585.463 .0546234
586.243 .0545860
587.022 .0545488
587.800 .0545101
588.578 .0544723
589.356 .0544371
590.134 .0544067
590.911 .0543824
591.687 .0543635
592.463 .0543508
593.239 .0543420
594.014 .0543343
594.789 .0543264
595.564 .0543181
596.338 .0543099
597.112 .0543023
597.885 .0542965
598.658 .0542916
599.431 .0542878
600.203 .0542871
600.975 .0542882
601.747 .0542897
602.518 .0542919
603.289 .0542944
604.059 .0542969
604.829 .0543012
605.599 .0543069
606.369 .0543139
607.138 .0543232
607.906 .0543343
608.675 .0543446
609.443 .0543550
610.210 .0543661
610.977 .0543771
611.744 .0543901
612.511 .0544054
613.277 .0544228
614.043 .0544422
614.809 .0544650
615.574 .0544891
616.339 .0545148
617.104 .0545419
617.868 .0545686
618.632 .0545956
619.395 .0546234
620.159 .0546509
620.922 .0546788
621.684 .0547075
622.447 .0547371
623.209 .0547660
623.970 .0547960
624.732 .0548257
625.493 .0548549
626.254 .0548830
627.014 .0549097
627.774 .0549333
628.534 .0549541
629.294 .0549719
630.053 .0549871
630.812 .0550011
631.571 .0550134
632.329 .0550252
633.087 .0550376
633.845 .0550502
634.602 .0550630
635.359 .0550741
636.116 .0550844
636.873 .0550925
637.629 .0550983
638.385 .0551019
639.141 .0551042
639.897 .0551068
640.652 .0551087
641.407 .0551116
642.161 .0551154
642.916 .0551191
643.670 .0551219
644.424 .0551236
645.177 .0551231
645.931 .0551207
646.684 .0551167
647.436 .0551125
648.189 .0551091
648.941 .0551078
649.693 .0551088
650.445 .0551127
651.196 .0551197
651.947 .0551289
652.698 .0551386
653.449 .0551501
654.199 .0551616
654.949 .0551737
655.699 .0551861
656.449 .0551989
657.198 .0552119
657.947 .0552244
658.696 .0552364
659.445 .0552476
660.193 .0552580
660.941 .0552674
661.689 .0552758
662.436 .0552832
663.184 .0552891
663.931 .0552941
664.678 .0552984
665.424 .0553022
666.171 .0553047
666.917 .0553073
667.663 .0553092
668.408 .0553109
669.154 .0553127
669.899 .0553141
670.644 .0553163
671.388 .0553186
672.133 .0553208
672.877 .0553228
673.621 .0553248
674.365 .0553261
675.108 .0553261
675.851 .0553250
676.594 .0553220
677.337 .0553172
678.080 .0553114
678.822 .0553051
679.564 .0552977
680.306 .0552904
681.047 .0552832
681.789 .0552760
682.530 .0552695
683.271 .0552625
684.012 .0552555
684.752 .0552484
685.492 .0552404
686.232 .0552316
686.972 .0552224
687.712 .0552134
688.451 .0552039
689.190 .0551940
689.929 .0551836
690.667 .0551718
691.406 .0551593
692.144 .0551461
692.882 .0551323
693.620 .0551185
694.357 .0551045
695.095 .0550912
695.832 .0550787
696.569 .0550669
697.305 .0550553
698.042 .0550440
698.778 .0550325
699.514 .0550203
700.249 .0550075
700.985 .0549953
701.720 .0549843
702.455 .0549754
703.190 .0549684
703.925 .0549642
704.659 .0549619
705.393 .0549607
706.127 .0549596
706.861 .0549583
707.595 .0549559
708.328 .0549531
709.061 .0549494
709.794 .0549458
710.527 .0549426
711.259 .0549406
711.991 .0549396
712.723 .0549393
713.455 .0549393
714.186 .0549388
714.918 .0549367
715.649 .0549332
716.380 .0549271
717.110 .0549193
717.841 .0549100
718.571 .0548998
719.301 .0548879
720.031 .0548750
720.760 .0548613
721.490 .0548469
722.219 .0548316
722.948 .0548155
723.676 .0547982
724.405 .0547800
725.133 .0547611
725.861 .0547417
726.589 .0547216
727.317 .0547019
728.044 .0546823
728.771 .0546630
729.498 .0546440
730.225 .0546252
730.951 .0546061
731.677 .0545876
732.403 .0545690
733.129 .0545497
733.855 .0545301
734.580 .0545106
735.305 .0544906
736.030 .0544702
736.755 .0544493
737.479 .0544277
738.203 .0544054
738.927 .0543830
739.651 .0543596
740.375 .0543360
741.098 .0543128
741.821 .0542901
742.544 .0542681
743.267 .0542471
743.989 .0542268
744.711 .0542070
745.433 .0541877
746.155 .0541687
746.877 .0541491
747.598 .0541292
748.319 .0541094
749.040 .0540897
749.760 .0540704
750.481 .0540518
751.201 .0540342
751.921 .0540180
752.640 .0540028
753.360 .0539882
754.079 .0539735
754.798 .0539594
755.517 .0539451
756.235 .0539305
756.953 .0539164
757.671 .0539028
758.389 .0538898
759.107 .0538784
759.824 .0538682
760.541 .0538592
761.258 .0538514
761.974 .0538446
762.691 .0538381
763.407 .0538311
764.123 .0538234
764.838 .0538148
765.554 .0538049
766.269 .0537944
766.984 .0537822
767.699 .0537697
768.413 .0537573
769.127 .0537448
769.841 .0537320
770.555 .0537191
771.268 .0537059
771.982 .0536924
772.694 .0536781
773.407 .0536631
774.120 .0536473
774.832 .0536313
775.544 .0536153
776.256 .0535991
776.967 .0535832
777.678 .0535676
778.389 .0535517
779.100 .0535358
779.810 .0535185
780.521 .0535004
781.231 .0534815
781.940 .0534616
782.650 .0534405
783.359 .0534182
784.068 .0533953
784.776 .0533712
785.485 .0533463
786.193 .0533196
786.901 .0532907
787.609 .0532603
788.316 .0532280
789.023 .0531943
789.730 .0531598
790.436 .0531249
791.143 .0530897
791.849 .0530550
792.555 .0530203
793.260 .0529851
793.965 .0529503
794.670 .0529157
795.375 .0528812
796.080 .0528467
796.784 .0528131
797.488 .0527806
798.191 .0527497
798.895 .0527202
799.598 .0526914
800.301 .0526637
801.003 .0526365
801.705 .0526088
802.408 .0525806
803.109 .0525523
803.811 .0525240
804.512 .0524958
805.213 .0524681
805.913 .0524406
806.614 .0524136
807.314 .0523870
808.014 .0523604
808.713 .0523334
809.412 .0523054
810.111 .0522765
810.810 .0522471
811.508 .0522178
812.206 .0521890
812.904 .0521607
813.602 .0521342
814.299 .0521094
814.996 .0520856
815.692 .0520628
816.389 .0520411
817.085 .0520202
817.781 .0519999
818.476 .0519799
819.171 .0519612
819.866 .0519437
820.561 .0519280
821.255 .0519136
821.949 .0519005
822.643 .0518892
823.336 .0518789
824.029 .0518691
824.722 .0518597
825.415 .0518499
826.107 .0518404
826.799 .0518306
827.490 .0518213
828.182 .0518124
828.873 .0518037
829.563 .0517945
830.254 .0517851
830.944 .0517747
831.634 .0517636
832.323 .0517515
833.012 .0517389
833.701 .0517264
834.390 .0517140
835.078 .0517019
835.766 .0516909
836.453 .0516813
837.141 .0516728
837.828 .0516645
838.514 .0516568
839.201 .0516490
839.887 .0516412
840.572 .0516335
841.258 .0516262
841.943 .0516194
842.628 .0516132
843.312 .0516074
843.996 .0516027
844.680 .0515982
845.363 .0515938
846.046 .0515885
846.729 .0515822
847.412 .0515745
848.094 .0515647
848.776 .0515527
849.457 .0515391
850.139 .0515235
850.819 .0515062
851.500 .0514868
852.180 .0514662
852.860 .0514441
853.540 .0514209
854.219 .0513959
854.898 .0513694
855.576 .0513411
856.254 .0513113
856.932 .0512796
857.610 .0512467
858.287 .0512125
858.964 .0511771
859.640 .0511414
860.317 .0511058
860.993 .0510702
861.668 .0510349
862.343 .0509995
863.018 .0509643
863.693 .0509285
864.367 .0508925
865.041 .0508561
865.714 .0508205
866.387 .0507855
867.060 .0507508
867.732 .0507167
868.404 .0506833
869.076 .0506500
869.748 .0506165
870.419 .0505820
871.089 .0505464
871.760 .0505095
872.430 .0504718
873.099 .0504334
873.769 .0503953
874.438 .0503574
875.106 .0503201
875.774 .0502834
876.442 .0502475
877.110 .0502117
877.777 .0501767
878.444 .0501422
879.110 .0501081
879.776 .0500745
880.442 .0500417
881.108 .0500101
881.773 .0499795
882.437 .0499500
883.102 .0499214
883.766 .0498938
884.429 .0498667
885.093 .0498407
885.755 .0498167
886.418 .0497948
887.080 .0497753
887.742 .0497576
888.403 .0497418
889.064 .0497273
889.725 .0497133
890.385 .0497002
891.045 .0496875
891.705 .0496759
892.364 .0496650
893.023 .0496559
893.682 .0496496
894.340 .0496456
894.998 .0496443
895.655 .0496452
896.312 .0496477
896.969 .0496498
897.625 .0496518
898.281 .0496538
898.937 .0496558
899.592 .0496580
900.247 .0496606
900.901 .0496639
901.555 .0496677
902.209 .0496715
902.862 .0496742
903.515 .0496762
904.168 .0496772
904.820 .0496757
905.472 .0496726
906.123 .0496689
906.774 .0496649
907.425 .0496607
908.076 .0496566
908.726 .0496523
909.375 .0496469
910.024 .0496404
910.673 .0496321
911.322 .0496229
911.970 .0496126
912.618 .0496020
913.265 .0495913
913.912 .0495816
914.558 .0495728
915.205 .0495645
915.850 .0495568
916.496 .0495490
917.141 .0495395
917.786 .0495283
918.430 .0495147
919.074 .0494990
919.718 .0494812
920.361 .0494620
921.004 .0494415
921.646 .0494207
922.288 .0493997
922.930 .0493790
923.571 .0493581
924.212 .0493370
924.853 .0493154
925.493 .0492934
926.133 .0492710
926.772 .0492481
927.411 .0492246
928.050 .0492010
928.688 .0491767
929.326 .0491519
929.963 .0491265
930.600 .0491008
931.237 .0490753
931.874 .0490501
932.510 .0490245
933.145 .0489981
933.780 .0489706
934.415 .0489425
935.050 .0489138
935.684 .0488843
936.318 .0488542
936.951 .0488242
937.584 .0487947
938.217 .0487657
938.849 .0487369
939.481 .0487089
940.112 .0486811
940.743 .0486531
941.374 .0486243
942.004 .0485950
942.634 .0485653
943.264 .0485351
943.893 .0485037
944.522 .0484713
945.150 .0484369
945.778 .0484008
946.406 .0483630
947.033 .0483236
947.660 .0482827
948.287 .0482410
948.913 .0481982
949.539 .0481549
950.165 .0481115
950.790 .0480684
951.414 .0480256
952.039 .0479837
952.663 .0479418
953.286 .0478997
953.910 .0478580
954.533 .0478168
955.155 .0477757
955.777 .0477355
956.399 .0476960
957.020 .0476576
957.641 .0476200
958.262 .0475830
958.882 .0475468
959.502 .0475117
960.122 .0474778
960.741 .0474443
961.360 .0474120
961.979 .0473814
962.597 .0473520
963.214 .0473236
963.832 .0472962
964.449 .0472693
965.066 .0472430
965.682 .0472174
966.298 .0471929
966.914 .0471697
967.529 .0471475
968.144 .0471266
968.758 .0471072
969.373 .0470884
969.986 .0470704
970.600 .0470525
971.213 .0470360
971.826 .0470203
972.438 .0470060
973.050 .0469927
973.662 .0469804
974.274 .0469685
974.885 .0469565
975.495 .0469436
976.106 .0469306
976.716 .0469174
977.325 .0469042
977.935 .0468916
978.544 .0468797
979.152 .0468682
979.761 .0468573
980.369 .0468465
980.976 .0468355
981.584 .0468236
982.191 .0468111
982.797 .0467987
983.404 .0467870
984.010 .0467767
984.615 .0467683
985.221 .0467620
985.826 .0467574
986.430 .0467533
987.035 .0467499
987.639 .0467468
988.243 .0467445
988.846 .0467431
989.449 .0467422
990.052 .0467423
990.654 .0467433
991.256 .0467453
991.858 .0467481
992.460 .0467514
993.061 .0467550
993.662 .0467589
994.262 .0467640
994.863 .0467696
995.463 .0467766
996.062 .0467852
996.662 .0467958
997.261 .0468070
997.860 .0468188
998.458 .0468310
999.056 .0468436
999.654 .0468570
1000.252 .0468706
1000.849 .0468848
1001.446 .0468995
1002.043 .0469144
1002.639 .0469293
1003.235 .0469435
1003.831 .0469570
1004.427 .0469691
1005.022 .0469802
1005.617 .0469898
1006.212 .0469984
1006.806 .0470067
1007.401 .0470154
1007.995 .0470248
1008.588 .0470343
1009.182 .0470440
1009.775 .0470536
1010.368 .0470639
1010.960 .0470738
1011.553 .0470831
1012.145 .0470923
1012.737 .0471006
1013.328 .0471084
1013.920 .0471150
1014.511 .0471208
1015.102 .0471261
1015.692 .0471308
1016.283 .0471359
1016.873 .0471406
1017.463 .0471453
1018.052 .0471496
1018.642 .0471536
1019.231 .0471563
1019.820 .0471574
1020.409 .0471567
1020.997 .0471539
1021.585 .0471495
1022.173 .0471436
1022.761 .0471362
1023.349 .0471279
1023.936 .0471183
1024.524 .0471078
1025.111 .0470954
1025.697 .0470824
1026.284 .0470680
1026.870 .0470530
1027.457 .0470374
1028.043 .0470210
1028.628 .0470035
1029.214 .0469860
1029.800 .0469683
1030.385 .0469501
1030.970 .0469310
1031.555 .0469115
1032.139 .0468921
1032.724 .0468722
1033.308 .0468518
1033.893 .0468310
1034.477 .0468087
1035.060 .0467847
1035.644 .0467579
1036.228 .0467280
1036.811 .0466951
1037.394 .0466589
1037.977 .0466204
1038.560 .0465800
1039.143 .0465393
1039.726 .0464979
1040.308 .0464563
1040.891 .0464160
1041.473 .0463754
1042.055 .0463341
1042.637 .0462933
1043.219 .0462523
1043.801 .0462124
1044.382 .0461729
1044.964 .0461346
1045.545 .0460979
1046.127 .0460626
1046.708 .0460281
1047.289 .0459941
1047.870 .0459610
1048.451 .0459292
1049.032 .0458976
1049.612 .0458677
1050.193 .0458390
1050.774 .0458122
1051.354 .0457875
1051.935 .0457632
1052.515 .0457397
1053.095 .0457160
1053.675 .0456925
1054.256 .0456703
1054.836 .0456490
1055.416 .0456297
1055.996 .0456123
1056.576 .0455972
1057.156 .0455837
1057.735 .0455706
1058.315 .0455580
1058.895 .0455444
1059.475 .0455288
1060.055 .0455113
1060.634 .0454912
1061.214 .0454692
1061.794 .0454468
1062.373 .0454236
1062.953 .0454006
1063.533 .0453785
1064.113 .0453580
1064.692 .0453384
1065.272 .0453200
1065.852 .0453026
1066.431 .0452834
1067.011 .0452638
1067.591 .0452425
1068.171 .0452192
1068.751 .0451957
1069.331 .0451720
1069.910 .0451491
1070.490 .0451270
1071.071 .0451074
1071.651 .0450883
1072.231 .0450696
1072.811 .0450515
1073.391 .0450327
1073.972 .0450132
1074.552 .0449946
1075.133 .0449758
1075.713 .0449579
1076.294 .0449422
1076.875 .0449276
1077.456 .0449151
1078.037 .0449041
1078.618 .0448944
1079.199 .0448862
1079.780 .0448803
1080.362 .0448778
1080.943 .0448764
1081.525 .0448783
1082.107 .0448822
1082.689 .0448859
1083.271 .0448892
1083.853 .0448896
1084.436 .0448877
1085.018 .0448844
1085.601 .0448800
1086.184 .0448761
1086.767 .0448740
1087.351 .0448759
1087.934 .0448797
1088.518 .0448841
1089.102 .0448888
1089.686 .0448903
1090.270 .0448878
1090.855 .0448818
1091.439 .0448721
1092.024 .0448619
1092.609 .0448524
1093.195 .0448445
1093.780 .0448403
1094.366 .0448407
1094.952 .0448446
1095.539 .0448502
1096.125 .0448580
1096.712 .0448674
1097.299 .0448755
1097.887 .0448830
1098.475 .0448894
1099.063 .0448942
1099.651 .0448996
1100.239 .0449055
1100.828 .0449131
1101.417 .0449233
1102.007 .0449377
1102.597 .0449561
1103.187 .0449790
1103.777 .0450051
1104.368 .0450316
1104.959 .0450579
1105.551 .0450857
1106.143 .0451112
1106.735 .0451343
1107.328 .0451578
1107.921 .0451829
1108.514 .0452096
1109.108 .0452393
1109.702 .0452704
1110.296 .0453032
1110.891 .0453354
1111.486 .0453660
1112.082 .0453925
1112.678 .0454177
1113.275 .0454412
1113.872 .0454638
1114.469 .0454873
1115.067 .0455128
1115.665 .0455399
1116.264 .0455721
1116.864 .0456110
1117.463 .0456525
1118.063 .0456969
1118.664 .0457488
1119.265 .0458073
1119.867 .0458742
1120.469 .0459479
1121.072 .0460293
1121.675 .0461147
1122.279 .0462003
1122.883 .0462836
1123.488 .0463623
1124.093 .0464374
1124.699 .0465094
1125.305 .0465755
1125.912 .0466419
1126.520 .0467082
1127.128 .0467752
1127.737 .0468464
1128.346 .0469221
1128.956 .0470005
1129.567 .0470760
1130.178 .0471503
1130.790 .0472230
1131.402 .0472903
1132.015 .0473540
1132.629 .0474158
1133.243 .0474748
1133.858 .0475335
1134.474 .0475901
1135.090 .0476468
1135.707 .0477053
1136.325 .0477665
1136.943 .0478282
1137.562 .0478890
1138.182 .0479471
1138.802 .0480004
1139.423 .0480473
1140.045 .0480952
1140.668 .0481455
1141.291 .0482093
1141.916 .0482990
1142.540 .0481886
1143.166 .0483639
1143.793 .0485641
1144.420 .0489289
1145.048 .0493161
