BestFit value for E:\RC_data\Compressed_For_Future_Analysis_Lite\test_shlomo\aqueous_test\GoodSpectraLarge_Full\0012_2025-06-24_09-45-30\Interpretation_History\2025-07-21_16-23-34\ResultsGraphs\BestFit\(Run)spectra_09-46-18-153_BestFit.txt
600.203 0.0460585
600.975 0.0459997
601.747 0.0459411
602.518 0.0458825
603.289 0.0458241
604.059 0.0457657
604.829 0.0457074
605.599 0.0456490
606.369 0.0455906
607.138 0.0455322
607.906 0.0454739
608.675 0.0454154
609.443 0.0453569
610.210 0.0452984
610.977 0.0452398
611.744 0.0451812
612.511 0.0451225
613.277 0.0450639
614.043 0.0450052
614.809 0.0449466
615.574 0.0448881
616.339 0.0448297
617.104 0.0447713
617.868 0.0447132
618.632 0.0446552
619.395 0.0445975
620.159 0.0445400
620.922 0.0444828
621.684 0.0444260
622.447 0.0443695
623.209 0.0443134
623.970 0.0442577
624.732 0.0442025
625.493 0.0441477
626.254 0.0440934
627.014 0.0440396
627.774 0.0439863
628.534 0.0439335
629.294 0.0438812
630.053 0.0438294
630.812 0.0437782
631.571 0.0437273
632.329 0.0436770
633.087 0.0436271
633.845 0.0435777
634.602 0.0435286
635.359 0.0434799
636.116 0.0434315
636.873 0.0433834
637.629 0.0433356
638.385 0.0432879
639.141 0.0432404
639.897 0.0431931
640.652 0.0431458
641.407 0.0430986
642.161 0.0430514
642.916 0.0430041
643.670 0.0429568
644.424 0.0429094
645.177 0.0428619
645.931 0.0428141
646.684 0.0427662
647.436 0.0427182
648.189 0.0426698
648.941 0.0426213
649.693 0.0425725
650.445 0.0425235
651.196 0.0424743
651.947 0.0424249
652.698 0.0423752
653.449 0.0423254
654.199 0.0422754
654.949 0.0422253
655.699 0.0421750
656.449 0.0421246
657.198 0.0420743
657.947 0.0420239
658.696 0.0419736
659.445 0.0419233
660.193 0.0418732
660.941 0.0418233
661.689 0.0417735
662.436 0.0417241
663.184 0.0416748
663.931 0.0416260
664.678 0.0415776
665.424 0.0415296
666.171 0.0414820
666.917 0.0414349
667.663 0.0413884
668.408 0.0413424
669.154 0.0412970
669.899 0.0412522
670.644 0.0412079
671.388 0.0411643
672.133 0.0411213
672.877 0.0410789
673.621 0.0410371
674.365 0.0409959
675.108 0.0409553
675.851 0.0409152
676.594 0.0408757
677.337 0.0408367
678.080 0.0407981
678.822 0.0407599
679.564 0.0407222
680.306 0.0406848
681.047 0.0406477
681.789 0.0406109
682.530 0.0405743
683.271 0.0405378
684.012 0.0405014
684.752 0.0404652
685.492 0.0404289
686.232 0.0403926
686.972 0.0403561
687.712 0.0403196
688.451 0.0402829
689.190 0.0402459
689.929 0.0402087
690.667 0.0401712
691.406 0.0401333
692.144 0.0400951
692.882 0.0400565
693.620 0.0400175
694.357 0.0399782
695.095 0.0399383
695.832 0.0398981
696.569 0.0398573
697.305 0.0398163
698.042 0.0397747
698.778 0.0397328
699.514 0.0396904
700.249 0.0396478
700.985 0.0396047
701.720 0.0395614
702.455 0.0395178
703.190 0.0394739
703.925 0.0394299
704.659 0.0393857
705.393 0.0393414
706.127 0.0392971
706.861 0.0392528
707.595 0.0392085
708.328 0.0391643
709.061 0.0391203
709.794 0.0390765
710.527 0.0390330
711.259 0.0389898
711.991 0.0389470
712.723 0.0389046
713.455 0.0388626
714.186 0.0388212
714.918 0.0387803
715.649 0.0387400
716.380 0.0387003
717.110 0.0386613
717.841 0.0386229
718.571 0.0385853
719.301 0.0385483
720.031 0.0385121
720.760 0.0384767
721.490 0.0384420
722.219 0.0384080
722.948 0.0383748
723.676 0.0383424
724.405 0.0383106
725.133 0.0382795
725.861 0.0382491
726.589 0.0382194
727.317 0.0381902
728.044 0.0381617
728.771 0.0381336
729.498 0.0381061
730.225 0.0380790
730.951 0.0380524
731.677 0.0380260
732.403 0.0380000
733.129 0.0379742
733.855 0.0379486
734.580 0.0379231
735.305 0.0378977
736.030 0.0378724
736.755 0.0378469
737.479 0.0378214
738.203 0.0377958
738.927 0.0377699
739.651 0.0377438
740.375 0.0377173
741.098 0.0376906
741.821 0.0376634
742.544 0.0376358
743.267 0.0376077
743.989 0.0375791
744.711 0.0375500
745.433 0.0375203
746.155 0.0374900
746.877 0.0374591
747.598 0.0374275
748.319 0.0373954
749.040 0.0373626
749.760 0.0373292
750.481 0.0372951
751.201 0.0372605
751.921 0.0372252
752.640 0.0371894
753.360 0.0371529
754.079 0.0371159
754.798 0.0370784
755.517 0.0370405
756.235 0.0370021
756.953 0.0369633
757.671 0.0369241
758.389 0.0368846
759.107 0.0368449
759.824 0.0368049
760.541 0.0367648
761.258 0.0367246
761.974 0.0366844
762.691 0.0366441
763.407 0.0366039
764.123 0.0365638
764.838 0.0365240
765.554 0.0364843
766.269 0.0364450
766.984 0.0364060
767.699 0.0363674
768.413 0.0363293
769.127 0.0362917
769.841 0.0362546
770.555 0.0362182
771.268 0.0361824
771.982 0.0361472
772.694 0.0361128
773.407 0.0360792
774.120 0.0360463
774.832 0.0360143
775.544 0.0359830
776.256 0.0359527
776.967 0.0359232
777.678 0.0358946
778.389 0.0358668
779.100 0.0358400
779.810 0.0358140
780.521 0.0357889
781.231 0.0357646
781.940 0.0357413
782.650 0.0357187
783.359 0.0356970
784.068 0.0356760
784.776 0.0356558
785.485 0.0356363
786.193 0.0356175
786.901 0.0355993
787.609 0.0355817
788.316 0.0355647
789.023 0.0355482
789.730 0.0355321
790.436 0.0355165
791.143 0.0355012
791.849 0.0354862
792.555 0.0354714
793.260 0.0354568
793.965 0.0354424
794.670 0.0354280
795.375 0.0354136
796.080 0.0353991
796.784 0.0353846
797.488 0.0353699
798.191 0.0353550
798.895 0.0353398
799.598 0.0353243
800.301 0.0353084
801.003 0.0352921
801.705 0.0352753
802.408 0.0352580
803.109 0.0352401
803.811 0.0352216
804.512 0.0352026
805.213 0.0351828
805.913 0.0351624
806.614 0.0351412
807.314 0.0351193
808.014 0.0350967
808.713 0.0350733
809.412 0.0350490
810.111 0.0350240
810.810 0.0349982
811.508 0.0349716
812.206 0.0349442
812.904 0.0349160
813.602 0.0348870
814.299 0.0348572
814.996 0.0348267
815.692 0.0347955
816.389 0.0347636
817.085 0.0347310
817.781 0.0346977
818.476 0.0346639
819.171 0.0346295
819.866 0.0345945
820.561 0.0345590
821.255 0.0345231
821.949 0.0344867
822.643 0.0344500
823.336 0.0344130
824.029 0.0343758
824.722 0.0343383
825.415 0.0343007
826.107 0.0342629
826.799 0.0342252
827.490 0.0341874
828.182 0.0341497
828.873 0.0341121
829.563 0.0340748
830.254 0.0340376
830.944 0.0340007
831.634 0.0339641
832.323 0.0339280
833.012 0.0338922
833.701 0.0338570
834.390 0.0338223
835.078 0.0337882
835.766 0.0337547
836.453 0.0337219
837.141 0.0336897
837.828 0.0336583
838.514 0.0336278
839.201 0.0335979
839.887 0.0335690
840.572 0.0335409
841.258 0.0335137
841.943 0.0334875
842.628 0.0334621
843.312 0.0334377
843.996 0.0334143
844.680 0.0333918
845.363 0.0333703
846.046 0.0333497
846.729 0.0333301
847.412 0.0333115
848.094 0.0332938
848.776 0.0332771
849.457 0.0332614
850.139 0.0332465
850.819 0.0332325
851.500 0.0332194
852.180 0.0332072
852.860 0.0331957
853.540 0.0331851
854.219 0.0331752
854.898 0.0331661
855.576 0.0331576
856.254 0.0331498
856.932 0.0331426
857.610 0.0331359
858.287 0.0331298
858.964 0.0331242
859.640 0.0331189
860.317 0.0331141
860.993 0.0331096
861.668 0.0331054
862.343 0.0331014
863.018 0.0330975
863.693 0.0330938
864.367 0.0330902
865.041 0.0330866
865.714 0.0330830
866.387 0.0330793
867.060 0.0330755
867.732 0.0330715
868.404 0.0330673
869.076 0.0330628
869.748 0.0330580
870.419 0.0330528
871.089 0.0330473
871.760 0.0330412
872.430 0.0330347
873.099 0.0330276
873.769 0.0330200
874.438 0.0330117
875.106 0.0330028
875.774 0.0329933
876.442 0.0329830
877.110 0.0329720
877.777 0.0329602
878.444 0.0329477
879.110 0.0329344
879.776 0.0329202
880.442 0.0329052
881.108 0.0328893
881.773 0.0328726
882.437 0.0328551
883.102 0.0328366
883.766 0.0328173
884.429 0.0327971
885.093 0.0327761
885.755 0.0327541
886.418 0.0327313
887.080 0.0327077
887.742 0.0326832
888.403 0.0326579
889.064 0.0326318
889.725 0.0326048
890.385 0.0325772
891.045 0.0325487
891.705 0.0325196
892.364 0.0324897
893.023 0.0324592
893.682 0.0324280
894.340 0.0323963
894.998 0.0323639
895.655 0.0323311
896.312 0.0322977
896.969 0.0322639
897.625 0.0322297
898.281 0.0321950
898.937 0.0321601
899.592 0.0321248
900.247 0.0320893
900.901 0.0320536
901.555 0.0320177
902.209 0.0319817
902.862 0.0319457
903.515 0.0319095
904.168 0.0318734
904.820 0.0318374
905.472 0.0318015
906.123 0.0317657
906.774 0.0317301
907.425 0.0316947
908.076 0.0316596
908.726 0.0316249
909.375 0.0315905
910.024 0.0315565
910.673 0.0315230
911.322 0.0314899
911.970 0.0314574
912.618 0.0314254
913.265 0.0313940
913.912 0.0313632
914.558 0.0313332
915.205 0.0313037
915.850 0.0312751
916.496 0.0312471
917.141 0.0312200
917.786 0.0311936
918.430 0.0311680
919.074 0.0311433
919.718 0.0311195
920.361 0.0310965
921.004 0.0310744
921.646 0.0310533
922.288 0.0310330
922.930 0.0310137
923.571 0.0309953
924.212 0.0309779
924.853 0.0309614
925.493 0.0309458
926.133 0.0309312
926.772 0.0309176
927.411 0.0309049
928.050 0.0308931
928.688 0.0308822
929.326 0.0308723
929.963 0.0308632
930.600 0.0308551
931.237 0.0308478
931.874 0.0308414
932.510 0.0308359
933.145 0.0308311
933.780 0.0308272
934.415 0.0308240
935.050 0.0308216
935.684 0.0308200
936.318 0.0308190
936.951 0.0308187
937.584 0.0308191
938.217 0.0308200
938.849 0.0308216
939.481 0.0308237
940.112 0.0308263
940.743 0.0308295
941.374 0.0308330
942.004 0.0308370
942.634 0.0308414
943.264 0.0308461
943.893 0.0308511
944.522 0.0308563
945.150 0.0308619
945.778 0.0308676
946.406 0.0308734
947.033 0.0308794
947.660 0.0308854
948.287 0.0308915
948.913 0.0308976
949.539 0.0309037
950.165 0.0309097
950.790 0.0309155
951.414 0.0309213
952.039 0.0309268
952.663 0.0309321
953.286 0.0309372
953.910 0.0309420
954.533 0.0309465
955.155 0.0309506
955.777 0.0309543
956.399 0.0309576
957.020 0.0309604
957.641 0.0309628
958.262 0.0309646
958.882 0.0309660
959.502 0.0309667
960.122 0.0309678
960.741 0.0309719
961.360 0.0309753
961.979 0.0309781
962.597 0.0309801
963.214 0.0309815
963.832 0.0309822
964.449 0.0309821
965.066 0.0309813
965.682 0.0309796
966.298 0.0309773
966.914 0.0309741
967.529 0.0309701
968.144 0.0309653
968.758 0.0309597
969.373 0.0309532
969.986 0.0309460
970.600 0.0309379
971.213 0.0309289
971.826 0.0309191
972.438 0.0309085
973.050 0.0308971
973.662 0.0308848
974.274 0.0308717
974.885 0.0308578
975.495 0.0308431
976.106 0.0308276
976.716 0.0308113
977.325 0.0307942
977.935 0.0307763
978.544 0.0307577
979.152 0.0307384
979.761 0.0307183
980.369 0.0306975
980.976 0.0306761
981.584 0.0306539
982.191 0.0306311
982.797 0.0306077
983.404 0.0305836
984.010 0.0305590
984.615 0.0305338
985.221 0.0305081
985.826 0.0304818
986.430 0.0304551
987.035 0.0304279
987.639 0.0304002
988.243 0.0303722
988.846 0.0303437
989.449 0.0303149
990.052 0.0302858
990.654 0.0302564
991.256 0.0302267
991.858 0.0301968
992.460 0.0301666
993.061 0.0301363
993.662 0.0301058
994.262 0.0300753
994.863 0.0300446
995.463 0.0300138
996.062 0.0299831
996.662 0.0299523
997.261 0.0299216
997.860 0.0298909
998.458 0.0298604
999.056 0.0298300
999.654 0.0297997
1000.252 0.0297678
1000.849 0.0297339
1001.446 0.0297003
1002.043 0.0296669
1002.639 0.0296338
1003.235 0.0296011
1003.831 0.0295688
1004.427 0.0295368
1005.022 0.0295052
1005.617 0.0294741
1006.212 0.0294435
1006.806 0.0294133
1007.401 0.0293837
1007.995 0.0293546
1008.588 0.0293261
1009.182 0.0292981
1009.775 0.0292707
1010.368 0.0292440
1010.96 0.0292179
1011.553 0.0291925
1012.145 0.0291677
1012.737 0.0291436
1013.328 0.0291203
1013.92 0.0290976
1014.511 0.0290757
1015.102 0.0290545
1015.692 0.0290341
1016.283 0.0290145
1016.873 0.0289956
1017.463 0.0289776
1018.052 0.0289603
1018.642 0.0289438
1019.231 0.0289282
1019.82 0.0289133
1020.409 0.0288993
1020.997 0.0288861
1021.585 0.0288737
1022.173 0.0288621
1022.761 0.0288513
1023.349 0.0288414
1023.936 0.0288323
1024.524 0.0288240
1025.111 0.0288165
1025.697 0.0288099
1026.284 0.0288040
1026.87 0.0287989
1027.457 0.0287946
1028.043 0.0287912
1028.628 0.0287884
1029.214 0.0287865
1029.80 0.0287853
1030.385 0.0287848
1030.97 0.0287850
1031.555 0.0287860
1032.139 0.0287877
1032.724 0.0287901
1033.308 0.0287931
1033.893 0.0287968
1034.477 0.0288011
1035.06 0.0288060
1035.644 0.0288116
1036.228 0.0288177
1036.811 0.0288244
1037.394 0.0288317
1037.977 0.0288395
1038.56 0.0288477
1039.143 0.0288565
1039.726 0.0288657
1040.308 0.0288754
1040.891 0.0288855
1041.473 0.0288960
1042.055 0.0289068
1042.637 0.0289181
1043.219 0.0289296
1043.801 0.0289414
1044.382 0.0289535
1044.964 0.0289659
1045.545 0.0289785
1046.127 0.0289913
1046.708 0.0290043
1047.289 0.0290174
1047.87 0.0290307
1048.451 0.0290440
1049.032 0.0290575
1049.612 0.0290709
1050.193 0.0290845
1050.774 0.0290980
1051.354 0.0291115
1051.935 0.0291250
1052.515 0.0291383
1053.095 0.0291516
1053.675 0.0291648
1054.256 0.0291778
1054.836 0.0291906
1055.416 0.0292033
1055.996 0.0292157
1056.576 0.0292279
1057.156 0.0292398
1057.735 0.0292515
1058.315 0.0292628
1058.895 0.0292738
1059.475 0.0292845
1060.055 0.0292947
1060.634 0.0293046
1061.214 0.0293141
1061.794 0.0293231
1062.373 0.0293317
1062.953 0.0293398
1063.533 0.0293474
1064.113 0.0293545
1064.692 0.0293610
1065.272 0.0293670
1065.852 0.0293725
1066.431 0.0293774
1067.011 0.0293817
1067.591 0.0293853
1068.171 0.0293884
1068.751 0.0293908
1069.331 0.0293926
1069.91 0.0293937
1070.49 0.0293942
1071.071 0.0293939
1071.651 0.0293930
1072.231 0.0293914
1072.811 0.0293891
1073.391 0.0293860
1073.972 0.0293822
1074.552 0.0293777
1075.133 0.0293725
1075.713 0.0293665
1076.294 0.0293598
1076.875 0.0293523
1077.456 0.0293440
1078.037 0.0293350
1078.618 0.0293252
1079.199 0.0293147
1079.78 0.0293034
1080.362 0.0292914
1080.943 0.0292786
1081.525 0.0292650
1082.107 0.0292507
1082.689 0.0292356
1083.271 0.0292198
1083.853 0.0292033
1084.436 0.0291859
1085.018 0.0291679
1085.601 0.0291491
1086.184 0.0291296
1086.767 0.0291094
1087.351 0.0290885
1087.934 0.0290669
1088.518 0.0290446
1089.102 0.0290217
1089.686 0.0289980
1090.27 0.0289737
1090.855 0.0289488
1091.439 0.0289233
1092.024 0.0288971
1092.609 0.0288703
1093.195 0.0288429
1093.78 0.0288150
1094.366 0.0287865
1094.952 0.0287575
1095.539 0.0287279
1096.125 0.0286979
1096.712 0.0286673
1097.299 0.0286363
1097.887 0.0286047
1098.475 0.0285728
1099.063 0.0285404
1099.651 0.0285077
1100.239 0.0284746
1100.828 0.0284411
1101.417 0.0284073
1102.007 0.0283731
1102.597 0.0283386
1103.187 0.0283039
1103.777 0.0282689
1104.368 0.0282337
1104.959 0.0281983
1105.551 0.0281626
1106.143 0.0281268
1106.735 0.0280909
1107.328 0.0280548
1107.921 0.0280186
1108.514 0.0279824
1109.108 0.0279461
1109.702 0.0279097
1110.296 0.0278734
1110.891 0.0278371
1111.486 0.0278008
1112.082 0.0277646
1112.678 0.0277285
1113.275 0.0276924
1113.872 0.0276565
1114.469 0.0276208
1115.067 0.0275853
1115.665 0.0275499
1116.264 0.0275148
1116.864 0.0274798
1117.463 0.0274453
1118.063 0.0274110
1118.664 0.0273769
1119.265 0.0273433
1119.867 0.0273099
1120.469 0.0272770
1121.072 0.0272445
1121.675 0.0272124
1122.279 0.0271807
1122.883 0.0271495
1123.488 0.0271188
1124.093 0.0270886
1124.699 0.0270589
1125.305 0.0270297
1125.912 0.0270012
1126.52 0.0269731
1127.128 0.0269457
1127.737 0.0269189
1128.346 0.0268928
1128.956 0.0268672
1129.567 0.0268424
1130.178 0.0268182
1130.79 0.0267947
1131.402 0.0267720
1132.015 0.0267499
1132.629 0.0267286
1133.243 0.0267080
1133.858 0.0266882
1134.474 0.0266692
1135.09 0.0266509
1135.707 0.0266335
1136.325 0.0266168
1136.943 0.0266010
1137.562 0.0265860
1138.182 0.0265718
1138.802 0.0265585
1139.423 0.0265460
1140.045 0.0265343
1140.668 0.0265235
1141.291 0.0265135
1141.916 0.0265045
1142.54 0.0264962
1143.166 0.0264889
1143.793 0.0264824
1144.42 0.0264768
1145.048 0.0264721
