Measurement Sequence started on: 12-08-58-817
Integration time: 28
Scans to Average: 2 
>>>>>Begin Spectral Data<<<<<
432.689 .0000100
433.621 .0000100
434.552 .0000100
435.482 .0000100
436.410 .5921873
437.337 .1568796
438.262 .1548702
439.187 .1433958
440.110 .1266174
441.031 .1087992
441.952 .0813596
442.871 .0703790
443.789 .0636676
444.705 .0589533
445.621 .0554242
446.535 .0526205
447.447 .0502844
448.359 .0482829
449.269 .0465460
450.178 .0450547
451.086 .0437566
451.993 .0426270
452.898 .0416454
453.803 .0407976
454.706 .0400532
455.608 .0393885
456.508 .0387778
457.408 .0382159
458.306 .0376920
459.204 .0371920
460.100 .0367210
460.995 .0362833
461.888 .0358776
462.781 .0355175
463.673 .0352016
464.563 .0349175
465.452 .0346633
466.340 .0344295
467.228 .0342188
468.114 .0340190
468.999 .0338320
469.882 .0336507
470.765 .0334794
471.647 .0333166
472.528 .0331657
473.407 .0330316
474.286 .0329157
475.163 .0328166
476.040 .0327366
476.915 .0326743
477.790 .0326175
478.663 .0325668
479.535 .0325165
480.407 .0324615
481.277 .0324008
482.147 .0323362
483.015 .0322714
483.883 .0322121
484.749 .0321644
485.615 .0321342
486.479 .0321226
487.343 .0321353
488.206 .0321587
489.067 .0321960
489.928 .0322367
490.788 .0322785
491.647 .0323148
492.505 .0323520
493.362 .0323941
494.218 .0324457
495.073 .0325153
495.928 .0326078
496.781 .0327260
497.634 .0328663
498.486 .0330296
499.337 .0332080
500.187 .0333924
501.036 .0335936
501.884 .0338011
502.731 .0340254
503.578 .0342666
504.424 .0345294
505.268 .0348196
506.113 .0351275
506.956 .0354634
507.798 .0358080
508.640 .0361741
509.480 .0365613
510.320 .0369765
511.160 .0374316
511.998 .0379501
512.836 .0385439
513.672 .0392370
514.508 .0400404
515.344 .0409577
516.178 .0420232
517.012 .0432705
517.845 .0447469
518.677 .0464772
519.508 .0485013
520.339 .0509151
521.169 .0537492
521.998 .0570518
522.826 .0608566
523.654 .0651673
524.481 .0699971
525.307 .0752809
526.133 .0809968
526.958 .0870061
527.782 .0931886
528.605 .0993786
529.428 .1052324
530.250 .1104054
531.072 .1145559
531.892 .1173843
532.712 .1187678
533.532 .1186244
534.350 .1169992
535.168 .1140313
535.986 .1100550
536.802 .1053370
537.618 .1001366
538.434 .0947301
539.249 .0893206
540.063 .0840298
540.876 .0789529
541.689 .0741171
542.501 .0696158
543.313 .0655229
544.124 .0618432
544.934 .0585367
545.744 .0555884
546.553 .0529662
547.361 .0506497
548.169 .0486125
548.976 .0468052
549.783 .0451815
550.589 .0437293
551.395 .0423977
552.200 .0411761
553.004 .0400560
553.808 .0390173
554.611 .0380703
555.414 .0372055
556.216 .0364166
557.018 .0356930
557.819 .0350457
558.619 .0344516
559.419 .0339023
560.218 .0333988
561.017 .0329192
561.815 .0324584
562.613 .0320205
563.410 .0316055
564.207 .0312133
565.003 .0308583
565.799 .0305332
566.594 .0302368
567.388 .0299770
568.182 .0297392
568.976 .0295223
569.769 .0293174
570.562 .0291194
571.354 .0289195
572.145 .0287227
572.936 .0285342
573.727 .0283539
574.517 .0281859
575.307 .0280318
576.096 .0278919
576.885 .0277627
577.673 .0276392
578.461 .0275184
579.248 .0274019
580.035 .0272903
580.821 .0271821
581.607 .0270768
582.392 .0269720
583.177 .0268753
583.962 .0267893
584.746 .0267114
585.529 .0266395
586.313 .0265736
587.095 .0265108
587.878 .0264481
588.660 .0263843
589.441 .0263210
590.222 .0262601
591.003 .0262045
591.783 .0261534
592.563 .0261074
593.342 .0260668
594.121 .0260283
594.899 .0259912
595.678 .0259558
596.455 .0259194
597.233 .0258823
598.009 .0258458
598.786 .0258117
599.562 .0257809
600.338 .0257543
601.113 .0257337
601.888 .0257184
602.663 .0257071
603.437 .0256989
604.211 .0256919
604.984 .0256859
605.757 .0256814
606.530 .0256767
607.302 .0256731
608.074 .0256718
608.845 .0256731
609.616 .0256772
610.387 .0256838
611.158 .0256922
611.928 .0257004
612.697 .0257074
613.467 .0257123
614.236 .0257142
615.004 .0257135
615.773 .0257103
616.541 .0257045
617.308 .0256968
618.076 .0256874
618.843 .0256748
619.609 .0256600
620.375 .0256436
621.141 .0256247
621.907 .0256029
622.672 .0255793
623.437 .0255548
624.202 .0255293
624.966 .0255037
625.730 .0254776
626.493 .0254507
627.257 .0254229
628.020 .0253935
628.782 .0253621
629.545 .0253299
630.307 .0252977
631.068 .0252658
631.830 .0252351
632.591 .0252071
633.352 .0251808
634.112 .0251570
634.872 .0251349
635.632 .0251130
636.392 .0250903
637.151 .0250665
637.910 .0250412
638.668 .0250148
639.427 .0249881
640.185 .0249620
640.943 .0249379
641.700 .0249164
642.457 .0248971
643.214 .0248803
643.971 .0248652
644.727 .0248519
645.483 .0248394
646.239 .0248279
646.994 .0248166
647.750 .0248066
648.505 .0247984
649.259 .0247917
650.014 .0247874
650.768 .0247854
651.521 .0247862
652.275 .0247888
653.028 .0247926
653.781 .0247967
654.534 .0248008
655.286 .0248052
656.039 .0248084
656.791 .0248105
657.542 .0248113
658.294 .0248117
659.045 .0248114
659.796 .0248108
660.546 .0248101
661.297 .0248095
662.047 .0248097
662.796 .0248099
663.546 .0248102
664.295 .0248109
665.044 .0248119
665.793 .0248132
666.542 .0248137
667.290 .0248142
668.038 .0248131
668.786 .0248112
669.533 .0248083
670.281 .0248045
671.028 .0247985
671.774 .0247905
672.521 .0247801
673.267 .0247681
674.013 .0247542
674.759 .0247391
675.505 .0247230
676.250 .0247064
676.995 .0246891
677.740 .0246706
678.484 .0246508
679.229 .0246302
679.973 .0246077
680.717 .0245842
681.460 .0245593
682.204 .0245343
682.947 .0245099
683.690 .0244871
684.433 .0244663
685.175 .0244476
685.917 .0244302
686.659 .0244134
687.401 .0243968
688.142 .0243797
688.884 .0243620
689.625 .0243432
690.365 .0243242
691.106 .0243051
691.846 .0242865
692.586 .0242689
693.326 .0242525
694.066 .0242378
694.805 .0242240
695.545 .0242104
696.284 .0241971
697.022 .0241833
697.761 .0241697
698.499 .0241561
699.237 .0241428
699.975 .0241302
700.713 .0241182
701.450 .0241067
702.187 .0240968
702.924 .0240881
703.661 .0240807
704.397 .0240744
705.133 .0240699
705.869 .0240667
706.605 .0240648
707.341 .0240642
708.076 .0240648
708.811 .0240663
709.546 .0240686
710.281 .0240704
711.015 .0240724
711.749 .0240739
712.483 .0240753
713.217 .0240763
713.950 .0240776
714.684 .0240792
715.417 .0240816
716.150 .0240850
716.882 .0240894
717.615 .0240941
718.347 .0240993
719.079 .0241043
719.811 .0241091
720.542 .0241138
721.273 .0241183
722.005 .0241229
722.735 .0241288
723.466 .0241356
724.196 .0241436
724.927 .0241518
725.656 .0241600
726.386 .0241674
727.116 .0241729
727.845 .0241764
728.574 .0241773
729.303 .0241763
730.031 .0241740
730.760 .0241703
731.488 .0241660
732.216 .0241614
732.944 .0241565
733.671 .0241515
734.398 .0241460
735.125 .0241397
735.852 .0241323
736.579 .0241246
737.305 .0241171
738.031 .0241102
738.757 .0241043
739.483 .0240992
740.208 .0240949
740.933 .0240912
741.658 .0240871
742.383 .0240822
743.108 .0240764
743.832 .0240696
744.556 .0240615
745.280 .0240525
746.004 .0240422
746.727 .0240315
747.450 .0240203
748.173 .0240082
748.896 .0239953
749.618 .0239813
750.340 .0239660
751.062 .0239501
751.784 .0239337
752.506 .0239168
753.227 .0238999
753.948 .0238833
754.669 .0238671
755.389 .0238511
756.110 .0238350
756.830 .0238188
757.550 .0238024
758.269 .0237858
758.989 .0237686
759.708 .0237513
760.427 .0237340
761.146 .0237165
761.864 .0236990
762.582 .0236814
763.300 .0236634
764.018 .0236457
764.736 .0236280
765.453 .0236112
766.170 .0235957
766.887 .0235815
767.603 .0235691
768.320 .0235584
769.036 .0235492
769.751 .0235410
770.467 .0235334
771.182 .0235263
771.897 .0235193
772.612 .0235126
773.327 .0235061
774.041 .0235003
774.755 .0234954
775.469 .0234914
776.183 .0234886
776.896 .0234870
777.609 .0234858
778.322 .0234852
779.035 .0234848
779.747 .0234846
780.459 .0234845
781.171 .0234848
781.882 .0234856
782.594 .0234875
783.305 .0234903
784.016 .0234942
784.726 .0234995
785.436 .0235064
786.147 .0235142
786.856 .0235238
787.566 .0235351
788.275 .0235480
788.984 .0235622
789.693 .0235775
790.401 .0235932
791.110 .0236091
791.818 .0236243
792.525 .0236387
793.233 .0236524
793.940 .0236655
794.647 .0236781
795.353 .0236910
796.060 .0237041
796.766 .0237175
797.472 .0237307
798.177 .0237435
798.883 .0237550
799.588 .0237650
800.292 .0237732
800.997 .0237805
801.701 .0237872
802.405 .0237935
803.109 .0238004
803.812 .0238090
804.515 .0238188
805.218 .0238292
805.921 .0238398
806.623 .0238499
807.325 .0238586
808.027 .0238656
808.728 .0238705
809.429 .0238738
810.130 .0238758
810.831 .0238771
811.531 .0238776
812.231 .0238778
812.931 .0238773
813.630 .0238754
814.330 .0238722
815.029 .0238668
815.727 .0238589
816.426 .0238487
817.124 .0238364
817.821 .0238223
818.519 .0238067
819.216 .0237904
819.913 .0237739
820.609 .0237578
821.306 .0237420
822.002 .0237264
822.697 .0237110
823.393 .0236956
824.088 .0236797
824.783 .0236630
825.477 .0236458
826.171 .0236275
826.865 .0236090
827.559 .0235903
828.252 .0235712
828.945 .0235521
829.638 .0235330
830.330 .0235142
831.023 .0234950
831.714 .0234756
832.406 .0234560
833.097 .0234356
833.788 .0234148
834.479 .0233936
835.169 .0233717
835.859 .0233492
836.548 .0233259
837.238 .0233022
837.927 .0232779
838.615 .0232531
839.304 .0232281
839.992 .0232035
840.680 .0231797
841.367 .0231568
842.054 .0231348
842.741 .0231143
843.428 .0230950
844.114 .0230767
844.800 .0230591
845.485 .0230416
846.170 .0230241
846.855 .0230067
847.540 .0229895
848.224 .0229731
848.908 .0229577
849.592 .0229436
850.275 .0229309
850.958 .0229195
851.641 .0229088
852.323 .0228986
853.005 .0228890
853.687 .0228795
854.368 .0228697
855.049 .0228599
855.730 .0228503
856.410 .0228412
857.090 .0228330
857.769 .0228257
858.449 .0228198
859.128 .0228153
859.806 .0228120
860.485 .0228100
861.163 .0228092
861.840 .0228094
862.518 .0228107
863.195 .0228130
863.871 .0228162
864.548 .0228202
865.224 .0228249
865.899 .0228308
866.574 .0228377
867.249 .0228452
867.924 .0228536
868.598 .0228627
869.272 .0228725
869.946 .0228828
870.619 .0228939
871.292 .0229056
871.964 .0229179
872.636 .0229309
873.308 .0229440
873.979 .0229572
874.651 .0229708
875.321 .0229843
875.992 .0229981
876.662 .0230120
877.331 .0230260
878.001 .0230400
878.670 .0230544
879.338 .0230689
880.007 .0230837
880.675 .0230991
881.342 .0231148
882.009 .0231305
882.676 .0231457
883.343 .0231601
884.009 .0231732
884.675 .0231850
885.340 .0231959
886.005 .0232060
886.670 .0232156
887.334 .0232250
887.998 .0232348
888.662 .0232451
889.325 .0232559
889.988 .0232670
890.650 .0232780
891.312 .0232888
891.974 .0232990
892.636 .0233087
893.297 .0233184
893.957 .0233286
894.618 .0233395
895.278 .0233510
895.937 .0233632
896.596 .0233759
897.255 .0233887
897.914 .0234008
898.572 .0234117
899.230 .0234208
899.887 .0234277
900.544 .0234326
901.201 .0234355
901.857 .0234366
902.513 .0234358
903.168 .0234333
903.823 .0234289
904.478 .0234228
905.132 .0234148
905.786 .0234051
906.440 .0233940
907.093 .0233813
907.746 .0233670
908.399 .0233514
909.051 .0233348
909.703 .0233174
910.354 .0232990
911.005 .0232800
911.656 .0232603
912.306 .0232403
912.956 .0232205
913.605 .0232010
914.254 .0231820
914.903 .0231636
915.551 .0231452
916.199 .0231270
916.847 .0231090
917.494 .0230910
918.141 .0230731
918.788 .0230555
919.434 .0230380
920.079 .0230204
920.725 .0230030
921.370 .0229859
922.014 .0229688
922.658 .0229515
923.302 .0229332
923.946 .0229132
924.589 .0228914
925.231 .0228672
925.873 .0228405
926.515 .0228114
927.157 .0227797
927.798 .0227455
928.439 .0227095
929.079 .0226724
929.719 .0226343
930.359 .0225957
930.998 .0225574
931.637 .0225194
932.275 .0224817
932.913 .0224442
933.551 .0224071
934.188 .0223704
934.825 .0223344
935.462 .0222990
936.098 .0222646
936.733 .0222314
937.369 .0221998
938.004 .0221689
938.638 .0221389
939.273 .0221095
939.907 .0220808
940.540 .0220523
941.173 .0220243
941.806 .0219967
942.438 .0219699
943.070 .0219439
943.702 .0219189
944.333 .0218948
944.964 .0218714
945.594 .0218491
946.224 .0218276
946.854 .0218070
947.483 .0217879
948.112 .0217699
948.741 .0217534
949.369 .0217386
949.996 .0217251
950.624 .0217121
951.251 .0216996
951.878 .0216873
952.504 .0216745
953.130 .0216612
953.755 .0216482
954.380 .0216351
955.005 .0216231
955.629 .0216123
956.253 .0216024
956.877 .0215937
957.500 .0215863
958.123 .0215788
958.746 .0215714
959.368 .0215641
959.990 .0215568
960.611 .0215494
961.232 .0215430
961.853 .0215379
962.473 .0215347
963.093 .0215336
963.712 .0215343
964.331 .0215360
964.950 .0215391
965.569 .0215428
966.187 .0215468
966.804 .0215518
967.422 .0215580
968.039 .0215652
968.655 .0215739
969.272 .0215839
969.887 .0215957
970.503 .0216091
971.118 .0216239
971.733 .0216396
972.347 .0216558
972.961 .0216722
973.575 .0216884
974.188 .0217041
974.801 .0217193
975.414 .0217341
976.026 .0217477
976.638 .0217605
977.250 .0217725
977.861 .0217846
978.472 .0217964
979.083 .0218089
979.693 .0218217
980.303 .0218344
980.912 .0218474
981.521 .0218606
982.130 .0218736
982.738 .0218872
983.346 .0219013
983.954 .0219160
984.562 .0219309
985.169 .0219465
985.775 .0219621
986.382 .0219780
986.988 .0219945
987.594 .0220112
988.199 .0220276
988.804 .0220447
989.409 .0220621
990.013 .0220806
990.617 .0221000
991.221 .0221203
991.824 .0221408
992.427 .0221616
993.030 .0221827
993.632 .0222032
994.234 .0222232
994.836 .0222437
995.438 .0222642
996.039 .0222847
996.640 .0223054
997.240 .0223263
997.840 .0223477
998.440 .0223696
999.040 .0223915
999.639 .0224129
1000.238 .0224342
1000.836 .0224553
1001.435 .0224757
1002.033 .0224956
1002.630 .0225152
1003.228 .0225337
1003.825 .0225519
1004.422 .0225691
1005.018 .0225855
1005.614 .0226013
1006.210 .0226167
1006.806 .0226313
1007.401 .0226449
1007.996 .0226571
1008.591 .0226674
1009.186 .0226759
1009.780 .0226826
1010.374 .0226869
1010.967 .0226894
1011.561 .0226904
1012.154 .0226900
1012.746 .0226885
1013.339 .0226862
1013.931 .0226828
1014.523 .0226791
1015.115 .0226750
1015.706 .0226705
1016.298 .0226664
1016.888 .0226632
1017.479 .0226610
1018.069 .0226595
1018.660 .0226590
1019.250 .0226586
1019.839 .0226579
1020.429 .0226571
1021.018 .0226555
1021.607 .0226538
1022.195 .0226521
1022.784 .0226502
1023.372 .0226487
1023.960 .0226485
1024.547 .0226492
1025.135 .0226499
1025.722 .0226510
1026.309 .0226518
1026.896 .0226515
1027.483 .0226499
1028.069 .0226468
1028.655 .0226425
1029.241 .0226375
1029.827 .0226323
1030.412 .0226266
1030.997 .0226210
1031.582 .0226152
1032.167 .0226092
1032.752 .0226028
1033.336 .0225953
1033.921 .0225865
1034.505 .0225763
1035.089 .0225652
1035.672 .0225526
1036.256 .0225381
1036.839 .0225226
1037.422 .0225066
1038.005 .0224899
1038.588 .0224719
1039.171 .0224527
1039.753 .0224328
1040.335 .0224118
1040.918 .0223893
1041.500 .0223657
1042.081 .0223418
1042.663 .0223171
1043.244 .0222925
1043.826 .0222669
1044.407 .0222409
1044.988 .0222149
1045.569 .0221896
1046.150 .0221644
1046.730 .0221403
1047.311 .0221173
1047.891 .0220966
1048.471 .0220775
1049.052 .0220613
1049.632 .0220461
1050.211 .0220322
1050.791 .0220196
1051.371 .0220060
1051.950 .0219921
1052.530 .0219789
1053.109 .0219654
1053.688 .0219526
1054.268 .0219408
1054.847 .0219296
1055.426 .0219178
1056.005 .0219052
1056.583 .0218906
1057.162 .0218725
1057.741 .0218512
1058.319 .0218279
1058.898 .0218028
1059.476 .0217773
1060.055 .0217524
1060.633 .0217281
1061.211 .0217061
1061.790 .0216855
1062.368 .0216650
1062.946 .0216446
1063.524 .0216250
1064.102 .0216057
1064.680 .0215860
1065.258 .0215686
1065.836 .0215543
1066.414 .0215421
1066.992 .0215321
1067.570 .0215230
1068.148 .0215143
1068.726 .0215054
1069.304 .0214969
1069.882 .0214881
1070.460 .0214808
1071.038 .0214750
1071.616 .0214702
1072.194 .0214669
1072.772 .0214658
1073.350 .0214648
1073.928 .0214632
1074.506 .0214604
1075.084 .0214549
1075.662 .0214457
1076.240 .0214344
1076.819 .0214222
1077.397 .0214098
1077.976 .0213983
1078.554 .0213873
1079.133 .0213774
1079.711 .0213695
1080.290 .0213622
1080.869 .0213551
1081.448 .0213487
1082.027 .0213429
1082.606 .0213367
1083.185 .0213308
1083.764 .0213267
1084.343 .0213247
1084.923 .0213253
1085.502 .0213287
1086.082 .0213337
1086.662 .0213423
1087.242 .0213530
1087.822 .0213648
1088.402 .0213773
1088.983 .0213897
1089.563 .0214009
1090.144 .0214097
1090.725 .0214174
1091.306 .0214232
1091.887 .0214279
1092.469 .0214323
1093.050 .0214366
1093.632 .0214403
1094.214 .0214451
1094.796 .0214499
1095.379 .0214550
1095.961 .0214598
1096.544 .0214631
1097.127 .0214656
1097.710 .0214696
1098.294 .0214760
1098.877 .0214852
1099.461 .0214976
1100.046 .0215147
1100.630 .0215340
1101.215 .0215562
1101.800 .0215789
1102.385 .0216022
1102.970 .0216246
1103.556 .0216456
1104.142 .0216640
1104.728 .0216831
1105.315 .0217039
1105.902 .0217276
1106.489 .0217540
1107.077 .0217848
1107.664 .0218160
1108.253 .0218477
1108.841 .0218786
1109.430 .0219104
1110.019 .0219415
1110.609 .0219736
1111.198 .0220026
1111.789 .0220335
1112.379 .0220641
1112.970 .0220958
1113.561 .0221281
1114.153 .0221624
1114.745 .0221956
1115.338 .0222282
1115.931 .0222596
1116.524 .0222910
1117.117 .0223208
1117.712 .0223507
1118.306 .0223773
1118.901 .0224016
1119.496 .0224203
1120.092 .0224345
1120.689 .0224463
1121.285 .0224593
1121.882 .0224702
1122.480 .0224847
1123.078 .0225043
1123.677 .0225299
1124.276 .0225603
1124.875 .0225941
1125.476 .0226282
1126.076 .0226660
1126.677 .0227041
1127.279 .0227426
1127.881 .0227855
1128.484 .0228353
1129.087 .0228880
1129.691 .0229447
1130.295 .0230025
1130.900 .0230561
1131.505 .0231019
1132.111 .0231407
1132.718 .0231667
1133.325 .0231864
1133.933 .0232029
1134.541 .0232173
1135.150 .0232374
1135.760 .0232672
1136.370 .0233016
1136.981 .0233408
1137.592 .0233800
1138.204 .0234140
1138.817 .0234416
1139.431 .0234663
1140.045 .0234951
1140.660 .0235240
1141.275 .0235685
1141.891 .0236252
1142.508 .0236152
1143.126 .0239162
1143.744 .0238066
1144.363 .0240617
1144.983 .0240890
