BestFit value for E:\RC_data\Compressed_For_Future_Analysis_Full\0007_2025-12-09_12-08-33\Interpretation_History\2025-12-09_15-23-24\ResultsGraphs\BestFit\(Run)spectra_12-09-07-871_BestFit.txt
600.338 0.0247628
601.113 0.0247456
601.888 0.0247287
602.663 0.0247122
603.437 0.0246962
604.211 0.0246805
604.984 0.0246653
605.757 0.0246506
606.530 0.0246363
607.302 0.0246225
608.074 0.0246091
608.845 0.0245962
609.616 0.0245838
610.387 0.0245718
611.158 0.0245602
611.928 0.0245489
612.697 0.0245381
613.467 0.0245275
614.236 0.0245173
615.004 0.0245073
615.773 0.0244975
616.541 0.0244879
617.308 0.0244784
618.076 0.0244689
618.843 0.0244595
619.609 0.0244501
620.375 0.0244406
621.141 0.0244310
621.907 0.0244213
622.672 0.0244114
623.437 0.0244012
624.202 0.0243908
624.966 0.0243801
625.730 0.0243690
626.493 0.0243576
627.257 0.0243458
628.020 0.0243336
628.782 0.0243210
629.545 0.0243080
630.307 0.0242946
631.068 0.0242807
631.830 0.0242664
632.591 0.0242517
633.352 0.0242366
634.112 0.0242211
634.872 0.0242053
635.632 0.0241891
636.392 0.0241727
637.151 0.0241560
637.910 0.0241390
638.668 0.0241219
639.427 0.0241047
640.185 0.0240873
640.943 0.0240699
641.700 0.0240525
642.457 0.0240352
643.214 0.0240180
643.971 0.0240009
644.727 0.0239840
645.483 0.0239673
646.239 0.0239510
646.994 0.0239349
647.750 0.0239193
648.505 0.0239041
649.259 0.0238893
650.014 0.0238750
650.768 0.0238613
651.521 0.0238481
652.275 0.0238354
653.028 0.0238233
653.781 0.0238119
654.534 0.0238010
655.286 0.0237908
656.039 0.0237811
656.791 0.0237721
657.542 0.0237636
658.294 0.0237557
659.045 0.0237484
659.796 0.0237417
660.546 0.0237354
661.297 0.0237296
662.047 0.0237242
662.796 0.0237193
663.546 0.0237147
664.295 0.0237105
665.044 0.0237065
665.793 0.0237027
666.542 0.0236991
667.290 0.0236956
668.038 0.0236922
668.786 0.0236888
669.533 0.0236854
670.281 0.0236819
671.028 0.0236782
671.774 0.0236744
672.521 0.0236703
673.267 0.0236659
674.013 0.0236611
674.759 0.0236560
675.505 0.0236505
676.250 0.0236445
676.995 0.0236380
677.740 0.0236310
678.484 0.0236235
679.229 0.0236153
679.973 0.0236066
680.717 0.0235973
681.460 0.0235874
682.204 0.0235769
682.947 0.0235657
683.690 0.0235539
684.433 0.0235416
685.175 0.0235286
685.917 0.0235151
686.659 0.0235010
687.401 0.0234863
688.142 0.0234712
688.884 0.0234556
689.625 0.0234396
690.365 0.0234232
691.106 0.0234064
691.846 0.0233894
692.586 0.0233721
693.326 0.0233545
694.066 0.0233369
694.805 0.0233191
695.545 0.0233012
696.284 0.0232834
697.022 0.0232657
697.761 0.0232480
698.499 0.0232305
699.237 0.0232133
699.975 0.0231963
700.713 0.0231797
701.450 0.0231634
702.187 0.0231476
702.924 0.0231322
703.661 0.0231173
704.397 0.0231030
705.133 0.0230893
705.869 0.0230763
706.605 0.0230639
707.341 0.0230521
708.076 0.0230411
708.811 0.0230308
709.546 0.0230213
710.281 0.0230125
711.015 0.0230045
711.749 0.0229972
712.483 0.0229908
713.217 0.0229850
713.950 0.0229801
714.684 0.0229758
715.417 0.0229723
716.150 0.0229695
716.882 0.0229674
717.615 0.0229659
718.347 0.0229651
719.079 0.0229648
719.811 0.0229651
720.542 0.0229658
721.273 0.0229670
722.005 0.0229687
722.735 0.0229706
723.466 0.0229729
724.196 0.0229755
724.927 0.0229783
725.656 0.0229812
726.386 0.0229842
727.116 0.0229872
727.845 0.0229903
728.574 0.0229932
729.303 0.0229961
730.031 0.0229987
730.760 0.0230012
731.488 0.0230033
732.216 0.0230051
732.944 0.0230065
733.671 0.0230075
734.398 0.0230080
735.125 0.0230079
735.852 0.0230073
736.579 0.0230061
737.305 0.0230043
738.031 0.0230018
738.757 0.0229986
739.483 0.0229946
740.208 0.0229900
740.933 0.0229846
741.658 0.0229784
742.383 0.0229714
743.108 0.0229636
743.832 0.0229551
744.556 0.0229457
745.280 0.0229356
746.004 0.0229246
746.727 0.0229130
747.450 0.0229005
748.173 0.0228874
748.896 0.0228735
749.618 0.0228590
750.340 0.0228438
751.062 0.0228279
751.784 0.0228115
752.506 0.0227946
753.227 0.0227771
753.948 0.0227592
754.669 0.0227408
755.389 0.0227221
756.110 0.0227031
756.830 0.0226838
757.550 0.0226642
758.269 0.0226445
758.989 0.0226247
759.708 0.0226048
760.427 0.0225850
761.146 0.0225651
761.864 0.0225454
762.582 0.0225258
763.300 0.0225065
764.018 0.0224874
764.736 0.0224686
765.453 0.0224501
766.170 0.0224321
766.887 0.0224146
767.603 0.0223976
768.320 0.0223811
769.036 0.0223652
769.751 0.0223500
770.467 0.0223355
771.182 0.0223216
771.897 0.0223085
772.612 0.0222962
773.327 0.0222846
774.041 0.0222739
774.755 0.0222640
775.469 0.0222550
776.183 0.0222469
776.896 0.0222396
777.609 0.0222332
778.322 0.0222278
779.035 0.0222232
779.747 0.0222195
780.459 0.0222167
781.171 0.0222148
781.882 0.0222138
782.594 0.0222136
783.305 0.0222142
784.016 0.0222157
784.726 0.0222180
785.436 0.0222210
786.147 0.0222247
786.856 0.0222292
787.566 0.0222343
788.275 0.0222401
788.984 0.0222464
789.693 0.0222534
790.401 0.0222608
791.110 0.0222687
791.818 0.0222770
792.525 0.0222856
793.233 0.0222947
793.940 0.0223039
794.647 0.0223134
795.353 0.0223231
796.060 0.0223329
796.766 0.0223428
797.472 0.0223527
798.177 0.0223625
798.883 0.0223723
799.588 0.0223820
800.292 0.0223914
800.997 0.0224007
801.701 0.0224096
802.405 0.0224182
803.109 0.0224264
803.812 0.0224342
804.515 0.0224415
805.218 0.0224483
805.921 0.0224546
806.623 0.0224603
807.325 0.0224653
808.027 0.0224697
808.728 0.0224734
809.429 0.0224763
810.130 0.0224785
810.831 0.0224799
811.531 0.0224806
812.231 0.0224803
812.931 0.0224793
813.630 0.0224774
814.330 0.0224746
815.029 0.0224709
815.727 0.0224663
816.426 0.0224609
817.124 0.0224545
817.821 0.0224473
818.519 0.0224391
819.216 0.0224301
819.913 0.0224202
820.609 0.0224094
821.306 0.0223978
822.002 0.0223853
822.697 0.0223720
823.393 0.0223579
824.088 0.0223430
824.783 0.0223274
825.477 0.0223111
826.171 0.0222941
826.865 0.0222764
827.559 0.0222580
828.252 0.0222391
828.945 0.0222196
829.638 0.0221996
830.330 0.0221792
831.023 0.0221582
831.714 0.0221369
832.406 0.0221152
833.097 0.0220933
833.788 0.0220710
834.479 0.0220485
835.169 0.0220259
835.859 0.0220031
836.548 0.0219803
837.238 0.0219574
837.927 0.0219345
838.615 0.0219117
839.304 0.0218890
839.992 0.0218664
840.680 0.0218441
841.367 0.0218220
842.054 0.0218001
842.741 0.0217786
843.428 0.0217575
844.114 0.0217368
844.800 0.0217165
845.485 0.0216968
846.170 0.0216775
846.855 0.0216589
847.540 0.0216408
848.224 0.0216234
848.908 0.0216066
849.592 0.0215906
850.275 0.0215753
850.958 0.0215607
851.641 0.0215470
852.323 0.0215340
853.005 0.0215219
853.687 0.0215106
854.368 0.0215002
855.049 0.0214906
855.730 0.0214820
856.410 0.0214742
857.090 0.0214674
857.769 0.0214615
858.449 0.0214565
859.128 0.0214525
859.806 0.0214494
860.485 0.0214472
861.163 0.0214459
861.840 0.0214455
862.518 0.0214461
863.195 0.0214475
863.871 0.0214499
864.548 0.0214531
865.224 0.0214572
865.899 0.0214621
866.574 0.0214678
867.249 0.0214744
867.924 0.0214817
868.598 0.0214898
869.272 0.0214986
869.946 0.0215082
870.619 0.0215184
871.292 0.0215292
871.964 0.0215407
872.636 0.0215527
873.308 0.0215653
873.979 0.0215784
874.651 0.0215920
875.321 0.0216060
875.992 0.0216205
876.662 0.0216353
877.331 0.0216504
878.001 0.0216659
878.670 0.0216815
879.338 0.0216974
880.007 0.0217135
880.675 0.0217297
881.342 0.0217460
882.009 0.0217624
882.676 0.0217787
883.343 0.0217951
884.009 0.0218114
884.675 0.0218275
885.340 0.0218435
886.005 0.0218594
886.670 0.0218750
887.334 0.0218904
887.998 0.0219054
888.662 0.0219202
889.325 0.0219345
889.988 0.0219485
890.650 0.0219620
891.312 0.0219750
891.974 0.0219876
892.636 0.0219996
893.297 0.0220111
893.957 0.0220219
894.618 0.0220322
895.278 0.0220418
895.937 0.0220508
896.596 0.0220590
897.255 0.0220666
897.914 0.0220734
898.572 0.0220794
899.230 0.0220847
899.887 0.0220892
900.544 0.0220929
901.201 0.0220958
901.857 0.0220979
902.513 0.0220991
903.168 0.0220995
903.823 0.0220990
904.478 0.0220976
905.132 0.0220954
905.786 0.0220924
906.440 0.0220885
907.093 0.0220837
907.746 0.0220780
908.399 0.0220715
909.051 0.0220641
909.703 0.0220559
910.354 0.0220468
911.005 0.0220369
911.656 0.0220262
912.306 0.0220146
912.956 0.0220023
913.605 0.0219892
914.254 0.0219753
914.903 0.0219606
915.551 0.0219453
916.199 0.0219292
916.847 0.0219124
917.494 0.0218949
918.141 0.0218768
918.788 0.0218580
919.434 0.0218386
920.079 0.0218187
920.725 0.0217982
921.370 0.0217772
922.014 0.0217557
922.658 0.0217337
923.302 0.0217112
923.946 0.0216883
924.589 0.0216651
925.231 0.0216415
925.873 0.0216176
926.515 0.0215933
927.157 0.0215688
927.798 0.0215441
928.439 0.0215192
929.079 0.0214941
929.719 0.0214689
930.359 0.0214435
930.998 0.0214181
931.637 0.0213927
932.275 0.0213672
932.913 0.0213418
933.551 0.0213164
934.188 0.0212911
934.825 0.0212660
935.462 0.0212409
936.098 0.0212161
936.733 0.0211915
937.369 0.0211671
938.004 0.0211430
938.638 0.0211192
939.273 0.0210957
939.907 0.0210726
940.540 0.0210498
941.173 0.0210275
941.806 0.0210056
942.438 0.0209842
943.070 0.0209632
943.702 0.0209428
944.333 0.0209229
944.964 0.0209036
945.594 0.0208848
946.224 0.0208666
946.854 0.0208491
947.483 0.0208322
948.112 0.0208159
948.741 0.0208003
949.369 0.0207855
949.996 0.0207713
950.624 0.0207578
951.251 0.0207451
951.878 0.0207331
952.504 0.0207218
953.130 0.0207114
953.755 0.0207017
954.380 0.0206927
955.005 0.0206846
955.629 0.0206773
956.253 0.0206707
956.877 0.0206650
957.500 0.0206601
958.123 0.0206559
958.746 0.0206526
959.368 0.0206501
959.990 0.0206484
960.611 0.0206483
961.232 0.0206490
961.853 0.0206505
962.473 0.0206528
963.093 0.0206558
963.712 0.0206596
964.331 0.0206642
964.950 0.0206696
965.569 0.0206757
966.187 0.0206825
966.804 0.0206901
967.422 0.0206984
968.039 0.0207074
968.655 0.0207171
969.272 0.0207275
969.887 0.0207385
970.503 0.0207502
971.118 0.0207625
971.733 0.0207754
972.347 0.0207890
972.961 0.0208031
973.575 0.0208178
974.188 0.0208330
974.801 0.0208487
975.414 0.0208650
976.026 0.0208817
976.638 0.0208989
977.250 0.0209165
977.861 0.0209345
978.472 0.0209530
979.083 0.0209718
979.693 0.0209910
980.303 0.0210105
980.912 0.0210303
981.521 0.0210504
982.130 0.0210707
982.738 0.0210913
983.346 0.0211121
983.954 0.0211331
984.562 0.0211543
985.169 0.0211755
985.775 0.0211969
986.382 0.0212184
986.988 0.0212400
987.594 0.0212616
988.199 0.0212832
988.804 0.0213048
989.409 0.0213264
990.013 0.0213479
990.617 0.0213694
991.221 0.0213907
991.824 0.0214119
992.427 0.0214330
993.030 0.0214539
993.632 0.0214746
994.234 0.0214951
994.836 0.0215154
995.438 0.0215354
996.039 0.0215552
996.640 0.0215746
997.240 0.0215937
997.840 0.0216125
998.440 0.0216309
999.040 0.0216490
999.639 0.0216666
1000.238 0.0216836
1000.836 0.0216997
1001.435 0.0217154
1002.033 0.0217306
1002.63 0.0217453
1003.228 0.0217596
1003.825 0.0217733
1004.422 0.0217865
1005.018 0.0217991
1005.614 0.0218112
1006.21 0.0218227
1006.806 0.0218337
1007.401 0.0218440
1007.996 0.0218537
1008.591 0.0218628
1009.186 0.0218713
1009.78 0.0218792
1010.374 0.0218864
1010.967 0.0218929
1011.561 0.0218988
1012.154 0.0219040
1012.746 0.0219086
1013.339 0.0219124
1013.931 0.0219156
1014.523 0.0219181
1015.115 0.0219199
1015.706 0.0219210
1016.298 0.0219214
1016.888 0.0219211
1017.479 0.0219201
1018.069 0.0219184
1018.66 0.0219160
1019.25 0.0219128
1019.839 0.0219090
1020.429 0.0219045
1021.018 0.0218993
1021.607 0.0218934
1022.195 0.0218868
1022.784 0.0218795
1023.372 0.0218716
1023.96 0.0218629
1024.547 0.0218536
1025.135 0.0218436
1025.722 0.0218330
1026.309 0.0218217
1026.896 0.0218097
1027.483 0.0217972
1028.069 0.0217840
1028.655 0.0217702
1029.241 0.0217557
1029.827 0.0217407
1030.412 0.0217251
1030.997 0.0217089
1031.582 0.0216922
1032.167 0.0216749
1032.752 0.0216570
1033.336 0.0216387
1033.921 0.0216198
1034.505 0.0216004
1035.089 0.0215805
1035.672 0.0215602
1036.256 0.0215394
1036.839 0.0215181
1037.422 0.0214965
1038.005 0.0214744
1038.588 0.0214519
1039.171 0.0214290
1039.753 0.0214058
1040.335 0.0213822
1040.918 0.0213582
1041.50 0.0213340
1042.081 0.0213095
1042.663 0.0212846
1043.244 0.0212595
1043.826 0.0212342
1044.407 0.0212086
1044.988 0.0211828
1045.569 0.0211568
1046.15 0.0211307
1046.73 0.0211044
1047.311 0.0210779
1047.891 0.0210513
1048.471 0.0210247
1049.052 0.0209978
1049.632 0.0209710
1050.211 0.0209441
1050.791 0.0209172
1051.371 0.0208902
1051.95 0.0208633
1052.53 0.0208363
1053.109 0.0208095
1053.688 0.0207827
1054.268 0.0207559
1054.847 0.0207292
1055.426 0.0207026
1056.005 0.0206762
1056.583 0.0206500
1057.162 0.0206238
1057.741 0.0205979
1058.319 0.0205721
1058.898 0.0205466
1059.476 0.0205213
1060.055 0.0204962
1060.633 0.0204714
1061.211 0.0204469
1061.79 0.0204226
1062.368 0.0203987
1062.946 0.0203751
1063.524 0.0203518
1064.102 0.0203289
1064.68 0.0203063
1065.258 0.0202842
1065.836 0.0202624
1066.414 0.0202410
1066.992 0.0202201
1067.57 0.0201995
1068.148 0.0201795
1068.726 0.0201599
1069.304 0.0201407
1069.882 0.0201221
1070.46 0.0201039
1071.038 0.0200862
1071.616 0.0200691
1072.194 0.0200525
1072.772 0.0200364
1073.35 0.0200209
1073.928 0.0200059
1074.506 0.0199915
1075.084 0.0199776
1075.662 0.0199644
1076.24 0.0199517
1076.819 0.0199396
1077.397 0.0199281
1077.976 0.0199172
1078.554 0.0199070
1079.133 0.0198973
1079.711 0.0198883
1080.29 0.0198799
1080.869 0.0198721
1081.448 0.0198650
1082.027 0.0198585
1082.606 0.0198527
1083.185 0.0198475
1083.764 0.0198430
1084.343 0.0198391
1084.923 0.0198358
1085.502 0.0198333
1086.082 0.0198313
1086.662 0.0198301
1087.242 0.0198294
1087.822 0.0198295
1088.402 0.0198302
1088.983 0.0198315
1089.563 0.0198335
1090.144 0.0198362
1090.725 0.0198395
1091.306 0.0198434
1091.887 0.0198480
1092.469 0.0198532
1093.05 0.0198591
1093.632 0.0198656
1094.214 0.0198727
1094.796 0.0198804
1095.379 0.0198887
1095.961 0.0198977
1096.544 0.0199072
1097.127 0.0199174
1097.71 0.0199281
1098.294 0.0199394
1098.877 0.0199513
1099.461 0.0199638
1100.046 0.0199768
1100.63 0.0199904
1101.215 0.0200045
1101.80 0.0200191
1102.385 0.0200342
1102.97 0.0200499
1103.556 0.0200661
1104.142 0.0200827
1104.728 0.0200999
1105.315 0.0201175
1105.902 0.0201355
1106.489 0.0201540
1107.077 0.0201730
1107.664 0.0201923
1108.253 0.0202121
1108.841 0.0202323
1109.43 0.0202529
1110.019 0.0202738
1110.609 0.0202951
1111.198 0.0203167
1111.789 0.0203387
1112.379 0.0203609
1112.97 0.0203835
1113.561 0.0204064
1114.153 0.0204295
1114.745 0.0204529
1115.338 0.0204766
1115.931 0.0205005
1116.524 0.0205246
1117.117 0.0205489
1117.712 0.0205734
1118.306 0.0205980
1118.901 0.0206228
1119.496 0.0206478
1120.092 0.0206728
1120.689 0.0206980
1121.285 0.0207233
1121.882 0.0207486
1122.48 0.0207740
1123.078 0.0207995
1123.677 0.0208250
1124.276 0.0208504
1124.875 0.0208759
1125.476 0.0209014
1126.076 0.0209268
1126.677 0.0209521
1127.279 0.0209774
1127.881 0.0210026
1128.484 0.0210277
1129.087 0.0210527
1129.691 0.0210776
1130.295 0.0211022
1130.90 0.0211268
1131.505 0.0211511
1132.111 0.0211752
1132.718 0.0211992
1133.325 0.0212229
1133.933 0.0212463
1134.541 0.0212695
1135.15 0.0212924
1135.76 0.0213150
1136.37 0.0213373
1136.981 0.0213593
1137.592 0.0213809
1138.204 0.0214022
1138.817 0.0214232
1139.431 0.0214437
1140.045 0.0214638
1140.66 0.0214836
1141.275 0.0215029
1141.891 0.0215217
1142.508 0.0215401
1143.126 0.0215581
1143.744 0.0215756
1144.363 0.0215925
1144.983 0.0216090
