BestFit value for E:\RC_data\Compressed_For_Future_Analysis_Lite\test_shlomo\aqueous_test\GoodSpectraLarge_Full\0012_2025-06-24_09-45-30\Interpretation_History\2025-07-21_16-23-34\ResultsGraphs\BestFit\(Run)spectra_09-46-31-710_BestFit.txt
600.203 0.0466822
600.975 0.0466214
601.747 0.0465608
602.518 0.0465005
603.289 0.0464405
604.059 0.0463808
604.829 0.0463212
605.599 0.0462619
606.369 0.0462029
607.138 0.0461441
607.906 0.0460856
608.675 0.0460273
609.443 0.0459692
610.210 0.0459115
610.977 0.0458539
611.744 0.0457965
612.511 0.0457394
613.277 0.0456825
614.043 0.0456258
614.809 0.0455693
615.574 0.0455131
616.339 0.0454570
617.104 0.0454012
617.868 0.0453456
618.632 0.0452902
619.395 0.0452350
620.159 0.0451799
620.922 0.0451250
621.684 0.0450704
622.447 0.0450159
623.209 0.0449616
623.970 0.0449075
624.732 0.0448536
625.493 0.0447998
626.254 0.0447461
627.014 0.0446927
627.774 0.0446394
628.534 0.0445863
629.294 0.0445333
630.053 0.0444804
630.812 0.0444277
631.571 0.0443751
632.329 0.0443227
633.087 0.0442705
633.845 0.0442183
634.602 0.0441663
635.359 0.0441144
636.116 0.0440626
636.873 0.0440110
637.629 0.0439595
638.385 0.0439081
639.141 0.0438567
639.897 0.0438055
640.652 0.0437545
641.407 0.0437035
642.161 0.0436527
642.916 0.0436019
643.670 0.0435513
644.424 0.0435008
645.177 0.0434504
645.931 0.0434001
646.684 0.0433499
647.436 0.0432998
648.189 0.0432498
648.941 0.0431999
649.693 0.0431502
650.445 0.0431005
651.196 0.0430510
651.947 0.0430015
652.698 0.0429522
653.449 0.0429030
654.199 0.0428539
654.949 0.0428049
655.699 0.0427560
656.449 0.0427072
657.198 0.0426586
657.947 0.0426101
658.696 0.0425617
659.445 0.0425134
660.193 0.0424653
660.941 0.0424173
661.689 0.0423694
662.436 0.0423217
663.184 0.0422741
663.931 0.0422267
664.678 0.0421793
665.424 0.0421322
666.171 0.0420852
666.917 0.0420383
667.663 0.0419916
668.408 0.0419451
669.154 0.0418987
669.899 0.0418525
670.644 0.0418064
671.388 0.0417606
672.133 0.0417148
672.877 0.0416693
673.621 0.0416240
674.365 0.0415788
675.108 0.0415338
675.851 0.0414890
676.594 0.0414444
677.337 0.0414000
678.080 0.0413557
678.822 0.0413117
679.564 0.0412679
680.306 0.0412243
681.047 0.0411809
681.789 0.0411376
682.530 0.0410946
683.271 0.0410518
684.012 0.0410092
684.752 0.0409668
685.492 0.0409246
686.232 0.0408827
686.972 0.0408409
687.712 0.0407993
688.451 0.0407580
689.190 0.0407169
689.929 0.0406760
690.667 0.0406354
691.406 0.0405949
692.144 0.0405546
692.882 0.0405146
693.620 0.0404748
694.357 0.0404352
695.095 0.0403957
695.832 0.0403565
696.569 0.0403176
697.305 0.0402788
698.042 0.0402402
698.778 0.0402019
699.514 0.0401637
700.249 0.0401258
700.985 0.0400880
701.720 0.0400504
702.455 0.0400131
703.190 0.0399759
703.925 0.0399389
704.659 0.0399021
705.393 0.0398655
706.127 0.0398290
706.861 0.0397927
707.595 0.0397566
708.328 0.0397207
709.061 0.0396849
709.794 0.0396493
710.527 0.0396138
711.259 0.0395785
711.991 0.0395433
712.723 0.0395083
713.455 0.0394734
714.186 0.0394387
714.918 0.0394040
715.649 0.0393695
716.380 0.0393352
717.110 0.0393009
717.841 0.0392668
718.571 0.0392327
719.301 0.0391988
720.031 0.0391650
720.760 0.0391312
721.490 0.0390975
722.219 0.0390640
722.948 0.0390305
723.676 0.0389971
724.405 0.0389637
725.133 0.0389304
725.861 0.0388972
726.589 0.0388640
727.317 0.0388308
728.044 0.0387978
728.771 0.0387647
729.498 0.0387317
730.225 0.0386987
730.951 0.0386658
731.677 0.0386329
732.403 0.0386000
733.129 0.0385672
733.855 0.0385343
734.580 0.0385014
735.305 0.0384686
736.030 0.0384358
736.755 0.0384029
737.479 0.0383701
738.203 0.0383372
738.927 0.0383044
739.651 0.0382715
740.375 0.0382386
741.098 0.0382057
741.821 0.0381728
742.544 0.0381399
743.267 0.0381069
743.989 0.0380739
744.711 0.0380409
745.433 0.0380079
746.155 0.0379748
746.877 0.0379417
747.598 0.0379086
748.319 0.0378754
749.040 0.0378422
749.760 0.0378090
750.481 0.0377758
751.201 0.0377425
751.921 0.0377092
752.640 0.0376758
753.360 0.0376424
754.079 0.0376090
754.798 0.0375756
755.517 0.0375421
756.235 0.0375086
756.953 0.0374751
757.671 0.0374415
758.389 0.0374079
759.107 0.0373743
759.824 0.0373407
760.541 0.0373071
761.258 0.0372734
761.974 0.0372397
762.691 0.0372060
763.407 0.0371723
764.123 0.0371386
764.838 0.0371049
765.554 0.0370712
766.269 0.0370375
766.984 0.0370038
767.699 0.0369701
768.413 0.0369364
769.127 0.0369028
769.841 0.0368691
770.555 0.0368355
771.268 0.0368019
771.982 0.0367683
772.694 0.0367348
773.407 0.0367013
774.120 0.0366678
774.832 0.0366344
775.544 0.0366010
776.256 0.0365677
776.967 0.0365345
777.678 0.0365013
778.389 0.0364682
779.100 0.0364351
779.810 0.0364021
780.521 0.0363692
781.231 0.0363364
781.940 0.0363037
782.650 0.0362711
783.359 0.0362385
784.068 0.0362061
784.776 0.0361738
785.485 0.0361416
786.193 0.0361095
786.901 0.0360775
787.609 0.0360456
788.316 0.0360139
789.023 0.0359824
789.730 0.0359509
790.436 0.0359196
791.143 0.0358884
791.849 0.0358574
792.555 0.0358265
793.260 0.0357958
793.965 0.0357653
794.670 0.0357349
795.375 0.0357047
796.080 0.0356746
796.784 0.0356447
797.488 0.0356150
798.191 0.0355855
798.895 0.0355562
799.598 0.0355271
800.301 0.0354981
801.003 0.0354694
801.705 0.0354408
802.408 0.0354124
803.109 0.0353842
803.811 0.0353563
804.512 0.0353285
805.213 0.0353010
805.913 0.0352736
806.614 0.0352465
807.314 0.0352196
808.014 0.0351928
808.713 0.0351664
809.412 0.0351401
810.111 0.0351140
810.810 0.0350882
811.508 0.0350626
812.206 0.0350372
812.904 0.0350120
813.602 0.0349871
814.299 0.0349623
814.996 0.0349378
815.692 0.0349136
816.389 0.0348895
817.085 0.0348656
817.781 0.0348420
818.476 0.0348186
819.171 0.0347955
819.866 0.0347725
820.561 0.0347498
821.255 0.0347273
821.949 0.0347050
822.643 0.0346829
823.336 0.0346610
824.029 0.0346393
824.722 0.0346179
825.415 0.0345966
826.107 0.0345756
826.799 0.0345548
827.490 0.0345342
828.182 0.0345138
828.873 0.0344935
829.563 0.0344735
830.254 0.0344537
830.944 0.0344340
831.634 0.0344146
832.323 0.0343953
833.012 0.0343762
833.701 0.0343573
834.390 0.0343386
835.078 0.0343200
835.766 0.0343017
836.453 0.0342834
837.141 0.0342654
837.828 0.0342475
838.514 0.0342297
839.201 0.0342121
839.887 0.0341947
840.572 0.0341774
841.258 0.0341602
841.943 0.0341432
842.628 0.0341262
843.312 0.0341095
843.996 0.0340928
844.680 0.0340763
845.363 0.0340599
846.046 0.0340436
846.729 0.0340274
847.412 0.0340112
848.094 0.0339952
848.776 0.0339793
849.457 0.0339635
850.139 0.0339477
850.819 0.0339321
851.500 0.0339165
852.180 0.0339010
852.860 0.0338855
853.540 0.0338701
854.219 0.0338547
854.898 0.0338394
855.576 0.0338242
856.254 0.0338090
856.932 0.0337938
857.610 0.0337787
858.287 0.0337636
858.964 0.0337485
859.640 0.0337335
860.317 0.0337184
860.993 0.0337034
861.668 0.0336884
862.343 0.0336734
863.018 0.0336583
863.693 0.0336433
864.367 0.0336283
865.041 0.0336132
865.714 0.0335981
866.387 0.0335831
867.060 0.0335679
867.732 0.0335528
868.404 0.0335376
869.076 0.0335224
869.748 0.0335071
870.419 0.0334918
871.089 0.0334765
871.760 0.0334611
872.430 0.0334456
873.099 0.0334301
873.769 0.0334145
874.438 0.0333988
875.106 0.0333831
875.774 0.0333674
876.442 0.0333515
877.110 0.0333356
877.777 0.0333195
878.444 0.0333034
879.110 0.0332873
879.776 0.0332710
880.442 0.0332546
881.108 0.0332382
881.773 0.0332216
882.437 0.0332050
883.102 0.0331882
883.766 0.0331714
884.429 0.0331544
885.093 0.0331374
885.755 0.0331202
886.418 0.0331029
887.080 0.0330856
887.742 0.0330681
888.403 0.0330505
889.064 0.0330328
889.725 0.0330149
890.385 0.0329970
891.045 0.0329789
891.705 0.0329607
892.364 0.0329424
893.023 0.0329240
893.682 0.0329055
894.340 0.0328868
894.998 0.0328680
895.655 0.0328491
896.312 0.0328301
896.969 0.0328109
897.625 0.0327917
898.281 0.0327723
898.937 0.0327528
899.592 0.0327332
900.247 0.0327134
900.901 0.0326936
901.555 0.0326736
902.209 0.0326535
902.862 0.0326332
903.515 0.0326129
904.168 0.0325924
904.820 0.0325719
905.472 0.0325512
906.123 0.0325304
906.774 0.0325095
907.425 0.0324884
908.076 0.0324673
908.726 0.0324460
909.375 0.0324247
910.024 0.0324033
910.673 0.0323817
911.322 0.0323600
911.970 0.0323383
912.618 0.0323164
913.265 0.0322945
913.912 0.0322724
914.558 0.0322503
915.205 0.0322281
915.850 0.0322058
916.496 0.0321834
917.141 0.0321609
917.786 0.0321383
918.430 0.0321157
919.074 0.0320929
919.718 0.0320701
920.361 0.0320473
921.004 0.0320243
921.646 0.0320013
922.288 0.0319783
922.930 0.0319552
923.571 0.0319320
924.212 0.0319087
924.853 0.0318854
925.493 0.0318621
926.133 0.0318387
926.772 0.0318153
927.411 0.0317918
928.050 0.0317683
928.688 0.0317448
929.326 0.0317212
929.963 0.0316976
930.600 0.0316740
931.237 0.0316503
931.874 0.0316267
932.510 0.0316030
933.145 0.0315793
933.780 0.0315556
934.415 0.0315319
935.050 0.0315082
935.684 0.0314844
936.318 0.0314607
936.951 0.0314370
937.584 0.0314133
938.217 0.0313896
938.849 0.0313660
939.481 0.0313423
940.112 0.0313187
940.743 0.0312951
941.374 0.0312715
942.004 0.0312480
942.634 0.0312245
943.264 0.0312010
943.893 0.0311776
944.522 0.0311542
945.150 0.0311309
945.778 0.0311076
946.406 0.0310844
947.033 0.0310612
947.660 0.0310381
948.287 0.0310150
948.913 0.0309920
949.539 0.0309691
950.165 0.0309463
950.790 0.0309235
951.414 0.0309009
952.039 0.0308782
952.663 0.0308557
953.286 0.0308333
953.910 0.0308109
954.533 0.0307887
955.155 0.0307665
955.777 0.0307445
956.399 0.0307225
957.020 0.0307007
957.641 0.0306789
958.262 0.0306573
958.882 0.0306358
959.502 0.0306144
960.122 0.0305940
960.741 0.0305775
961.360 0.0305611
961.979 0.0305448
962.597 0.0305286
963.214 0.0305126
963.832 0.0304966
964.449 0.0304808
965.066 0.0304650
965.682 0.0304494
966.298 0.0304340
966.914 0.0304186
967.529 0.0304034
968.144 0.0303883
968.758 0.0303733
969.373 0.0303585
969.986 0.0303438
970.600 0.0303292
971.213 0.0303148
971.826 0.0303005
972.438 0.0302864
973.050 0.0302724
973.662 0.0302585
974.274 0.0302448
974.885 0.0302312
975.495 0.0302178
976.106 0.0302045
976.716 0.0301914
977.325 0.0301784
977.935 0.0301656
978.544 0.0301529
979.152 0.0301405
979.761 0.0301281
980.369 0.0301159
980.976 0.0301039
981.584 0.0300920
982.191 0.0300803
982.797 0.0300688
983.404 0.0300574
984.010 0.0300462
984.615 0.0300351
985.221 0.0300242
985.826 0.0300135
986.430 0.0300030
987.035 0.0299926
987.639 0.0299823
988.243 0.0299723
988.846 0.0299624
989.449 0.0299527
990.052 0.0299431
990.654 0.0299338
991.256 0.0299246
991.858 0.0299155
992.460 0.0299066
993.061 0.0298979
993.662 0.0298894
994.262 0.0298810
994.863 0.0298728
995.463 0.0298648
996.062 0.0298570
996.662 0.0298493
997.261 0.0298417
997.860 0.0298344
998.458 0.0298272
999.056 0.0298202
999.654 0.0298133
1000.252 0.0298050
1000.849 0.0297944
1001.446 0.0297841
1002.043 0.0297739
1002.639 0.0297639
1003.235 0.0297540
1003.831 0.0297443
1004.427 0.0297348
1005.022 0.0297255
1005.617 0.0297164
1006.212 0.0297074
1006.806 0.0296986
1007.401 0.0296899
1007.995 0.0296815
1008.588 0.0296732
1009.182 0.0296650
1009.775 0.0296570
1010.368 0.0296492
1010.96 0.0296415
1011.553 0.0296340
1012.145 0.0296267
1012.737 0.0296195
1013.328 0.0296125
1013.92 0.0296056
1014.511 0.0295989
1015.102 0.0295923
1015.692 0.0295859
1016.283 0.0295796
1016.873 0.0295735
1017.463 0.0295675
1018.052 0.0295617
1018.642 0.0295560
1019.231 0.0295504
1019.82 0.0295450
1020.409 0.0295398
1020.997 0.0295346
1021.585 0.0295296
1022.173 0.0295247
1022.761 0.0295200
1023.349 0.0295154
1023.936 0.0295109
1024.524 0.0295065
1025.111 0.0295023
1025.697 0.0294981
1026.284 0.0294941
1026.87 0.0294902
1027.457 0.0294865
1028.043 0.0294828
1028.628 0.0294793
1029.214 0.0294758
1029.80 0.0294725
1030.385 0.0294693
1030.97 0.0294661
1031.555 0.0294631
1032.139 0.0294602
1032.724 0.0294574
1033.308 0.0294546
1033.893 0.0294520
1034.477 0.0294494
1035.06 0.0294470
1035.644 0.0294446
1036.228 0.0294423
1036.811 0.0294401
1037.394 0.0294379
1037.977 0.0294359
1038.56 0.0294339
1039.143 0.0294320
1039.726 0.0294302
1040.308 0.0294284
1040.891 0.0294267
1041.473 0.0294251
1042.055 0.0294235
1042.637 0.0294220
1043.219 0.0294205
1043.801 0.0294191
1044.382 0.0294178
1044.964 0.0294165
1045.545 0.0294152
1046.127 0.0294140
1046.708 0.0294129
1047.289 0.0294117
1047.87 0.0294107
1048.451 0.0294096
1049.032 0.0294086
1049.612 0.0294077
1050.193 0.0294067
1050.774 0.0294058
1051.354 0.0294049
1051.935 0.0294040
1052.515 0.0294032
1053.095 0.0294024
1053.675 0.0294016
1054.256 0.0294008
1054.836 0.0294000
1055.416 0.0293993
1055.996 0.0293985
1056.576 0.0293977
1057.156 0.0293970
1057.735 0.0293962
1058.315 0.0293955
1058.895 0.0293948
1059.475 0.0293940
1060.055 0.0293932
1060.634 0.0293925
1061.214 0.0293917
1061.794 0.0293909
1062.373 0.0293901
1062.953 0.0293893
1063.533 0.0293884
1064.113 0.0293875
1064.692 0.0293867
1065.272 0.0293857
1065.852 0.0293848
1066.431 0.0293838
1067.011 0.0293828
1067.591 0.0293818
1068.171 0.0293807
1068.751 0.0293796
1069.331 0.0293784
1069.91 0.0293772
1070.49 0.0293760
1071.071 0.0293747
1071.651 0.0293733
1072.231 0.0293719
1072.811 0.0293705
1073.391 0.0293690
1073.972 0.0293675
1074.552 0.0293659
1075.133 0.0293642
1075.713 0.0293625
1076.294 0.0293607
1076.875 0.0293588
1077.456 0.0293569
1078.037 0.0293549
1078.618 0.0293528
1079.199 0.0293507
1079.78 0.0293485
1080.362 0.0293462
1080.943 0.0293438
1081.525 0.0293414
1082.107 0.0293389
1082.689 0.0293363
1083.271 0.0293336
1083.853 0.0293308
1084.436 0.0293279
1085.018 0.0293250
1085.601 0.0293219
1086.184 0.0293188
1086.767 0.0293155
1087.351 0.0293122
1087.934 0.0293088
1088.518 0.0293053
1089.102 0.0293016
1089.686 0.0292979
1090.27 0.0292941
1090.855 0.0292902
1091.439 0.0292861
1092.024 0.0292820
1092.609 0.0292777
1093.195 0.0292734
1093.78 0.0292689
1094.366 0.0292643
1094.952 0.0292596
1095.539 0.0292548
1096.125 0.0292498
1096.712 0.0292448
1097.299 0.0292396
1097.887 0.0292343
1098.475 0.0292289
1099.063 0.0292234
1099.651 0.0292177
1100.239 0.0292119
1100.828 0.0292060
1101.417 0.0292000
1102.007 0.0291938
1102.597 0.0291875
1103.187 0.0291811
1103.777 0.0291746
1104.368 0.0291679
1104.959 0.0291610
1105.551 0.0291541
1106.143 0.0291470
1106.735 0.0291398
1107.328 0.0291324
1107.921 0.0291249
1108.514 0.0291172
1109.108 0.0291095
1109.702 0.0291015
1110.296 0.0290935
1110.891 0.0290853
1111.486 0.0290769
1112.082 0.0290684
1112.678 0.0290598
1113.275 0.0290510
1113.872 0.0290421
1114.469 0.0290330
1115.067 0.0290238
1115.665 0.0290144
1116.264 0.0290049
1116.864 0.0289953
1117.463 0.0289855
1118.063 0.0289755
1118.664 0.0289654
1119.265 0.0289551
1119.867 0.0289447
1120.469 0.0289341
1121.072 0.0289234
1121.675 0.0289125
1122.279 0.0289015
1122.883 0.0288904
1123.488 0.0288790
1124.093 0.0288675
1124.699 0.0288559
1125.305 0.0288441
1125.912 0.0288322
1126.52 0.0288201
1127.128 0.0288078
1127.737 0.0287954
1128.346 0.0287829
1128.956 0.0287701
1129.567 0.0287573
1130.178 0.0287442
1130.79 0.0287310
1131.402 0.0287177
1132.015 0.0287042
1132.629 0.0286906
1133.243 0.0286768
1133.858 0.0286628
1134.474 0.0286487
1135.09 0.0286344
1135.707 0.0286200
1136.325 0.0286054
1136.943 0.0285907
1137.562 0.0285758
1138.182 0.0285608
1138.802 0.0285456
1139.423 0.0285302
1140.045 0.0285147
1140.668 0.0284991
1141.291 0.0284833
1141.916 0.0284673
1142.54 0.0284512
1143.166 0.0284350
1143.793 0.0284185
1144.42 0.0284020
1145.048 0.0283853
