Measurement Sequence started on: 14-45-04-498
Integration time: 36
Scans to Average: 2 
>>>>>Begin Spectral Data<<<<<
433.946 .0513530
434.870 .0487565
435.793 .0484920
436.715 .0463029
437.635 .0454293
438.555 .0461079
439.473 .0455615
440.389 .0451486
441.305 .0447881
442.219 .0444975
443.132 .0442448
444.044 .0439924
444.954 .0438055
445.863 .0436509
446.771 .0435212
447.678 .0434149
448.584 .0433250
449.488 .0432344
450.391 .0431279
451.293 .0430063
452.194 .0428783
453.094 .0427350
453.992 .0425887
454.890 .0424443
455.786 .0423198
456.681 .0422108
457.575 .0421203
458.468 .0420382
459.360 .0419639
460.250 .0419003
461.140 .0418366
462.028 .0417795
462.915 .0417302
463.801 .0416918
464.687 .0416663
465.571 .0416586
466.454 .0416669
467.335 .0416820
468.216 .0416998
469.096 .0417179
469.975 .0417295
470.853 .0417293
471.729 .0417196
472.605 .0417021
473.479 .0416836
474.353 .0416638
475.226 .0416390
476.097 .0416112
476.968 .0415770
477.838 .0415307
478.706 .0414695
479.574 .0413958
480.441 .0413115
481.306 .0412131
482.171 .0411114
483.035 .0410091
483.898 .0409094
484.760 .0408171
485.621 .0407346
486.481 .0406583
487.340 .0405918
488.198 .0405326
489.055 .0404788
489.912 .0404292
490.767 .0403869
491.622 .0403455
492.476 .0403065
493.329 .0402718
494.180 .0402405
495.032 .0402121
495.882 .0401931
496.731 .0401748
497.580 .0401620
498.427 .0401543
499.274 .0401478
500.120 .0401359
500.965 .0401213
501.809 .0400991
502.653 .0400647
503.495 .0400200
504.337 .0399664
505.178 .0399017
506.018 .0398305
506.858 .0397533
507.696 .0396735
508.534 .0395942
509.371 .0395136
510.208 .0394365
511.043 .0393689
511.878 .0393040
512.712 .0392403
513.545 .0391754
514.377 .0391122
515.209 .0390499
516.040 .0389821
516.870 .0389156
517.699 .0388555
518.528 .0388024
519.356 .0387566
520.183 .0387185
521.010 .0387007
521.836 .0386941
522.661 .0386956
523.485 .0387036
524.309 .0387034
525.132 .0386932
525.954 .0386710
526.776 .0386268
527.597 .0385736
528.417 .0385131
529.237 .0384558
530.056 .0384076
530.874 .0383762
531.692 .0383613
532.508 .0383575
533.325 .0383667
534.140 .0383772
534.955 .0383670
535.770 .0383422
536.583 .0382941
537.397 .0382304
538.209 .0381619
539.021 .0380903
539.832 .0380246
540.643 .0379754
541.453 .0379452
542.262 .0379297
543.071 .0379206
543.879 .0379143
544.687 .0378963
545.494 .0378630
546.300 .0378099
547.106 .0377369
547.911 .0376584
548.716 .0375832
549.520 .0375124
550.323 .0374512
551.126 .0374040
551.929 .0373686
552.731 .0373425
553.532 .0373146
554.332 .0372793
555.133 .0372348
555.932 .0371865
556.731 .0371325
557.530 .0370781
558.328 .0370328
559.125 .0369974
559.922 .0369752
560.719 .0369652
561.515 .0369632
562.310 .0369704
563.105 .0369811
563.899 .0369919
564.693 .0369962
565.487 .0369926
566.280 .0369796
567.072 .0369602
567.864 .0369356
568.655 .0369012
569.446 .0368578
570.236 .0368059
571.026 .0367419
571.816 .0366667
572.605 .0365806
573.393 .0364855
574.181 .0363862
574.969 .0362853
575.756 .0361837
576.543 .0360895
577.329 .0360039
578.115 .0359290
578.900 .0358638
579.685 .0358109
580.469 .0357675
581.253 .0357343
582.036 .0357106
582.820 .0356935
583.602 .0356837
584.384 .0356800
585.166 .0356798
585.947 .0356842
586.728 .0356887
587.509 .0356930
588.289 .0356958
589.069 .0356980
589.848 .0356985
590.627 .0356958
591.405 .0356898
592.183 .0356805
592.961 .0356676
593.738 .0356523
594.515 .0356329
595.291 .0356114
596.067 .0355885
596.843 .0355627
597.618 .0355350
598.393 .0355070
599.167 .0354785
599.941 .0354507
600.715 .0354233
601.488 .0353957
602.261 .0353666
603.034 .0353354
603.806 .0353036
604.578 .0352702
605.349 .0352376
606.121 .0352048
606.891 .0351730
607.662 .0351433
608.432 .0351146
609.201 .0350868
609.971 .0350599
610.740 .0350333
611.508 .0350050
612.277 .0349744
613.045 .0349424
613.812 .0349101
614.579 .0348779
615.346 .0348460
616.113 .0348155
616.879 .0347858
617.645 .0347567
618.411 .0347275
619.176 .0346986
619.941 .0346702
620.705 .0346416
621.470 .0346142
622.233 .0345887
622.997 .0345659
623.760 .0345461
624.523 .0345302
625.286 .0345180
626.048 .0345087
626.810 .0345003
627.572 .0344924
628.333 .0344849
629.095 .0344773
629.855 .0344699
630.616 .0344636
631.376 .0344585
632.136 .0344542
632.895 .0344508
633.655 .0344477
634.414 .0344445
635.172 .0344393
635.931 .0344320
636.689 .0344218
637.447 .0344084
638.204 .0343921
638.962 .0343730
639.718 .0343527
640.475 .0343311
641.231 .0343076
641.988 .0342826
642.743 .0342556
643.499 .0342265
644.254 .0341947
645.009 .0341611
645.764 .0341257
646.518 .0340898
647.272 .0340536
648.026 .0340188
648.780 .0339852
649.533 .0339538
650.286 .0339248
651.039 .0338972
651.792 .0338718
652.544 .0338477
653.296 .0338253
654.048 .0338055
654.799 .0337884
655.550 .0337735
656.301 .0337604
657.052 .0337493
657.802 .0337388
658.552 .0337286
659.302 .0337185
660.052 .0337075
660.801 .0336952
661.550 .0336825
662.299 .0336690
663.048 .0336540
663.796 .0336391
664.544 .0336227
665.292 .0336053
666.040 .0335868
666.787 .0335677
667.534 .0335478
668.281 .0335285
669.028 .0335099
669.774 .0334921
670.521 .0334759
671.266 .0334612
672.012 .0334480
672.758 .0334371
673.503 .0334275
674.248 .0334193
674.992 .0334115
675.737 .0334051
676.481 .0333986
677.225 .0333927
677.969 .0333864
678.712 .0333795
679.455 .0333717
680.199 .0333624
680.941 .0333508
681.684 .0333379
682.426 .0333229
683.168 .0333063
683.910 .0332877
684.652 .0332673
685.393 .0332450
686.134 .0332216
686.875 .0331972
687.616 .0331727
688.356 .0331482
689.097 .0331249
689.837 .0331027
690.576 .0330824
691.316 .0330632
692.055 .0330453
692.794 .0330279
693.533 .0330104
694.272 .0329923
695.010 .0329735
695.748 .0329539
696.486 .0329339
697.224 .0329136
697.962 .0328927
698.699 .0328711
699.436 .0328482
700.173 .0328241
700.909 .0327985
701.646 .0327715
702.382 .0327430
703.118 .0327136
703.853 .0326844
704.589 .0326556
705.324 .0326279
706.059 .0326028
706.794 .0325798
707.529 .0325596
708.263 .0325417
708.997 .0325258
709.731 .0325108
710.465 .0324974
711.198 .0324853
711.931 .0324738
712.664 .0324632
713.397 .0324532
714.130 .0324434
714.862 .0324346
715.594 .0324252
716.326 .0324150
717.058 .0324040
717.789 .0323923
718.520 .0323790
719.251 .0323646
719.982 .0323495
720.713 .0323342
721.443 .0323196
722.173 .0323055
722.903 .0322919
723.633 .0322791
724.362 .0322668
725.091 .0322541
725.820 .0322408
726.549 .0322267
727.278 .0322120
728.006 .0321969
728.734 .0321818
729.462 .0321671
730.190 .0321532
730.917 .0321400
731.644 .0321274
732.371 .0321149
733.098 .0321022
733.825 .0320878
734.551 .0320725
735.277 .0320552
736.003 .0320367
736.728 .0320172
737.454 .0319974
738.179 .0319780
738.904 .0319592
739.629 .0319406
740.353 .0319228
741.077 .0319056
741.801 .0318885
742.525 .0318704
743.249 .0318523
743.972 .0318336
744.695 .0318141
745.418 .0317933
746.141 .0317727
746.863 .0317513
747.585 .0317298
748.307 .0317073
749.029 .0316841
749.750 .0316601
750.472 .0316352
751.193 .0316095
751.913 .0315832
752.634 .0315564
753.354 .0315292
754.074 .0315014
754.794 .0314745
755.514 .0314475
756.233 .0314208
756.952 .0313943
757.671 .0313688
758.390 .0313430
759.108 .0313178
759.826 .0312931
760.544 .0312700
761.262 .0312483
761.979 .0312283
762.697 .0312097
763.414 .0311926
764.130 .0311768
764.847 .0311616
765.563 .0311467
766.279 .0311325
766.995 .0311185
767.710 .0311045
768.426 .0310909
769.141 .0310782
769.855 .0310653
770.570 .0310530
771.284 .0310409
771.998 .0310280
772.712 .0310147
773.426 .0310011
774.139 .0309874
774.852 .0309740
775.565 .0309615
776.277 .0309495
776.990 .0309385
777.702 .0309290
778.414 .0309202
779.125 .0309121
779.836 .0309050
780.547 .0308983
781.258 .0308912
781.969 .0308846
782.679 .0308775
783.389 .0308704
784.099 .0308631
784.808 .0308551
785.517 .0308462
786.226 .0308365
786.935 .0308260
787.643 .0308143
788.352 .0308022
789.060 .0307902
789.767 .0307778
790.475 .0307652
791.182 .0307515
791.889 .0307369
792.595 .0307211
793.301 .0307035
794.008 .0306839
794.713 .0306628
795.419 .0306402
796.124 .0306170
796.829 .0305935
797.534 .0305713
798.238 .0305501
798.942 .0305302
799.646 .0305116
800.350 .0304929
801.053 .0304741
801.756 .0304540
802.459 .0304327
803.162 .0304099
803.864 .0303855
804.566 .0303605
805.267 .0303358
805.969 .0303123
806.670 .0302904
807.371 .0302709
808.071 .0302538
808.772 .0302378
809.472 .0302218
810.171 .0302054
810.871 .0301884
811.570 .0301700
812.269 .0301509
812.967 .0301307
813.666 .0301101
814.364 .0300892
815.061 .0300685
815.759 .0300478
816.456 .0300270
817.153 .0300056
817.849 .0299825
818.545 .0299581
819.241 .0299321
819.937 .0299042
820.632 .0298757
821.327 .0298463
822.022 .0298161
822.717 .0297853
823.411 .0297549
824.105 .0297244
824.798 .0296940
825.491 .0296637
826.184 .0296336
826.877 .0296041
827.569 .0295754
828.261 .0295478
828.953 .0295219
829.645 .0294982
830.336 .0294762
831.027 .0294557
831.717 .0294373
832.407 .0294200
833.097 .0294036
833.787 .0293876
834.476 .0293722
835.165 .0293571
835.854 .0293423
836.542 .0293281
837.230 .0293147
837.918 .0293022
838.605 .0292904
839.292 .0292793
839.979 .0292691
840.665 .0292597
841.352 .0292508
842.037 .0292424
842.723 .0292337
843.408 .0292247
844.093 .0292149
844.777 .0292043
845.462 .0291928
846.145 .0291806
846.829 .0291670
847.512 .0291535
848.195 .0291398
848.878 .0291266
849.560 .0291135
850.242 .0291011
850.923 .0290889
851.605 .0290762
852.286 .0290628
852.966 .0290483
853.646 .0290329
854.326 .0290171
855.006 .0290007
855.685 .0289849
856.364 .0289702
857.043 .0289571
857.721 .0289454
858.399 .0289350
859.077 .0289251
859.754 .0289157
860.431 .0289057
861.107 .0288953
861.784 .0288843
862.459 .0288729
863.135 .0288617
863.810 .0288504
864.485 .0288406
865.160 .0288320
865.834 .0288249
866.508 .0288190
867.181 .0288131
867.854 .0288080
868.527 .0288018
869.199 .0287940
869.872 .0287846
870.543 .0287735
871.215 .0287608
871.886 .0287471
872.557 .0287329
873.227 .0287185
873.897 .0287045
874.567 .0286907
875.236 .0286761
875.905 .0286605
876.573 .0286433
877.242 .0286238
877.909 .0286022
878.577 .0285796
879.244 .0285546
879.911 .0285301
880.577 .0285068
881.243 .0284845
881.909 .0284637
882.575 .0284439
883.240 .0284251
883.904 .0284064
884.569 .0283870
885.232 .0283659
885.896 .0283432
886.559 .0283203
887.222 .0282965
887.885 .0282726
888.547 .0282507
889.208 .0282297
889.870 .0282098
890.531 .0281918
891.192 .0281747
891.852 .0281572
892.512 .0281395
893.171 .0281210
893.830 .0281017
894.489 .0280809
895.148 .0280599
895.806 .0280390
896.464 .0280194
897.121 .0280008
897.778 .0279828
898.434 .0279660
899.091 .0279503
899.747 .0279343
900.402 .0279182
901.057 .0279019
901.712 .0278851
902.366 .0278667
903.020 .0278478
903.674 .0278290
904.327 .0278100
904.980 .0277903
905.633 .0277708
906.285 .0277509
906.936 .0277303
907.588 .0277087
908.239 .0276864
908.889 .0276634
909.540 .0276395
910.190 .0276149
910.839 .0275903
911.488 .0275666
912.137 .0275439
912.785 .0275218
913.433 .0275009
914.081 .0274812
914.728 .0274619
915.375 .0274429
916.021 .0274252
916.668 .0274083
917.313 .0273919
917.959 .0273763
918.604 .0273617
919.248 .0273479
919.892 .0273345
920.536 .0273217
921.180 .0273091
921.823 .0272969
922.465 .0272852
923.108 .0272737
923.750 .0272631
924.391 .0272532
925.032 .0272435
925.673 .0272338
926.313 .0272242
926.953 .0272143
927.593 .0272040
928.232 .0271933
928.871 .0271828
929.510 .0271731
930.148 .0271641
930.786 .0271557
931.423 .0271480
932.060 .0271403
932.697 .0271315
933.333 .0271209
933.969 .0271083
934.604 .0270933
935.239 .0270765
935.874 .0270587
936.508 .0270409
937.142 .0270244
937.776 .0270092
938.409 .0269953
939.042 .0269827
939.674 .0269707
940.306 .0269583
940.938 .0269456
941.569 .0269328
942.200 .0269195
942.830 .0269066
943.460 .0268938
944.090 .0268815
944.720 .0268701
945.349 .0268594
945.977 .0268485
946.606 .0268372
947.233 .0268252
947.861 .0268120
948.488 .0267973
949.115 .0267820
949.741 .0267654
950.367 .0267487
950.993 .0267320
951.618 .0267159
952.243 .0267004
952.868 .0266861
953.492 .0266729
954.115 .0266606
954.739 .0266491
955.362 .0266383
955.984 .0266270
956.607 .0266163
957.229 .0266058
957.850 .0265957
958.471 .0265859
959.092 .0265771
959.713 .0265691
960.333 .0265616
960.952 .0265543
961.572 .0265471
962.191 .0265387
962.809 .0265292
963.428 .0265175
964.045 .0265035
964.663 .0264874
965.280 .0264694
965.897 .0264498
966.513 .0264301
967.129 .0264102
967.745 .0263906
968.361 .0263707
968.976 .0263514
969.590 .0263321
970.205 .0263126
970.818 .0262938
971.432 .0262751
972.045 .0262568
972.658 .0262397
973.271 .0262234
973.883 .0262093
974.495 .0261966
975.106 .0261853
975.717 .0261748
976.328 .0261650
976.938 .0261553
977.548 .0261457
978.158 .0261361
978.768 .0261269
979.377 .0261174
979.985 .0261077
980.594 .0260980
981.202 .0260886
981.809 .0260794
982.417 .0260708
983.024 .0260623
983.631 .0260546
984.237 .0260462
984.843 .0260376
985.449 .0260283
986.054 .0260182
986.659 .0260071
987.264 .0259947
987.868 .0259809
988.472 .0259670
989.076 .0259527
989.679 .0259391
990.282 .0259268
990.885 .0259157
991.487 .0259054
992.090 .0258952
992.691 .0258843
993.293 .0258725
993.894 .0258593
994.495 .0258449
995.095 .0258289
995.696 .0258122
996.296 .0257957
996.895 .0257797
997.494 .0257661
998.093 .0257546
998.692 .0257451
999.291 .0257384
999.889 .0257328
1000.487 .0257280
1001.084 .0257229
1001.681 .0257168
1002.278 .0257098
1002.875 .0257013
1003.471 .0256917
1004.067 .0256810
1004.663 .0256707
1005.258 .0256617
1005.854 .0256537
1006.449 .0256474
1007.043 .0256418
1007.638 .0256364
1008.232 .0256302
1008.826 .0256224
1009.419 .0256120
1010.012 .0255999
1010.605 .0255855
1011.198 .0255687
1011.791 .0255510
1012.383 .0255339
1012.975 .0255177
1013.566 .0255038
1014.158 .0254932
1014.749 .0254853
1015.340 .0254791
1015.931 .0254748
1016.521 .0254704
1017.111 .0254663
1017.701 .0254622
1018.291 .0254568
1018.880 .0254512
1019.470 .0254458
1020.059 .0254399
1020.647 .0254341
1021.236 .0254294
1021.824 .0254254
1022.412 .0254208
1023.000 .0254167
1023.588 .0254123
1024.175 .0254073
1024.762 .0254019
1025.349 .0253962
1025.936 .0253905
1026.523 .0253854
1027.109 .0253805
1027.695 .0253758
1028.281 .0253728
1028.867 .0253708
1029.452 .0253693
1030.038 .0253688
1030.623 .0253693
1031.208 .0253710
1031.792 .0253736
1032.377 .0253772
1032.961 .0253819
1033.546 .0253874
1034.130 .0253929
1034.714 .0253976
1035.297 .0254027
1035.881 .0254070
1036.464 .0254118
1037.047 .0254173
1037.630 .0254232
1038.213 .0254310
1038.796 .0254408
1039.378 .0254522
1039.961 .0254659
1040.543 .0254810
1041.125 .0254972
1041.707 .0255129
1042.289 .0255282
1042.871 .0255425
1043.452 .0255562
1044.034 .0255701
1044.615 .0255837
1045.196 .0255978
1045.777 .0256137
1046.358 .0256304
1046.939 .0256480
1047.520 .0256655
1048.101 .0256807
1048.681 .0256932
1049.262 .0257023
1049.842 .0257075
1050.422 .0257101
1051.002 .0257109
1051.582 .0257117
1052.162 .0257134
1052.742 .0257174
1053.322 .0257236
1053.902 .0257302
1054.482 .0257383
1055.061 .0257455
1055.641 .0257511
1056.220 .0257543
1056.800 .0257554
1057.379 .0257556
1057.958 .0257571
1058.538 .0257591
1059.117 .0257637
1059.696 .0257709
1060.275 .0257799
1060.854 .0257880
1061.433 .0257940
1062.012 .0257971
1062.592 .0257963
1063.171 .0257904
1063.750 .0257819
1064.329 .0257702
1064.908 .0257592
1065.487 .0257482
1066.066 .0257399
1066.645 .0257333
1067.224 .0257287
1067.803 .0257231
1068.382 .0257156
1068.961 .0257066
1069.540 .0256954
1070.119 .0256809
1070.698 .0256669
1071.278 .0256538
1071.857 .0256427
1072.436 .0256336
1073.016 .0256291
1073.595 .0256264
1074.175 .0256272
1074.754 .0256279
1075.334 .0256286
1075.913 .0256289
1076.493 .0256298
1077.073 .0256301
1077.653 .0256317
1078.233 .0256370
1078.813 .0256432
1079.393 .0256498
1079.974 .0256575
1080.554 .0256638
1081.135 .0256677
1081.716 .0256679
1082.296 .0256651
1082.877 .0256591
1083.458 .0256517
1084.040 .0256430
1084.621 .0256328
1085.202 .0256219
1085.784 .0256103
1086.366 .0255960
1086.948 .0255793
1087.530 .0255622
1088.112 .0255430
1088.695 .0255236
1089.277 .0255051
1089.860 .0254888
1090.443 .0254749
1091.026 .0254641
1091.610 .0254569
1092.193 .0254511
1092.777 .0254462
1093.361 .0254413
1093.946 .0254340
1094.530 .0254259
1095.115 .0254174
1095.700 .0254078
1096.285 .0253988
1096.871 .0253926
1097.456 .0253881
1098.042 .0253858
1098.628 .0253854
1099.215 .0253849
1099.802 .0253835
1100.389 .0253816
1100.976 .0253785
1101.564 .0253741
1102.152 .0253701
1102.740 .0253665
1103.329 .0253630
1103.917 .0253613
1104.507 .0253611
1105.096 .0253598
1105.686 .0253573
1106.276 .0253533
1106.867 .0253453
1107.457 .0253341
1108.049 .0253191
1108.640 .0253015
1109.232 .0252829
1109.825 .0252635
1110.417 .0252447
1111.010 .0252266
1111.604 .0252118
1112.198 .0252006
1112.792 .0251922
1113.387 .0251890
1113.982 .0251896
1114.577 .0251940
1115.173 .0252049
1115.769 .0252225
1116.366 .0252449
1116.963 .0252733
1117.561 .0253051
1118.159 .0253414
1118.758 .0253799
1119.357 .0254183
1119.957 .0254564
1120.557 .0254902
1121.157 .0255202
1121.758 .0255441
1122.360 .0255616
1122.962 .0255754
1123.564 .0255865
1124.167 .0256000
1124.771 .0256145
1125.375 .0256311
1125.980 .0256517
1126.585 .0256735
1127.191 .0256963
1127.797 .0257165
1128.404 .0257315
1129.012 .0257469
1129.620 .0257688
1130.229 .0257935
1130.838 .0258268
1131.448 .0258737
1132.058 .0259285
1132.669 .0259889
1133.281 .0260570
1133.894 .0261276
1134.507 .0261957
1135.120 .0262608
1135.735 .0263214
1136.350 .0263744
1136.965 .0264261
1137.582 .0264726
1138.199 .0265205
1138.816 .0265663
1139.435 .0266149
1140.054 .0266690
1140.674 .0267267
1141.294 .0267881
1141.916 .0268401
1142.538 .0269035
1143.160 .0271472
1143.784 .0270998
1144.408 .0270357
1145.033 .0267640
