Measurement Sequence started on: 14-45-04-498
Integration time: 36
Scans to Average: 2 
>>>>>Begin Spectral Data<<<<<
433.946 .0418399
434.870 .0476009
435.793 .0442624
436.715 .0425737
437.635 .0423135
438.555 .0416942
439.473 .0411010
440.389 .0404107
441.305 .0398922
442.219 .0394764
443.132 .0391303
444.044 .0388736
444.954 .0386866
445.863 .0385561
446.771 .0384836
447.678 .0384276
448.584 .0383876
449.488 .0383490
450.391 .0383018
451.293 .0382587
452.194 .0382153
453.094 .0381722
453.992 .0381308
454.890 .0380938
455.786 .0380487
456.681 .0380012
457.575 .0379526
458.468 .0378908
459.360 .0378246
460.250 .0377579
461.140 .0376892
462.028 .0376274
462.915 .0375734
463.801 .0375219
464.687 .0374730
465.571 .0374247
466.454 .0373681
467.335 .0373023
468.216 .0372336
469.096 .0371636
469.975 .0370915
470.853 .0370221
471.729 .0369553
472.605 .0368901
473.479 .0368317
474.353 .0367724
475.226 .0367125
476.097 .0366515
476.968 .0365877
477.838 .0365211
478.706 .0364576
479.574 .0363984
480.441 .0363460
481.306 .0363009
482.171 .0362630
483.035 .0362275
483.898 .0361941
484.760 .0361604
485.621 .0361266
486.481 .0360935
487.340 .0360627
488.198 .0360323
489.055 .0360085
489.912 .0359892
490.767 .0359770
491.622 .0359665
492.476 .0359578
493.329 .0359482
494.180 .0359371
495.032 .0359226
495.882 .0359105
496.731 .0358992
497.580 .0358922
498.427 .0358867
499.274 .0358857
500.120 .0358852
500.965 .0358861
501.809 .0358835
502.653 .0358748
503.495 .0358576
504.337 .0358324
505.178 .0357904
506.018 .0357435
506.858 .0356880
507.696 .0356284
508.534 .0355655
509.371 .0355033
510.208 .0354416
511.043 .0353864
511.878 .0353343
512.712 .0352875
513.545 .0352459
514.377 .0352160
515.209 .0351870
516.040 .0351624
516.870 .0351421
517.699 .0351231
518.528 .0351003
519.356 .0350805
520.183 .0350531
521.010 .0350284
521.836 .0350017
522.661 .0349734
523.485 .0349393
524.309 .0349016
525.132 .0348574
525.954 .0348022
526.776 .0347370
527.597 .0346608
528.417 .0345653
529.237 .0344624
530.056 .0343517
530.874 .0342389
531.692 .0341315
532.508 .0340384
533.325 .0339619
534.140 .0339075
534.955 .0338706
535.770 .0338476
536.583 .0338349
537.397 .0338306
538.209 .0338220
539.021 .0338029
539.832 .0337795
540.643 .0337491
541.453 .0337159
542.262 .0336833
543.071 .0336501
543.879 .0336186
544.687 .0335893
545.494 .0335554
546.300 .0335121
547.106 .0334607
547.911 .0334001
548.716 .0333279
549.520 .0332496
550.323 .0331680
551.126 .0330883
551.929 .0330168
552.731 .0329596
553.532 .0329126
554.332 .0328789
555.133 .0328566
555.932 .0328390
556.731 .0328261
557.530 .0328165
558.328 .0328074
559.125 .0328007
559.922 .0327985
560.719 .0327980
561.515 .0327998
562.310 .0328051
563.105 .0328132
563.899 .0328217
564.693 .0328319
565.487 .0328371
566.280 .0328364
567.072 .0328316
567.864 .0328168
568.655 .0327922
569.446 .0327611
570.236 .0327206
571.026 .0326738
571.816 .0326237
572.605 .0325714
573.393 .0325198
574.181 .0324707
574.969 .0324217
575.756 .0323732
576.543 .0323250
577.329 .0322744
578.115 .0322196
578.900 .0321637
579.685 .0321072
580.469 .0320511
581.253 .0320009
582.036 .0319556
582.820 .0319173
583.602 .0318871
584.384 .0318623
585.166 .0318398
585.947 .0318180
586.728 .0317940
587.509 .0317666
588.289 .0317363
589.069 .0317039
589.848 .0316692
590.627 .0316351
591.405 .0316021
592.183 .0315697
592.961 .0315382
593.738 .0315080
594.515 .0314767
595.291 .0314434
596.067 .0314087
596.843 .0313715
597.618 .0313323
598.393 .0312927
599.167 .0312535
599.941 .0312148
600.715 .0311778
601.488 .0311434
602.261 .0311113
603.034 .0310821
603.806 .0310560
604.578 .0310317
605.349 .0310104
606.121 .0309917
606.891 .0309747
607.662 .0309588
608.432 .0309454
609.201 .0309330
609.971 .0309217
610.740 .0309116
611.508 .0309024
612.277 .0308937
613.045 .0308858
613.812 .0308784
614.579 .0308710
615.346 .0308637
616.113 .0308571
616.879 .0308501
617.645 .0308436
618.411 .0308365
619.176 .0308285
619.941 .0308193
620.705 .0308090
621.470 .0307959
622.233 .0307804
622.997 .0307625
623.760 .0307420
624.523 .0307193
625.286 .0306949
626.048 .0306691
626.810 .0306424
627.572 .0306148
628.333 .0305858
629.095 .0305557
629.855 .0305256
630.616 .0304952
631.376 .0304648
632.136 .0304349
632.895 .0304062
633.655 .0303790
634.414 .0303540
635.172 .0303304
635.931 .0303085
636.689 .0302884
637.447 .0302692
638.204 .0302504
638.962 .0302321
639.718 .0302139
640.475 .0301947
641.231 .0301749
641.988 .0301534
642.743 .0301298
643.499 .0301044
644.254 .0300772
645.009 .0300489
645.764 .0300197
646.518 .0299908
647.272 .0299621
648.026 .0299350
648.780 .0299089
649.533 .0298835
650.286 .0298594
651.039 .0298359
651.792 .0298123
652.544 .0297891
653.296 .0297669
654.048 .0297457
654.799 .0297258
655.550 .0297079
656.301 .0296915
657.052 .0296771
657.802 .0296638
658.552 .0296513
659.302 .0296390
660.052 .0296268
660.801 .0296135
661.550 .0295990
662.299 .0295842
663.048 .0295684
663.796 .0295523
664.544 .0295370
665.292 .0295224
666.040 .0295087
666.787 .0294969
667.534 .0294868
668.281 .0294777
669.028 .0294697
669.774 .0294625
670.521 .0294558
671.266 .0294493
672.012 .0294430
672.758 .0294365
673.503 .0294306
674.248 .0294254
674.992 .0294199
675.737 .0294146
676.481 .0294095
677.225 .0294039
677.969 .0293975
678.712 .0293906
679.455 .0293832
680.199 .0293748
680.941 .0293658
681.684 .0293565
682.426 .0293464
683.168 .0293357
683.910 .0293245
684.652 .0293123
685.393 .0292996
686.134 .0292861
686.875 .0292724
687.616 .0292588
688.356 .0292457
689.097 .0292329
689.837 .0292198
690.576 .0292071
691.316 .0291941
692.055 .0291803
692.794 .0291660
693.533 .0291510
694.272 .0291353
695.010 .0291194
695.748 .0291031
696.486 .0290866
697.224 .0290703
697.962 .0290542
698.699 .0290382
699.436 .0290219
700.173 .0290060
700.909 .0289902
701.646 .0289753
702.382 .0289616
703.118 .0289488
703.853 .0289370
704.589 .0289259
705.324 .0289150
706.059 .0289040
706.794 .0288925
707.529 .0288807
708.263 .0288683
708.997 .0288557
709.731 .0288427
710.465 .0288295
711.198 .0288165
711.931 .0288034
712.664 .0287897
713.397 .0287749
714.130 .0287590
714.862 .0287419
715.594 .0287236
716.326 .0287048
717.058 .0286860
717.789 .0286680
718.520 .0286507
719.251 .0286349
719.982 .0286201
720.713 .0286066
721.443 .0285938
722.173 .0285818
722.903 .0285701
723.633 .0285592
724.362 .0285490
725.091 .0285397
725.820 .0285319
726.549 .0285258
727.278 .0285208
728.006 .0285176
728.734 .0285153
729.462 .0285136
730.190 .0285124
730.917 .0285119
731.644 .0285114
732.371 .0285117
733.098 .0285127
733.825 .0285147
734.551 .0285172
735.277 .0285201
736.003 .0285229
736.728 .0285259
737.454 .0285287
738.179 .0285312
738.904 .0285330
739.629 .0285349
740.353 .0285366
741.077 .0285382
741.801 .0285396
742.525 .0285406
743.249 .0285412
743.972 .0285408
744.695 .0285392
745.418 .0285363
746.141 .0285322
746.863 .0285274
747.585 .0285221
748.307 .0285162
749.029 .0285100
749.750 .0285036
750.472 .0284972
751.193 .0284901
751.913 .0284827
752.634 .0284746
753.354 .0284660
754.074 .0284568
754.794 .0284472
755.514 .0284370
756.233 .0284264
756.952 .0284157
757.671 .0284045
758.390 .0283929
759.108 .0283812
759.826 .0283692
760.544 .0283576
761.262 .0283460
761.979 .0283349
762.697 .0283238
763.414 .0283134
764.130 .0283029
764.847 .0282923
765.563 .0282819
766.279 .0282715
766.995 .0282610
767.710 .0282509
768.426 .0282412
769.141 .0282318
769.855 .0282226
770.570 .0282133
771.284 .0282035
771.998 .0281935
772.712 .0281829
773.426 .0281719
774.139 .0281607
774.852 .0281496
775.565 .0281384
776.277 .0281275
776.990 .0281171
777.702 .0281064
778.414 .0280957
779.125 .0280850
779.836 .0280738
780.547 .0280626
781.258 .0280519
781.969 .0280418
782.679 .0280324
783.389 .0280241
784.099 .0280167
784.808 .0280102
785.517 .0280044
786.226 .0279988
786.935 .0279932
787.643 .0279879
788.352 .0279824
789.060 .0279762
789.767 .0279698
790.475 .0279629
791.182 .0279550
791.889 .0279463
792.595 .0279370
793.301 .0279271
794.008 .0279169
794.713 .0279067
795.419 .0278967
796.124 .0278868
796.829 .0278775
797.534 .0278681
798.238 .0278590
798.942 .0278502
799.646 .0278415
800.350 .0278333
801.053 .0278259
801.756 .0278193
802.459 .0278138
803.162 .0278097
803.864 .0278069
804.566 .0278048
805.267 .0278028
805.969 .0278011
806.670 .0277994
807.371 .0277978
808.071 .0277969
808.772 .0277963
809.472 .0277964
810.171 .0277969
810.871 .0277980
811.570 .0277992
812.269 .0278005
812.967 .0278015
813.666 .0278015
814.364 .0278009
815.061 .0277995
815.759 .0277971
816.456 .0277945
817.153 .0277917
817.849 .0277885
818.545 .0277850
819.241 .0277818
819.937 .0277781
820.632 .0277743
821.327 .0277701
822.022 .0277657
822.717 .0277609
823.411 .0277557
824.105 .0277502
824.798 .0277443
825.491 .0277390
826.184 .0277337
826.877 .0277284
827.569 .0277236
828.261 .0277189
828.953 .0277142
829.645 .0277093
830.336 .0277047
831.027 .0276998
831.717 .0276951
832.407 .0276905
833.097 .0276858
833.787 .0276809
834.476 .0276757
835.165 .0276706
835.854 .0276654
836.542 .0276601
837.230 .0276549
837.918 .0276497
838.605 .0276449
839.292 .0276403
839.979 .0276364
840.665 .0276328
841.352 .0276296
842.037 .0276263
842.723 .0276226
843.408 .0276183
844.093 .0276133
844.777 .0276076
845.462 .0276009
846.145 .0275932
846.829 .0275842
847.512 .0275741
848.195 .0275632
848.878 .0275513
849.560 .0275383
850.242 .0275246
850.923 .0275102
851.605 .0274946
852.286 .0274784
852.966 .0274615
853.646 .0274439
854.326 .0274260
855.006 .0274076
855.685 .0273883
856.364 .0273689
857.043 .0273496
857.721 .0273303
858.399 .0273119
859.077 .0272945
859.754 .0272781
860.431 .0272629
861.107 .0272492
861.784 .0272363
862.459 .0272243
863.135 .0272132
863.810 .0272021
864.485 .0271909
865.160 .0271794
865.834 .0271675
866.508 .0271552
867.181 .0271429
867.854 .0271305
868.527 .0271180
869.199 .0271056
869.872 .0270931
870.543 .0270805
871.215 .0270674
871.886 .0270540
872.557 .0270395
873.227 .0270241
873.897 .0270074
874.567 .0269893
875.236 .0269705
875.905 .0269514
876.573 .0269322
877.242 .0269132
877.909 .0268945
878.577 .0268767
879.244 .0268593
879.911 .0268423
880.577 .0268254
881.243 .0268081
881.909 .0267902
882.575 .0267714
883.240 .0267518
883.904 .0267325
884.569 .0267137
885.232 .0266956
885.896 .0266790
886.559 .0266639
887.222 .0266499
887.885 .0266373
888.547 .0266259
889.208 .0266152
889.870 .0266050
890.531 .0265954
891.192 .0265868
891.852 .0265797
892.512 .0265744
893.171 .0265707
893.830 .0265688
894.489 .0265684
895.148 .0265687
895.806 .0265692
896.464 .0265699
897.121 .0265701
897.778 .0265698
898.434 .0265686
899.091 .0265668
899.747 .0265644
900.402 .0265618
901.057 .0265596
901.712 .0265575
902.366 .0265555
903.020 .0265532
903.674 .0265505
904.327 .0265476
904.980 .0265442
905.633 .0265403
906.285 .0265359
906.936 .0265317
907.588 .0265280
908.239 .0265250
908.889 .0265228
909.540 .0265218
910.190 .0265219
910.839 .0265225
911.488 .0265228
912.137 .0265222
912.785 .0265207
913.433 .0265175
914.081 .0265125
914.728 .0265059
915.375 .0264983
916.021 .0264903
916.668 .0264824
917.313 .0264751
917.959 .0264683
918.604 .0264622
919.248 .0264563
919.892 .0264505
920.536 .0264443
921.180 .0264373
921.823 .0264295
922.465 .0264213
923.108 .0264126
923.750 .0264036
924.391 .0263942
925.032 .0263847
925.673 .0263751
926.313 .0263652
926.953 .0263552
927.593 .0263451
928.232 .0263346
928.871 .0263241
929.510 .0263129
930.148 .0263012
930.786 .0262888
931.423 .0262758
932.060 .0262622
932.697 .0262483
933.333 .0262343
933.969 .0262205
934.604 .0262066
935.239 .0261936
935.874 .0261813
936.508 .0261697
937.142 .0261589
937.776 .0261485
938.409 .0261379
939.042 .0261270
939.674 .0261152
940.306 .0261026
940.938 .0260892
941.569 .0260757
942.200 .0260614
942.830 .0260469
943.460 .0260330
944.090 .0260193
944.720 .0260059
945.349 .0259933
945.977 .0259807
946.606 .0259682
947.233 .0259555
947.861 .0259423
948.488 .0259280
949.115 .0259130
949.741 .0258973
950.367 .0258804
950.993 .0258628
951.618 .0258451
952.243 .0258275
952.868 .0258108
953.492 .0257951
954.115 .0257801
954.739 .0257659
955.362 .0257527
955.984 .0257394
956.607 .0257262
957.229 .0257136
957.850 .0257010
958.471 .0256884
959.092 .0256763
959.713 .0256646
960.333 .0256533
960.952 .0256429
961.572 .0256334
962.191 .0256240
962.809 .0256148
963.428 .0256054
964.045 .0255956
964.663 .0255856
965.280 .0255753
965.897 .0255645
966.513 .0255542
967.129 .0255444
967.745 .0255345
968.361 .0255250
968.976 .0255161
969.590 .0255070
970.205 .0254975
970.818 .0254880
971.432 .0254784
972.045 .0254683
972.658 .0254591
973.271 .0254496
973.883 .0254400
974.495 .0254298
975.106 .0254186
975.717 .0254065
976.328 .0253936
976.938 .0253793
977.548 .0253642
978.158 .0253491
978.768 .0253342
979.377 .0253196
979.985 .0253056
980.594 .0252923
981.202 .0252792
981.809 .0252655
982.417 .0252518
983.024 .0252373
983.631 .0252230
984.237 .0252087
984.843 .0251949
985.449 .0251812
986.054 .0251674
986.659 .0251537
987.264 .0251399
987.868 .0251252
988.472 .0251099
989.076 .0250942
989.679 .0250780
990.282 .0250623
990.885 .0250466
991.487 .0250313
992.090 .0250174
992.691 .0250038
993.293 .0249913
993.894 .0249795
994.495 .0249689
995.095 .0249589
995.696 .0249495
996.296 .0249407
996.895 .0249316
997.494 .0249232
998.093 .0249151
998.692 .0249072
999.291 .0249007
999.889 .0248952
1000.487 .0248908
1001.084 .0248882
1001.681 .0248866
1002.278 .0248853
1002.875 .0248846
1003.471 .0248831
1004.067 .0248811
1004.663 .0248782
1005.258 .0248752
1005.854 .0248717
1006.449 .0248684
1007.043 .0248654
1007.638 .0248618
1008.232 .0248588
1008.826 .0248561
1009.419 .0248524
1010.012 .0248485
1010.605 .0248437
1011.198 .0248380
1011.791 .0248313
1012.383 .0248240
1012.975 .0248163
1013.566 .0248088
1014.158 .0248015
1014.749 .0247947
1015.340 .0247887
1015.931 .0247844
1016.521 .0247818
1017.111 .0247811
1017.701 .0247821
1018.291 .0247843
1018.880 .0247872
1019.470 .0247908
1020.059 .0247944
1020.647 .0247983
1021.236 .0248025
1021.824 .0248075
1022.412 .0248132
1023.000 .0248193
1023.588 .0248264
1024.175 .0248347
1024.762 .0248434
1025.349 .0248521
1025.936 .0248602
1026.523 .0248678
1027.109 .0248742
1027.695 .0248802
1028.281 .0248852
1028.867 .0248892
1029.452 .0248927
1030.038 .0248952
1030.623 .0248966
1031.208 .0248979
1031.792 .0248995
1032.377 .0249015
1032.961 .0249042
1033.546 .0249076
1034.130 .0249107
1034.714 .0249143
1035.297 .0249173
1035.881 .0249194
1036.464 .0249200
1037.047 .0249203
1037.630 .0249193
1038.213 .0249188
1038.796 .0249200
1039.378 .0249223
1039.961 .0249272
1040.543 .0249341
1041.125 .0249411
1041.707 .0249477
1042.289 .0249524
1042.871 .0249557
1043.452 .0249572
1044.034 .0249584
1044.615 .0249590
1045.196 .0249611
1045.777 .0249661
1046.358 .0249734
1046.939 .0249824
1047.520 .0249938
1048.101 .0250053
1048.681 .0250156
1049.262 .0250246
1049.842 .0250311
1050.422 .0250359
1051.002 .0250405
1051.582 .0250439
1052.162 .0250487
1052.742 .0250536
1053.322 .0250591
1053.902 .0250639
1054.482 .0250680
1055.061 .0250708
1055.641 .0250717
1056.220 .0250721
1056.800 .0250720
1057.379 .0250715
1057.958 .0250724
1058.538 .0250743
1059.117 .0250788
1059.696 .0250854
1060.275 .0250929
1060.854 .0251014
1061.433 .0251105
1062.012 .0251190
1062.592 .0251282
1063.171 .0251376
1063.750 .0251467
1064.329 .0251555
1064.908 .0251633
1065.487 .0251686
1066.066 .0251722
1066.645 .0251745
1067.224 .0251750
1067.803 .0251732
1068.382 .0251693
1068.961 .0251629
1069.540 .0251546
1070.119 .0251461
1070.698 .0251369
1071.278 .0251290
1071.857 .0251230
1072.436 .0251179
1073.016 .0251147
1073.595 .0251138
1074.175 .0251150
1074.754 .0251167
1075.334 .0251189
1075.913 .0251199
1076.493 .0251198
1077.073 .0251196
1077.653 .0251199
1078.233 .0251227
1078.813 .0251284
1079.393 .0251367
1079.974 .0251461
1080.554 .0251563
1081.135 .0251652
1081.716 .0251711
1082.296 .0251741
1082.877 .0251718
1083.458 .0251658
1084.040 .0251569
1084.621 .0251478
1085.202 .0251394
1085.784 .0251337
1086.366 .0251303
1086.948 .0251290
1087.530 .0251289
1088.112 .0251273
1088.695 .0251239
1089.277 .0251194
1089.860 .0251116
1090.443 .0251008
1091.026 .0250889
1091.610 .0250777
1092.193 .0250665
1092.777 .0250583
1093.361 .0250507
1093.946 .0250450
1094.530 .0250397
1095.115 .0250350
1095.700 .0250292
1096.285 .0250251
1096.871 .0250205
1097.456 .0250165
1098.042 .0250137
1098.628 .0250136
1099.215 .0250130
1099.802 .0250156
1100.389 .0250192
1100.976 .0250239
1101.564 .0250260
1102.152 .0250282
1102.740 .0250292
1103.329 .0250311
1103.917 .0250307
1104.507 .0250287
1105.096 .0250254
1105.686 .0250227
1106.276 .0250180
1106.867 .0250139
1107.457 .0250088
1108.049 .0250049
1108.640 .0249990
1109.232 .0249916
1109.825 .0249833
1110.417 .0249750
1111.010 .0249670
1111.604 .0249600
1112.198 .0249548
1112.792 .0249528
1113.387 .0249538
1113.982 .0249609
1114.577 .0249743
1115.173 .0249927
1115.769 .0250142
1116.366 .0250360
1116.963 .0250573
1117.561 .0250760
1118.159 .0250906
1118.758 .0251010
1119.357 .0251079
1119.957 .0251126
1120.557 .0251193
1121.157 .0251259
1121.758 .0251373
1122.360 .0251530
1122.962 .0251705
1123.564 .0251877
1124.167 .0252043
1124.771 .0252178
1125.375 .0252288
1125.980 .0252381
1126.585 .0252452
1127.191 .0252483
1127.797 .0252554
1128.404 .0252624
1129.012 .0252722
1129.620 .0252874
1130.229 .0253025
1130.838 .0253156
1131.448 .0253272
1132.058 .0253352
1132.669 .0253379
1133.281 .0253379
1133.894 .0253368
1134.507 .0253338
1135.120 .0253351
1135.735 .0253397
1136.350 .0253474
1136.965 .0253626
1137.582 .0253815
1138.199 .0254023
1138.816 .0254203
1139.435 .0254407
1140.054 .0254635
1140.674 .0254851
1141.294 .0255098
1141.916 .0255352
1142.538 .0255439
1143.160 .0256614
1143.784 .0255966
1144.408 .0256664
1145.033 .0256674
