Measurement Sequence started on: 14-45-04-498
Integration time: 36
Scans to Average: 2 
>>>>>Begin Spectral Data<<<<<
433.946 .0329838
434.870 .0394481
435.793 .0386072
436.715 .0384442
437.635 .0375405
438.555 .0381656
439.473 .0383818
440.389 .0384017
441.305 .0384667
442.219 .0385235
443.132 .0385902
444.044 .0386267
444.954 .0386634
445.863 .0387068
446.771 .0387565
447.678 .0388199
448.584 .0388980
449.488 .0389693
450.391 .0390300
451.293 .0390659
452.194 .0390819
453.094 .0390646
453.992 .0390229
454.890 .0389610
455.786 .0388881
456.681 .0388083
457.575 .0387243
458.468 .0386403
459.360 .0385569
460.250 .0384688
461.140 .0383712
462.028 .0382679
462.915 .0381548
463.801 .0380332
464.687 .0379052
465.571 .0377774
466.454 .0376568
467.335 .0375402
468.216 .0374341
469.096 .0373388
469.975 .0372518
470.853 .0371680
471.729 .0370856
472.605 .0370045
473.479 .0369233
474.353 .0368418
475.226 .0367614
476.097 .0366843
476.968 .0366135
477.838 .0365450
478.706 .0364813
479.574 .0364234
480.441 .0363737
481.306 .0363274
482.171 .0362866
483.035 .0362490
483.898 .0362133
484.760 .0361801
485.621 .0361493
486.481 .0361214
487.340 .0360981
488.198 .0360749
489.055 .0360538
489.912 .0360339
490.767 .0360138
491.622 .0359889
492.476 .0359632
493.329 .0359353
494.180 .0359048
495.032 .0358702
495.882 .0358340
496.731 .0357966
497.580 .0357609
498.427 .0357274
499.274 .0356923
500.120 .0356612
500.965 .0356294
501.809 .0355964
502.653 .0355644
503.495 .0355336
504.337 .0355030
505.178 .0354731
506.018 .0354464
506.858 .0354193
507.696 .0353938
508.534 .0353709
509.371 .0353478
510.208 .0353283
511.043 .0353098
511.878 .0352920
512.712 .0352725
513.545 .0352537
514.377 .0352321
515.209 .0352062
516.040 .0351765
516.870 .0351423
517.699 .0351022
518.528 .0350584
519.356 .0350141
520.183 .0349701
521.010 .0349299
521.836 .0348910
522.661 .0348502
523.485 .0348051
524.309 .0347535
525.132 .0346960
525.954 .0346272
526.776 .0345535
527.597 .0344776
528.417 .0343991
529.237 .0343291
530.056 .0342712
530.874 .0342265
531.692 .0341979
532.508 .0341812
533.325 .0341704
534.140 .0341616
534.955 .0341480
535.770 .0341282
536.583 .0340974
537.397 .0340629
538.209 .0340250
539.021 .0339834
539.832 .0339474
540.643 .0339168
541.453 .0338931
542.262 .0338779
543.071 .0338662
543.879 .0338554
544.687 .0338368
545.494 .0338111
546.300 .0337763
547.106 .0337330
547.911 .0336870
548.716 .0336414
549.520 .0335921
550.323 .0335478
551.126 .0335077
551.929 .0334694
552.731 .0334349
553.532 .0334005
554.332 .0333622
555.133 .0333195
555.932 .0332709
556.731 .0332184
557.530 .0331611
558.328 .0331061
559.125 .0330508
559.922 .0329977
560.719 .0329511
561.515 .0329106
562.310 .0328791
563.105 .0328585
563.899 .0328446
564.693 .0328368
565.487 .0328332
566.280 .0328301
567.072 .0328275
567.864 .0328268
568.655 .0328241
569.446 .0328185
570.236 .0328084
571.026 .0327924
571.816 .0327714
572.605 .0327491
573.393 .0327247
574.181 .0326997
574.969 .0326759
575.756 .0326524
576.543 .0326287
577.329 .0326058
578.115 .0325802
578.900 .0325498
579.685 .0325147
580.469 .0324732
581.253 .0324259
582.036 .0323770
582.820 .0323283
583.602 .0322825
584.384 .0322413
585.166 .0322034
585.947 .0321699
586.728 .0321404
587.509 .0321136
588.289 .0320859
589.069 .0320579
589.848 .0320291
590.627 .0319984
591.405 .0319672
592.183 .0319375
592.961 .0319094
593.738 .0318849
594.515 .0318628
595.291 .0318427
596.067 .0318236
596.843 .0318053
597.618 .0317862
598.393 .0317664
599.167 .0317454
599.941 .0317227
600.715 .0316989
601.488 .0316755
602.261 .0316526
603.034 .0316311
603.806 .0316108
604.578 .0315925
605.349 .0315763
606.121 .0315623
606.891 .0315496
607.662 .0315383
608.432 .0315283
609.201 .0315195
609.971 .0315109
610.740 .0315027
611.508 .0314945
612.277 .0314863
613.045 .0314780
613.812 .0314693
614.579 .0314604
615.346 .0314513
616.113 .0314419
616.879 .0314321
617.645 .0314216
618.411 .0314102
619.176 .0313977
619.941 .0313842
620.705 .0313701
621.470 .0313555
622.233 .0313403
622.997 .0313245
623.760 .0313082
624.523 .0312915
625.286 .0312734
626.048 .0312544
626.810 .0312342
627.572 .0312126
628.333 .0311899
629.095 .0311663
629.855 .0311427
630.616 .0311196
631.376 .0310966
632.136 .0310740
632.895 .0310515
633.655 .0310293
634.414 .0310065
635.172 .0309832
635.931 .0309599
636.689 .0309363
637.447 .0309135
638.204 .0308914
638.962 .0308703
639.718 .0308509
640.475 .0308325
641.231 .0308147
641.988 .0307966
642.743 .0307781
643.499 .0307591
644.254 .0307390
645.009 .0307185
645.764 .0306981
646.518 .0306781
647.272 .0306593
648.026 .0306417
648.780 .0306255
649.533 .0306114
650.286 .0305985
651.039 .0305862
651.792 .0305749
652.544 .0305638
653.296 .0305527
654.048 .0305409
654.799 .0305297
655.550 .0305185
656.301 .0305075
657.052 .0304972
657.802 .0304871
658.552 .0304774
659.302 .0304677
660.052 .0304574
660.801 .0304465
661.550 .0304349
662.299 .0304224
663.048 .0304086
663.796 .0303955
664.544 .0303823
665.292 .0303699
666.040 .0303588
666.787 .0303496
667.534 .0303413
668.281 .0303336
669.028 .0303258
669.774 .0303174
670.521 .0303084
671.266 .0302981
672.012 .0302866
672.758 .0302748
673.503 .0302625
674.248 .0302501
674.992 .0302375
675.737 .0302255
676.481 .0302138
677.225 .0302019
677.969 .0301893
678.712 .0301759
679.455 .0301617
680.199 .0301466
680.941 .0301310
681.684 .0301153
682.426 .0300999
683.168 .0300842
683.910 .0300690
684.652 .0300541
685.393 .0300400
686.134 .0300267
686.875 .0300143
687.616 .0300030
688.356 .0299925
689.097 .0299825
689.837 .0299732
690.576 .0299641
691.316 .0299553
692.055 .0299464
692.794 .0299369
693.533 .0299275
694.272 .0299177
695.010 .0299078
695.748 .0298984
696.486 .0298897
697.224 .0298813
697.962 .0298727
698.699 .0298640
699.436 .0298551
700.173 .0298456
700.909 .0298357
701.646 .0298251
702.382 .0298142
703.118 .0298028
703.853 .0297907
704.589 .0297783
705.324 .0297660
706.059 .0297535
706.794 .0297408
707.529 .0297279
708.263 .0297149
708.997 .0297017
709.731 .0296881
710.465 .0296743
711.198 .0296603
711.931 .0296461
712.664 .0296314
713.397 .0296162
714.130 .0296006
714.862 .0295848
715.594 .0295688
716.326 .0295534
717.058 .0295388
717.789 .0295251
718.520 .0295121
719.251 .0294995
719.982 .0294872
720.713 .0294748
721.443 .0294621
722.173 .0294488
722.903 .0294349
723.633 .0294207
724.362 .0294062
725.091 .0293917
725.820 .0293779
726.549 .0293650
727.278 .0293528
728.006 .0293414
728.734 .0293308
729.462 .0293206
730.190 .0293107
730.917 .0293012
731.644 .0292920
732.371 .0292831
733.098 .0292747
733.825 .0292665
734.551 .0292589
735.277 .0292521
736.003 .0292455
736.728 .0292390
737.454 .0292326
738.179 .0292255
738.904 .0292174
739.629 .0292083
740.353 .0291981
741.077 .0291873
741.801 .0291760
742.525 .0291645
743.249 .0291533
743.972 .0291428
744.695 .0291331
745.418 .0291241
746.141 .0291156
746.863 .0291070
747.585 .0290977
748.307 .0290878
749.029 .0290769
749.750 .0290652
750.472 .0290533
751.193 .0290417
751.913 .0290307
752.634 .0290203
753.354 .0290103
754.074 .0290004
754.794 .0289898
755.514 .0289779
756.233 .0289644
756.952 .0289497
757.671 .0289342
758.390 .0289185
759.108 .0289036
759.826 .0288904
760.544 .0288785
761.262 .0288688
761.979 .0288603
762.697 .0288525
763.414 .0288448
764.130 .0288367
764.847 .0288277
765.563 .0288180
766.279 .0288081
766.995 .0287981
767.710 .0287883
768.426 .0287792
769.141 .0287706
769.855 .0287624
770.570 .0287543
771.284 .0287460
771.998 .0287370
772.712 .0287275
773.426 .0287173
774.139 .0287064
774.852 .0286954
775.565 .0286847
776.277 .0286746
776.990 .0286657
777.702 .0286579
778.414 .0286510
779.125 .0286452
779.836 .0286404
780.547 .0286362
781.258 .0286324
781.969 .0286284
782.679 .0286244
783.389 .0286206
784.099 .0286167
784.808 .0286128
785.517 .0286093
786.226 .0286066
786.935 .0286042
787.643 .0286022
788.352 .0286008
789.060 .0285996
789.767 .0285984
790.475 .0285968
791.182 .0285943
791.889 .0285910
792.595 .0285870
793.301 .0285821
794.008 .0285765
794.713 .0285705
795.419 .0285643
796.124 .0285577
796.829 .0285512
797.534 .0285443
798.238 .0285368
798.942 .0285285
799.646 .0285195
800.350 .0285096
801.053 .0284990
801.756 .0284879
802.459 .0284764
803.162 .0284650
803.864 .0284535
804.566 .0284419
805.267 .0284302
805.969 .0284185
806.670 .0284069
807.371 .0283952
808.071 .0283844
808.772 .0283738
809.472 .0283637
810.171 .0283541
810.871 .0283447
811.570 .0283351
812.269 .0283247
812.967 .0283136
813.666 .0283014
814.364 .0282886
815.061 .0282753
815.759 .0282617
816.456 .0282487
817.153 .0282360
817.849 .0282234
818.545 .0282105
819.241 .0281971
819.937 .0281823
820.632 .0281660
821.327 .0281483
822.022 .0281294
822.717 .0281098
823.411 .0280900
824.105 .0280706
824.798 .0280520
825.491 .0280340
826.184 .0280166
826.877 .0279995
827.569 .0279831
828.261 .0279667
828.953 .0279504
829.645 .0279345
830.336 .0279190
831.027 .0279047
831.717 .0278917
832.407 .0278801
833.097 .0278700
833.787 .0278608
834.476 .0278523
835.165 .0278439
835.854 .0278356
836.542 .0278272
837.230 .0278186
837.918 .0278101
838.605 .0278021
839.292 .0277946
839.979 .0277879
840.665 .0277821
841.352 .0277771
842.037 .0277725
842.723 .0277678
843.408 .0277625
844.093 .0277570
844.777 .0277511
845.462 .0277453
846.145 .0277395
846.829 .0277338
847.512 .0277283
848.195 .0277226
848.878 .0277167
849.560 .0277104
850.242 .0277034
850.923 .0276954
851.605 .0276865
852.286 .0276766
852.966 .0276658
853.646 .0276546
854.326 .0276435
855.006 .0276325
855.685 .0276214
856.364 .0276101
857.043 .0275988
857.721 .0275873
858.399 .0275761
859.077 .0275645
859.754 .0275530
860.431 .0275416
861.107 .0275307
861.784 .0275201
862.459 .0275106
863.135 .0275016
863.810 .0274929
864.485 .0274846
865.160 .0274767
865.834 .0274686
866.508 .0274610
867.181 .0274541
867.854 .0274476
868.527 .0274413
869.199 .0274358
869.872 .0274303
870.543 .0274257
871.215 .0274214
871.886 .0274171
872.557 .0274125
873.227 .0274076
873.897 .0274016
874.567 .0273951
875.236 .0273883
875.905 .0273812
876.573 .0273736
877.242 .0273661
877.909 .0273581
878.577 .0273500
879.244 .0273416
879.911 .0273332
880.577 .0273246
881.243 .0273159
881.909 .0273066
882.575 .0272971
883.240 .0272876
883.904 .0272785
884.569 .0272695
885.232 .0272608
885.896 .0272518
886.559 .0272424
887.222 .0272327
887.885 .0272226
888.547 .0272121
889.208 .0272014
889.870 .0271903
890.531 .0271793
891.192 .0271685
891.852 .0271581
892.512 .0271479
893.171 .0271385
893.830 .0271295
894.489 .0271209
895.148 .0271123
895.806 .0271043
896.464 .0270968
897.121 .0270901
897.778 .0270838
898.434 .0270780
899.091 .0270721
899.747 .0270659
900.402 .0270586
901.057 .0270500
901.712 .0270398
902.366 .0270278
903.020 .0270142
903.674 .0269998
904.327 .0269846
904.980 .0269691
905.633 .0269535
906.285 .0269382
906.936 .0269229
907.588 .0269074
908.239 .0268917
908.889 .0268759
909.540 .0268600
910.190 .0268444
910.839 .0268294
911.488 .0268155
912.137 .0268030
912.785 .0267917
913.433 .0267814
914.081 .0267714
914.728 .0267613
915.375 .0267507
916.021 .0267390
916.668 .0267267
917.313 .0267135
917.959 .0266996
918.604 .0266859
919.248 .0266719
919.892 .0266580
920.536 .0266445
921.180 .0266311
921.823 .0266177
922.465 .0266043
923.108 .0265908
923.750 .0265770
924.391 .0265631
925.032 .0265497
925.673 .0265363
926.313 .0265234
926.953 .0265110
927.593 .0264978
928.232 .0264839
928.871 .0264690
929.510 .0264522
930.148 .0264338
930.786 .0264141
931.423 .0263929
932.060 .0263711
932.697 .0263492
933.333 .0263278
933.969 .0263067
934.604 .0262865
935.239 .0262669
935.874 .0262469
936.508 .0262272
937.142 .0262068
937.776 .0261861
938.409 .0261660
939.042 .0261466
939.674 .0261279
940.306 .0261105
940.938 .0260945
941.569 .0260795
942.200 .0260651
942.830 .0260510
943.460 .0260366
944.090 .0260215
944.720 .0260058
945.349 .0259891
945.977 .0259724
946.606 .0259566
947.233 .0259413
947.861 .0259269
948.488 .0259133
949.115 .0259003
949.741 .0258877
950.367 .0258754
950.993 .0258634
951.618 .0258518
952.243 .0258407
952.868 .0258305
953.492 .0258213
954.115 .0258130
954.739 .0258054
955.362 .0257985
955.984 .0257915
956.607 .0257839
957.229 .0257761
957.850 .0257686
958.471 .0257612
959.092 .0257545
959.713 .0257483
960.333 .0257429
960.952 .0257387
961.572 .0257352
962.191 .0257320
962.809 .0257297
963.428 .0257275
964.045 .0257249
964.663 .0257223
965.280 .0257199
965.897 .0257176
966.513 .0257156
967.129 .0257140
967.745 .0257121
968.361 .0257105
968.976 .0257092
969.590 .0257078
970.205 .0257069
970.818 .0257056
971.432 .0257037
972.045 .0257014
972.658 .0256986
973.271 .0256955
973.883 .0256918
974.495 .0256877
975.106 .0256829
975.717 .0256777
976.328 .0256722
976.938 .0256665
977.548 .0256612
978.158 .0256564
978.768 .0256513
979.377 .0256461
979.985 .0256407
980.594 .0256354
981.202 .0256302
981.809 .0256249
982.417 .0256201
983.024 .0256157
983.631 .0256114
984.237 .0256072
984.843 .0256030
985.449 .0255989
986.054 .0255945
986.659 .0255899
987.264 .0255855
987.868 .0255809
988.472 .0255772
989.076 .0255743
989.679 .0255721
990.282 .0255706
990.885 .0255687
991.487 .0255663
992.090 .0255634
992.691 .0255589
993.293 .0255532
993.894 .0255464
994.495 .0255392
995.095 .0255317
995.696 .0255243
996.296 .0255174
996.895 .0255110
997.494 .0255051
998.093 .0254997
998.692 .0254943
999.291 .0254884
999.889 .0254817
1000.487 .0254740
1001.084 .0254655
1001.681 .0254557
1002.278 .0254455
1002.875 .0254355
1003.471 .0254262
1004.067 .0254178
1004.663 .0254103
1005.258 .0254043
1005.854 .0253994
1006.449 .0253949
1007.043 .0253899
1007.638 .0253840
1008.232 .0253774
1008.826 .0253692
1009.419 .0253602
1010.012 .0253512
1010.605 .0253434
1011.198 .0253368
1011.791 .0253321
1012.383 .0253292
1012.975 .0253278
1013.566 .0253267
1014.158 .0253256
1014.749 .0253235
1015.340 .0253203
1015.931 .0253158
1016.521 .0253101
1017.111 .0253043
1017.701 .0252992
1018.291 .0252947
1018.880 .0252912
1019.470 .0252887
1020.059 .0252869
1020.647 .0252850
1021.236 .0252830
1021.824 .0252806
1022.412 .0252774
1023.000 .0252732
1023.588 .0252688
1024.175 .0252637
1024.762 .0252579
1025.349 .0252516
1025.936 .0252446
1026.523 .0252374
1027.109 .0252301
1027.695 .0252227
1028.281 .0252155
1028.867 .0252087
1029.452 .0252025
1030.038 .0251961
1030.623 .0251900
1031.208 .0251840
1031.792 .0251777
1032.377 .0251709
1032.961 .0251639
1033.546 .0251564
1034.130 .0251492
1034.714 .0251431
1035.297 .0251378
1035.881 .0251339
1036.464 .0251312
1037.047 .0251297
1037.630 .0251290
1038.213 .0251287
1038.796 .0251292
1039.378 .0251295
1039.961 .0251302
1040.543 .0251302
1041.125 .0251288
1041.707 .0251264
1042.289 .0251227
1042.871 .0251188
1043.452 .0251147
1044.034 .0251116
1044.615 .0251095
1045.196 .0251084
1045.777 .0251090
1046.358 .0251111
1046.939 .0251136
1047.520 .0251155
1048.101 .0251162
1048.681 .0251151
1049.262 .0251121
1049.842 .0251071
1050.422 .0251016
1051.002 .0250970
1051.582 .0250939
1052.162 .0250927
1052.742 .0250929
1053.322 .0250944
1053.902 .0250970
1054.482 .0251001
1055.061 .0251025
1055.641 .0251028
1056.220 .0251013
1056.800 .0250978
1057.379 .0250932
1057.958 .0250880
1058.538 .0250822
1059.117 .0250765
1059.696 .0250718
1060.275 .0250674
1060.854 .0250630
1061.433 .0250591
1062.012 .0250565
1062.592 .0250543
1063.171 .0250521
1063.750 .0250496
1064.329 .0250466
1064.908 .0250444
1065.487 .0250423
1066.066 .0250412
1066.645 .0250409
1067.224 .0250421
1067.803 .0250448
1068.382 .0250486
1068.961 .0250542
1069.540 .0250608
1070.119 .0250678
1070.698 .0250759
1071.278 .0250842
1071.857 .0250929
1072.436 .0251015
1073.016 .0251114
1073.595 .0251230
1074.175 .0251356
1074.754 .0251479
1075.334 .0251593
1075.913 .0251689
1076.493 .0251763
1077.073 .0251797
1077.653 .0251798
1078.233 .0251782
1078.813 .0251749
1079.393 .0251710
1079.974 .0251683
1080.554 .0251667
1081.135 .0251660
1081.716 .0251658
1082.296 .0251656
1082.877 .0251637
1083.458 .0251603
1084.040 .0251549
1084.621 .0251485
1085.202 .0251435
1085.784 .0251390
1086.366 .0251347
1086.948 .0251322
1087.530 .0251319
1088.112 .0251310
1088.695 .0251294
1089.277 .0251280
1089.860 .0251245
1090.443 .0251193
1091.026 .0251133
1091.610 .0251064
1092.193 .0250993
1092.777 .0250941
1093.361 .0250896
1093.946 .0250857
1094.530 .0250844
1095.115 .0250844
1095.700 .0250854
1096.285 .0250897
1096.871 .0250964
1097.456 .0251037
1098.042 .0251123
1098.628 .0251222
1099.215 .0251307
1099.802 .0251387
1100.389 .0251461
1100.976 .0251509
1101.564 .0251539
1102.152 .0251556
1102.740 .0251541
1103.329 .0251503
1103.917 .0251444
1104.507 .0251359
1105.096 .0251251
1105.686 .0251144
1106.276 .0251039
1106.867 .0250954
1107.457 .0250912
1108.049 .0250919
1108.640 .0250961
1109.232 .0251041
1109.825 .0251142
1110.417 .0251244
1111.010 .0251353
1111.604 .0251447
1112.198 .0251530
1112.792 .0251626
1113.387 .0251733
1113.982 .0251886
1114.577 .0252082
1115.173 .0252340
1115.769 .0252620
1116.366 .0252920
1116.963 .0253202
1117.561 .0253438
1118.159 .0253634
1118.758 .0253793
1119.357 .0253918
1119.957 .0254043
1120.557 .0254184
1121.157 .0254337
1121.758 .0254504
1122.360 .0254705
1122.962 .0254886
1123.564 .0255069
1124.167 .0255225
1124.771 .0255351
1125.375 .0255424
1125.980 .0255495
1126.585 .0255558
1127.191 .0255629
1127.797 .0255732
1128.404 .0255843
1129.012 .0255959
1129.620 .0256108
1130.229 .0256270
1130.838 .0256442
1131.448 .0256656
1132.058 .0256942
1132.669 .0257251
1133.281 .0257632
1133.894 .0258048
1134.507 .0258481
1135.120 .0258921
1135.735 .0259350
1136.350 .0259709
1136.965 .0260016
1137.582 .0260291
1138.199 .0260546
1138.816 .0260808
1139.435 .0261083
1140.054 .0261326
1140.674 .0261511
1141.294 .0261771
1141.916 .0261918
1142.538 .0262364
1143.160 .0261696
1143.784 .0260382
1144.408 .0264309
1145.033 .0261698
