Measurement Sequence started on: 14-45-04-498
Integration time: 36
Scans to Average: 2 
>>>>>Begin Spectral Data<<<<<
433.946 .0563585
434.870 .0545316
435.793 .0497149
436.715 .0483181
437.635 .0483750
438.555 .0483568
439.473 .0475690
440.389 .0469491
441.305 .0465167
442.219 .0461370
443.132 .0457851
444.044 .0454939
444.954 .0452468
445.863 .0450511
446.771 .0449085
447.678 .0447994
448.584 .0447049
449.488 .0446084
450.391 .0445185
451.293 .0444272
452.194 .0443380
453.094 .0442453
453.992 .0441539
454.890 .0440756
455.786 .0440134
456.681 .0439515
457.575 .0438935
458.468 .0438317
459.360 .0437552
460.250 .0436643
461.140 .0435541
462.028 .0434332
462.915 .0433089
463.801 .0431859
464.687 .0430709
465.571 .0429639
466.454 .0428697
467.335 .0427802
468.216 .0427013
469.096 .0426272
469.975 .0425459
470.853 .0424536
471.729 .0423546
472.605 .0422486
473.479 .0421405
474.353 .0420396
475.226 .0419442
476.097 .0418647
476.968 .0417957
477.838 .0417305
478.706 .0416722
479.574 .0416162
480.441 .0415586
481.306 .0414922
482.171 .0414245
483.035 .0413485
483.898 .0412716
484.760 .0412019
485.621 .0411408
486.481 .0410924
487.340 .0410565
488.198 .0410303
489.055 .0410083
489.912 .0409915
490.767 .0409712
491.622 .0409434
492.476 .0409089
493.329 .0408630
494.180 .0408083
495.032 .0407498
495.882 .0406925
496.731 .0406381
497.580 .0405911
498.427 .0405493
499.274 .0405090
500.120 .0404734
500.965 .0404362
501.809 .0403965
502.653 .0403481
503.495 .0402956
504.337 .0402361
505.178 .0401728
506.018 .0401063
506.858 .0400421
507.696 .0399835
508.534 .0399311
509.371 .0398832
510.208 .0398421
511.043 .0398024
511.878 .0397715
512.712 .0397381
513.545 .0397020
514.377 .0396667
515.209 .0396265
516.040 .0395802
516.870 .0395348
517.699 .0394835
518.528 .0394304
519.356 .0393819
520.183 .0393395
521.010 .0392965
521.836 .0392565
522.661 .0392155
523.485 .0391626
524.309 .0391037
525.132 .0390321
525.954 .0389353
526.776 .0388294
527.597 .0387196
528.417 .0385975
529.237 .0384824
530.056 .0383714
530.874 .0382696
531.692 .0381753
532.508 .0380823
533.325 .0379858
534.140 .0378865
534.955 .0377884
535.770 .0376875
536.583 .0375913
537.397 .0375121
538.209 .0374406
539.021 .0373915
539.832 .0373575
540.643 .0373301
541.453 .0373097
542.262 .0372915
543.071 .0372646
543.879 .0372344
544.687 .0372002
545.494 .0371651
546.300 .0371333
547.106 .0371063
547.911 .0370800
548.716 .0370623
549.520 .0370492
550.323 .0370354
551.126 .0370226
551.929 .0370198
552.731 .0370142
553.532 .0370097
554.332 .0370117
555.133 .0370189
555.932 .0370298
556.731 .0370458
557.530 .0370584
558.328 .0370771
559.125 .0370980
559.922 .0371178
560.719 .0371341
561.515 .0371527
562.310 .0371672
563.105 .0371783
563.899 .0371873
564.693 .0371910
565.487 .0371831
566.280 .0371707
567.072 .0371491
567.864 .0371162
568.655 .0370735
569.446 .0370255
570.236 .0369695
571.026 .0369086
571.816 .0368399
572.605 .0367659
573.393 .0366907
574.181 .0366192
574.969 .0365501
575.756 .0364877
576.543 .0364336
577.329 .0363878
578.115 .0363462
578.900 .0363107
579.685 .0362782
580.469 .0362479
581.253 .0362212
582.036 .0361963
582.820 .0361711
583.602 .0361481
584.384 .0361281
585.166 .0361114
585.947 .0360953
586.728 .0360795
587.509 .0360638
588.289 .0360487
589.069 .0360339
589.848 .0360210
590.627 .0360077
591.405 .0359966
592.183 .0359843
592.961 .0359702
593.738 .0359539
594.515 .0359358
595.291 .0359153
596.067 .0358931
596.843 .0358700
597.618 .0358460
598.393 .0358209
599.167 .0357976
599.941 .0357742
600.715 .0357505
601.488 .0357268
602.261 .0357032
603.034 .0356789
603.806 .0356537
604.578 .0356279
605.349 .0356020
606.121 .0355762
606.891 .0355519
607.662 .0355287
608.432 .0355078
609.201 .0354897
609.971 .0354742
610.740 .0354611
611.508 .0354504
612.277 .0354414
613.045 .0354321
613.812 .0354226
614.579 .0354126
615.346 .0354007
616.113 .0353881
616.879 .0353757
617.645 .0353629
618.411 .0353507
619.176 .0353394
619.941 .0353282
620.705 .0353166
621.470 .0353048
622.233 .0352914
622.997 .0352757
623.760 .0352580
624.523 .0352373
625.286 .0352145
626.048 .0351914
626.810 .0351672
627.572 .0351416
628.333 .0351160
629.095 .0350899
629.855 .0350631
630.616 .0350369
631.376 .0350110
632.136 .0349859
632.895 .0349612
633.655 .0349364
634.414 .0349112
635.172 .0348859
635.931 .0348607
636.689 .0348349
637.447 .0348093
638.204 .0347831
638.962 .0347571
639.718 .0347323
640.475 .0347087
641.231 .0346868
641.988 .0346656
642.743 .0346456
643.499 .0346254
644.254 .0346051
645.009 .0345839
645.764 .0345630
646.518 .0345436
647.272 .0345250
648.026 .0345076
648.780 .0344922
649.533 .0344790
650.286 .0344679
651.039 .0344578
651.792 .0344484
652.544 .0344382
653.296 .0344273
654.048 .0344145
654.799 .0343999
655.550 .0343841
656.301 .0343666
657.052 .0343481
657.802 .0343292
658.552 .0343100
659.302 .0342903
660.052 .0342709
660.801 .0342512
661.550 .0342313
662.299 .0342104
663.048 .0341883
663.796 .0341659
664.544 .0341437
665.292 .0341213
666.040 .0340994
666.787 .0340792
667.534 .0340611
668.281 .0340444
669.028 .0340300
669.774 .0340165
670.521 .0340038
671.266 .0339910
672.012 .0339780
672.758 .0339644
673.503 .0339514
674.248 .0339381
674.992 .0339258
675.737 .0339149
676.481 .0339053
677.225 .0338956
677.969 .0338871
678.712 .0338785
679.455 .0338692
680.199 .0338584
680.941 .0338467
681.684 .0338343
682.426 .0338222
683.168 .0338102
683.910 .0337991
684.652 .0337892
685.393 .0337807
686.134 .0337716
686.875 .0337627
687.616 .0337532
688.356 .0337428
689.097 .0337311
689.837 .0337183
690.576 .0337039
691.316 .0336886
692.055 .0336723
692.794 .0336555
693.533 .0336384
694.272 .0336211
695.010 .0336032
695.748 .0335853
696.486 .0335670
697.224 .0335483
697.962 .0335289
698.699 .0335099
699.436 .0334905
700.173 .0334715
700.909 .0334527
701.646 .0334347
702.382 .0334184
703.118 .0334034
703.853 .0333898
704.589 .0333774
705.324 .0333652
706.059 .0333535
706.794 .0333405
707.529 .0333268
708.263 .0333117
708.997 .0332953
709.731 .0332775
710.465 .0332588
711.198 .0332393
711.931 .0332196
712.664 .0331994
713.397 .0331794
714.130 .0331588
714.862 .0331380
715.594 .0331168
716.326 .0330955
717.058 .0330749
717.789 .0330555
718.520 .0330361
719.251 .0330177
719.982 .0329994
720.713 .0329815
721.443 .0329637
722.173 .0329460
722.903 .0329283
723.633 .0329106
724.362 .0328927
725.091 .0328750
725.820 .0328575
726.549 .0328411
727.278 .0328253
728.006 .0328105
728.734 .0327962
729.462 .0327823
730.190 .0327691
730.917 .0327572
731.644 .0327468
732.371 .0327381
733.098 .0327301
733.825 .0327230
734.551 .0327164
735.277 .0327096
736.003 .0327021
736.728 .0326935
737.454 .0326833
738.179 .0326716
738.904 .0326586
739.629 .0326440
740.353 .0326289
741.077 .0326144
741.801 .0325993
742.525 .0325842
743.249 .0325694
743.972 .0325542
744.695 .0325387
745.418 .0325238
746.141 .0325096
746.863 .0324954
747.585 .0324828
748.307 .0324711
749.029 .0324601
749.750 .0324501
750.472 .0324400
751.193 .0324291
751.913 .0324181
752.634 .0324057
753.354 .0323907
754.074 .0323741
754.794 .0323561
755.514 .0323353
756.233 .0323128
756.952 .0322893
757.671 .0322651
758.390 .0322402
759.108 .0322155
759.826 .0321906
760.544 .0321663
761.262 .0321430
761.979 .0321204
762.697 .0320988
763.414 .0320785
764.130 .0320588
764.847 .0320404
765.563 .0320234
766.279 .0320078
766.995 .0319930
767.710 .0319795
768.426 .0319669
769.141 .0319549
769.855 .0319428
770.570 .0319313
771.284 .0319198
771.998 .0319077
772.712 .0318947
773.426 .0318811
774.139 .0318667
774.852 .0318517
775.565 .0318358
776.277 .0318198
776.990 .0318033
777.702 .0317868
778.414 .0317701
779.125 .0317539
779.836 .0317385
780.547 .0317235
781.258 .0317091
781.969 .0316958
782.679 .0316826
783.389 .0316703
784.099 .0316584
784.808 .0316469
785.517 .0316362
786.226 .0316259
786.935 .0316162
787.643 .0316071
788.352 .0315987
789.060 .0315907
789.767 .0315824
790.475 .0315741
791.182 .0315651
791.889 .0315555
792.595 .0315455
793.301 .0315347
794.008 .0315236
794.713 .0315122
795.419 .0315002
796.124 .0314882
796.829 .0314764
797.534 .0314644
798.238 .0314521
798.942 .0314399
799.646 .0314278
800.350 .0314153
801.053 .0314027
801.756 .0313895
802.459 .0313756
803.162 .0313603
803.864 .0313434
804.566 .0313251
805.267 .0313057
805.969 .0312848
806.670 .0312629
807.371 .0312409
808.071 .0312192
808.772 .0311979
809.472 .0311766
810.171 .0311559
810.871 .0311360
811.570 .0311159
812.269 .0310958
812.967 .0310752
813.666 .0310554
814.364 .0310359
815.061 .0310172
815.759 .0309994
816.456 .0309823
817.153 .0309655
817.849 .0309479
818.545 .0309295
819.241 .0309096
819.937 .0308884
820.632 .0308657
821.327 .0308415
822.022 .0308163
822.717 .0307901
823.411 .0307636
824.105 .0307368
824.798 .0307102
825.491 .0306835
826.184 .0306572
826.877 .0306320
827.569 .0306078
828.261 .0305854
828.953 .0305651
829.645 .0305468
830.336 .0305308
831.027 .0305164
831.717 .0305030
832.407 .0304904
833.097 .0304786
833.787 .0304670
834.476 .0304557
835.165 .0304454
835.854 .0304363
836.542 .0304287
837.230 .0304227
837.918 .0304179
838.605 .0304140
839.292 .0304105
839.979 .0304064
840.665 .0304017
841.352 .0303960
842.037 .0303894
842.723 .0303827
843.408 .0303766
844.093 .0303711
844.777 .0303664
845.462 .0303621
846.145 .0303576
846.829 .0303520
847.512 .0303447
848.195 .0303350
848.878 .0303234
849.560 .0303106
850.242 .0302961
850.923 .0302806
851.605 .0302648
852.286 .0302490
852.966 .0302330
853.646 .0302162
854.326 .0301982
855.006 .0301788
855.685 .0301582
856.364 .0301366
857.043 .0301144
857.721 .0300919
858.399 .0300703
859.077 .0300494
859.754 .0300294
860.431 .0300099
861.107 .0299905
861.784 .0299714
862.459 .0299523
863.135 .0299333
863.810 .0299141
864.485 .0298958
865.160 .0298791
865.834 .0298639
866.508 .0298504
867.181 .0298390
867.854 .0298293
868.527 .0298206
869.199 .0298126
869.872 .0298038
870.543 .0297942
871.215 .0297832
871.886 .0297702
872.557 .0297554
873.227 .0297389
873.897 .0297209
874.567 .0297009
875.236 .0296795
875.905 .0296571
876.573 .0296329
877.242 .0296078
877.909 .0295814
878.577 .0295546
879.244 .0295274
879.911 .0295006
880.577 .0294745
881.243 .0294499
881.909 .0294271
882.575 .0294059
883.240 .0293864
883.904 .0293689
884.569 .0293528
885.232 .0293378
885.896 .0293238
886.559 .0293104
887.222 .0292971
887.885 .0292836
888.547 .0292696
889.208 .0292555
889.870 .0292405
890.531 .0292252
891.192 .0292097
891.852 .0291943
892.512 .0291789
893.171 .0291637
893.830 .0291490
894.489 .0291350
895.148 .0291216
895.806 .0291090
896.464 .0290972
897.121 .0290866
897.778 .0290766
898.434 .0290676
899.091 .0290597
899.747 .0290529
900.402 .0290468
901.057 .0290410
901.712 .0290363
902.366 .0290323
903.020 .0290292
903.674 .0290269
904.327 .0290253
904.980 .0290243
905.633 .0290229
906.285 .0290209
906.936 .0290180
907.588 .0290136
908.239 .0290086
908.889 .0290020
909.540 .0289953
910.190 .0289885
910.839 .0289819
911.488 .0289764
912.137 .0289718
912.785 .0289667
913.433 .0289604
914.081 .0289524
914.728 .0289422
915.375 .0289294
916.021 .0289150
916.668 .0288990
917.313 .0288823
917.959 .0288656
918.604 .0288494
919.248 .0288333
919.892 .0288187
920.536 .0288042
921.180 .0287898
921.823 .0287755
922.465 .0287605
923.108 .0287448
923.750 .0287291
924.391 .0287134
925.032 .0286980
925.673 .0286839
926.313 .0286713
926.953 .0286599
927.593 .0286501
928.232 .0286408
928.871 .0286321
929.510 .0286236
930.148 .0286143
930.786 .0286039
931.423 .0285925
932.060 .0285806
932.697 .0285672
933.333 .0285532
933.969 .0285386
934.604 .0285230
935.239 .0285064
935.874 .0284885
936.508 .0284690
937.142 .0284485
937.776 .0284270
938.409 .0284046
939.042 .0283816
939.674 .0283585
940.306 .0283351
940.938 .0283123
941.569 .0282902
942.200 .0282682
942.830 .0282457
943.460 .0282230
944.090 .0281989
944.720 .0281738
945.349 .0281481
945.977 .0281219
946.606 .0280962
947.233 .0280710
947.861 .0280459
948.488 .0280216
949.115 .0279982
949.741 .0279748
950.367 .0279513
950.993 .0279277
951.618 .0279038
952.243 .0278792
952.868 .0278549
953.492 .0278311
954.115 .0278080
954.739 .0277859
955.362 .0277649
955.984 .0277444
956.607 .0277254
957.229 .0277070
957.850 .0276893
958.471 .0276724
959.092 .0276559
959.713 .0276398
960.333 .0276242
960.952 .0276094
961.572 .0275955
962.191 .0275821
962.809 .0275698
963.428 .0275589
964.045 .0275483
964.663 .0275386
965.280 .0275298
965.897 .0275216
966.513 .0275138
967.129 .0275057
967.745 .0274974
968.361 .0274887
968.976 .0274796
969.590 .0274700
970.205 .0274599
970.818 .0274503
971.432 .0274405
972.045 .0274301
972.658 .0274204
973.271 .0274108
973.883 .0274015
974.495 .0273925
975.106 .0273841
975.717 .0273761
976.328 .0273682
976.938 .0273610
977.548 .0273551
978.158 .0273506
978.768 .0273470
979.377 .0273444
979.985 .0273422
980.594 .0273395
981.202 .0273368
981.809 .0273331
982.417 .0273296
983.024 .0273259
983.631 .0273216
984.237 .0273169
984.843 .0273126
985.449 .0273079
986.054 .0273021
986.659 .0272960
987.264 .0272893
987.868 .0272810
988.472 .0272722
989.076 .0272634
989.679 .0272550
990.282 .0272478
990.885 .0272416
991.487 .0272352
992.090 .0272297
992.691 .0272241
993.293 .0272180
993.894 .0272117
994.495 .0272058
995.095 .0271998
995.696 .0271935
996.296 .0271879
996.895 .0271821
997.494 .0271765
998.093 .0271717
998.692 .0271667
999.291 .0271618
999.889 .0271566
1000.487 .0271516
1001.084 .0271473
1001.681 .0271442
1002.278 .0271421
1002.875 .0271414
1003.471 .0271416
1004.067 .0271428
1004.663 .0271446
1005.258 .0271465
1005.854 .0271488
1006.449 .0271514
1007.043 .0271537
1007.638 .0271551
1008.232 .0271559
1008.826 .0271561
1009.419 .0271548
1010.012 .0271533
1010.605 .0271507
1011.198 .0271467
1011.791 .0271430
1012.383 .0271396
1012.975 .0271355
1013.566 .0271318
1014.158 .0271281
1014.749 .0271237
1015.340 .0271194
1015.931 .0271149
1016.521 .0271102
1017.111 .0271063
1017.701 .0271039
1018.291 .0271025
1018.880 .0271020
1019.470 .0271033
1020.059 .0271052
1020.647 .0271071
1021.236 .0271094
1021.824 .0271104
1022.412 .0271096
1023.000 .0271078
1023.588 .0271043
1024.175 .0270992
1024.762 .0270927
1025.349 .0270847
1025.936 .0270760
1026.523 .0270669
1027.109 .0270580
1027.695 .0270488
1028.281 .0270401
1028.867 .0270327
1029.452 .0270250
1030.038 .0270175
1030.623 .0270101
1031.208 .0270030
1031.792 .0269965
1032.377 .0269903
1032.961 .0269845
1033.546 .0269804
1034.130 .0269769
1034.714 .0269742
1035.297 .0269718
1035.881 .0269693
1036.464 .0269669
1037.047 .0269638
1037.630 .0269597
1038.213 .0269550
1038.796 .0269494
1039.378 .0269435
1039.961 .0269359
1040.543 .0269281
1041.125 .0269190
1041.707 .0269085
1042.289 .0268974
1042.871 .0268866
1043.452 .0268757
1044.034 .0268669
1044.615 .0268594
1045.196 .0268546
1045.777 .0268514
1046.358 .0268496
1046.939 .0268475
1047.520 .0268451
1048.101 .0268423
1048.681 .0268384
1049.262 .0268331
1049.842 .0268285
1050.422 .0268233
1051.002 .0268189
1051.582 .0268152
1052.162 .0268128
1052.742 .0268105
1053.322 .0268088
1053.902 .0268056
1054.482 .0268007
1055.061 .0267938
1055.641 .0267857
1056.220 .0267753
1056.800 .0267634
1057.379 .0267512
1057.958 .0267379
1058.538 .0267244
1059.117 .0267112
1059.696 .0266981
1060.275 .0266855
1060.854 .0266728
1061.433 .0266597
1062.012 .0266466
1062.592 .0266350
1063.171 .0266243
1063.750 .0266152
1064.329 .0266086
1064.908 .0266037
1065.487 .0266005
1066.066 .0265991
1066.645 .0265996
1067.224 .0266011
1067.803 .0266039
1068.382 .0266072
1068.961 .0266121
1069.540 .0266163
1070.119 .0266187
1070.698 .0266205
1071.278 .0266213
1071.857 .0266190
1072.436 .0266147
1073.016 .0266108
1073.595 .0266077
1074.175 .0266064
1074.754 .0266076
1075.334 .0266093
1075.913 .0266137
1076.493 .0266189
1077.073 .0266222
1077.653 .0266216
1078.233 .0266188
1078.813 .0266106
1079.393 .0266005
1079.974 .0265917
1080.554 .0265844
1081.135 .0265800
1081.716 .0265818
1082.296 .0265854
1082.877 .0265883
1083.458 .0265892
1084.040 .0265872
1084.621 .0265802
1085.202 .0265702
1085.784 .0265568
1086.366 .0265443
1086.948 .0265366
1087.530 .0265357
1088.112 .0265404
1088.695 .0265508
1089.277 .0265641
1089.860 .0265769
1090.443 .0265866
1091.026 .0265922
1091.610 .0265944
1092.193 .0265960
1092.777 .0265991
1093.361 .0266058
1093.946 .0266170
1094.530 .0266331
1095.115 .0266550
1095.700 .0266789
1096.285 .0267016
1096.871 .0267194
1097.456 .0267315
1098.042 .0267363
1098.628 .0267367
1099.215 .0267338
1099.802 .0267304
1100.389 .0267276
1100.976 .0267284
1101.564 .0267298
1102.152 .0267305
1102.740 .0267280
1103.329 .0267214
1103.917 .0267085
1104.507 .0266898
1105.096 .0266643
1105.686 .0266376
1106.276 .0266129
1106.867 .0265952
1107.457 .0265836
1108.049 .0265820
1108.640 .0265882
1109.232 .0266008
1109.825 .0266201
1110.417 .0266425
1111.010 .0266677
1111.604 .0266961
1112.198 .0267279
1112.792 .0267619
1113.387 .0267966
1113.982 .0268347
1114.577 .0268724
1115.173 .0269103
1115.769 .0269438
1116.366 .0269699
1116.963 .0269908
1117.561 .0270072
1118.159 .0270189
1118.758 .0270289
1119.357 .0270410
1119.957 .0270539
1120.557 .0270700
1121.157 .0270876
1121.758 .0271051
1122.360 .0271240
1122.962 .0271440
1123.564 .0271650
1124.167 .0271861
1124.771 .0272109
1125.375 .0272397
1125.980 .0272743
1126.585 .0273145
1127.191 .0273603
1127.797 .0274097
1128.404 .0274639
1129.012 .0275170
1129.620 .0275677
1130.229 .0276153
1130.838 .0276576
1131.448 .0276917
1132.058 .0277203
1132.669 .0277428
1133.281 .0277651
1133.894 .0277859
1134.507 .0278105
1135.120 .0278370
1135.735 .0278676
1136.350 .0279005
1136.965 .0279365
1137.582 .0279703
1138.199 .0280018
1138.816 .0280331
1139.435 .0280671
1140.054 .0280978
1140.674 .0281219
1141.294 .0281506
1141.916 .0281907
1142.538 .0283056
1143.160 .0282316
1143.784 .0280651
1144.408 .0283393
1145.033 .0287180
