Measurement Sequence started on: 14-45-04-498
Integration time: 36
Scans to Average: 2 
>>>>>Begin Spectral Data<<<<<
433.946 .0574446
434.870 .0530427
435.793 .0505179
436.715 .0491448
437.635 .0483602
438.555 .0499120
439.473 .0495248
440.389 .0493671
441.305 .0493063
442.219 .0492778
443.132 .0492459
444.044 .0491733
444.954 .0491199
445.863 .0490851
446.771 .0490473
447.678 .0490116
448.584 .0489753
449.488 .0489263
450.391 .0488677
451.293 .0487922
452.194 .0486982
453.094 .0486026
453.992 .0485043
454.890 .0484041
455.786 .0483084
456.681 .0482196
457.575 .0481289
458.468 .0480367
459.360 .0479429
460.250 .0478526
461.140 .0477623
462.028 .0476717
462.915 .0475823
463.801 .0474915
464.687 .0474045
465.571 .0473177
466.454 .0472370
467.335 .0471605
468.216 .0470815
469.096 .0470024
469.975 .0469191
470.853 .0468317
471.729 .0467406
472.605 .0466442
473.479 .0465468
474.353 .0464492
475.226 .0463526
476.097 .0462599
476.968 .0461731
477.838 .0460898
478.706 .0460107
479.574 .0459321
480.441 .0458564
481.306 .0457801
482.171 .0457038
483.035 .0456290
483.898 .0455579
484.760 .0454909
485.621 .0454304
486.481 .0453752
487.340 .0453277
488.198 .0452856
489.055 .0452457
489.912 .0452028
490.767 .0451566
491.622 .0451054
492.476 .0450500
493.329 .0449923
494.180 .0449345
495.032 .0448786
495.882 .0448304
496.731 .0447876
497.580 .0447513
498.427 .0447191
499.274 .0446903
500.120 .0446596
500.965 .0446286
501.809 .0445968
502.653 .0445603
503.495 .0445255
504.337 .0444910
505.178 .0444541
506.018 .0444189
506.858 .0443792
507.696 .0443382
508.534 .0442927
509.371 .0442439
510.208 .0441882
511.043 .0441320
511.878 .0440773
512.712 .0440212
513.545 .0439701
514.377 .0439261
515.209 .0438856
516.040 .0438501
516.870 .0438182
517.699 .0437911
518.528 .0437657
519.356 .0437455
520.183 .0437246
521.010 .0437125
521.836 .0437007
522.661 .0436889
523.485 .0436735
524.309 .0436534
525.132 .0436190
525.954 .0435708
526.776 .0435064
527.597 .0434278
528.417 .0433353
529.237 .0432354
530.056 .0431258
530.874 .0430190
531.692 .0429154
532.508 .0428216
533.325 .0427364
534.140 .0426587
534.955 .0425781
535.770 .0425026
536.583 .0424257
537.397 .0423496
538.209 .0422774
539.021 .0422192
539.832 .0421741
540.643 .0421417
541.453 .0421207
542.262 .0421084
543.071 .0420993
543.879 .0420821
544.687 .0420472
545.494 .0419960
546.300 .0419319
547.106 .0418580
547.911 .0417833
548.716 .0417206
549.520 .0416695
550.323 .0416334
551.126 .0416083
551.929 .0415930
552.731 .0415806
553.532 .0415636
554.332 .0415442
555.133 .0415192
555.932 .0414944
556.731 .0414712
557.530 .0414596
558.328 .0414643
559.125 .0414833
559.922 .0415172
560.719 .0415559
561.515 .0415972
562.310 .0416343
563.105 .0416621
563.899 .0416789
564.693 .0416859
565.487 .0416828
566.280 .0416695
567.072 .0416523
567.864 .0416291
568.655 .0415979
569.446 .0415625
570.236 .0415185
571.026 .0414653
571.816 .0414037
572.605 .0413371
573.393 .0412656
574.181 .0411968
574.969 .0411296
575.756 .0410641
576.543 .0410021
577.329 .0409449
578.115 .0408901
578.900 .0408394
579.685 .0407933
580.469 .0407514
581.253 .0407135
582.036 .0406812
582.820 .0406495
583.602 .0406211
584.384 .0405937
585.166 .0405657
585.947 .0405350
586.728 .0405022
587.509 .0404669
588.289 .0404313
589.069 .0403967
589.848 .0403630
590.627 .0403301
591.405 .0402991
592.183 .0402683
592.961 .0402368
593.738 .0402046
594.515 .0401716
595.291 .0401380
596.067 .0401050
596.843 .0400716
597.618 .0400395
598.393 .0400096
599.167 .0399813
599.941 .0399537
600.715 .0399262
601.488 .0398985
602.261 .0398709
603.034 .0398433
603.806 .0398160
604.578 .0397891
605.349 .0397633
606.121 .0397388
606.891 .0397151
607.662 .0396922
608.432 .0396688
609.201 .0396449
609.971 .0396205
610.740 .0395949
611.508 .0395692
612.277 .0395435
613.045 .0395182
613.812 .0394941
614.579 .0394703
615.346 .0394460
616.113 .0394214
616.879 .0393964
617.645 .0393705
618.411 .0393444
619.176 .0393187
619.941 .0392942
620.705 .0392717
621.470 .0392515
622.233 .0392329
622.997 .0392157
623.760 .0391992
624.523 .0391815
625.286 .0391622
626.048 .0391414
626.810 .0391179
627.572 .0390924
628.333 .0390661
629.095 .0390393
629.855 .0390124
630.616 .0389865
631.376 .0389610
632.136 .0389357
632.895 .0389096
633.655 .0388823
634.414 .0388539
635.172 .0388241
635.931 .0387931
636.689 .0387613
637.447 .0387297
638.204 .0386997
638.962 .0386709
639.718 .0386445
640.475 .0386199
641.231 .0385970
641.988 .0385743
642.743 .0385511
643.499 .0385271
644.254 .0385020
645.009 .0384756
645.764 .0384490
646.518 .0384222
647.272 .0383959
648.026 .0383706
648.780 .0383460
649.533 .0383218
650.286 .0382975
651.039 .0382718
651.792 .0382452
652.544 .0382177
653.296 .0381901
654.048 .0381628
654.799 .0381370
655.550 .0381134
656.301 .0380915
657.052 .0380711
657.802 .0380517
658.552 .0380324
659.302 .0380133
660.052 .0379936
660.801 .0379729
661.550 .0379526
662.299 .0379329
663.048 .0379135
663.796 .0378949
664.544 .0378769
665.292 .0378593
666.040 .0378418
666.787 .0378248
667.534 .0378077
668.281 .0377908
669.028 .0377745
669.774 .0377582
670.521 .0377423
671.266 .0377270
672.012 .0377120
672.758 .0376971
673.503 .0376825
674.248 .0376679
674.992 .0376531
675.737 .0376390
676.481 .0376259
677.225 .0376134
677.969 .0376014
678.712 .0375898
679.455 .0375782
680.199 .0375660
680.941 .0375527
681.684 .0375385
682.426 .0375227
683.168 .0375052
683.910 .0374860
684.652 .0374649
685.393 .0374427
686.134 .0374200
686.875 .0373965
687.616 .0373729
688.356 .0373495
689.097 .0373268
689.837 .0373041
690.576 .0372822
691.316 .0372603
692.055 .0372382
692.794 .0372162
693.533 .0371943
694.272 .0371719
695.010 .0371504
695.748 .0371299
696.486 .0371102
697.224 .0370920
697.962 .0370751
698.699 .0370593
699.436 .0370443
700.173 .0370293
700.909 .0370131
701.646 .0369954
702.382 .0369766
703.118 .0369554
703.853 .0369330
704.589 .0369098
705.324 .0368861
706.059 .0368627
706.794 .0368402
707.529 .0368183
708.263 .0367970
708.997 .0367766
709.731 .0367560
710.465 .0367356
711.198 .0367151
711.931 .0366945
712.664 .0366741
713.397 .0366549
714.130 .0366363
714.862 .0366186
715.594 .0366026
716.326 .0365876
717.058 .0365736
717.789 .0365606
718.520 .0365475
719.251 .0365346
719.982 .0365218
720.713 .0365085
721.443 .0364948
722.173 .0364806
722.903 .0364657
723.633 .0364499
724.362 .0364334
725.091 .0364160
725.820 .0363976
726.549 .0363789
727.278 .0363598
728.006 .0363398
728.734 .0363195
729.462 .0362987
730.190 .0362775
730.917 .0362564
731.644 .0362350
732.371 .0362138
733.098 .0361933
733.825 .0361735
734.551 .0361543
735.277 .0361358
736.003 .0361181
736.728 .0361008
737.454 .0360841
738.179 .0360680
738.904 .0360519
739.629 .0360364
740.353 .0360217
741.077 .0360075
741.801 .0359930
742.525 .0359785
743.249 .0359635
743.972 .0359483
744.695 .0359324
745.418 .0359157
746.141 .0358980
746.863 .0358806
747.585 .0358627
748.307 .0358447
749.029 .0358264
749.750 .0358083
750.472 .0357896
751.193 .0357702
751.913 .0357500
752.634 .0357290
753.354 .0357069
754.074 .0356847
754.794 .0356619
755.514 .0356392
756.233 .0356162
756.952 .0355938
757.671 .0355717
758.390 .0355502
759.108 .0355291
759.826 .0355084
760.544 .0354882
761.262 .0354690
761.979 .0354500
762.697 .0354317
763.414 .0354142
764.130 .0353980
764.847 .0353825
765.563 .0353686
766.279 .0353559
766.995 .0353444
767.710 .0353334
768.426 .0353225
769.141 .0353112
769.855 .0352990
770.570 .0352857
771.284 .0352710
771.998 .0352552
772.712 .0352390
773.426 .0352227
774.139 .0352071
774.852 .0351923
775.565 .0351785
776.277 .0351651
776.990 .0351516
777.702 .0351380
778.414 .0351235
779.125 .0351086
779.836 .0350930
780.547 .0350768
781.258 .0350607
781.969 .0350454
782.679 .0350311
783.389 .0350178
784.099 .0350056
784.808 .0349937
785.517 .0349821
786.226 .0349702
786.935 .0349579
787.643 .0349452
788.352 .0349328
789.060 .0349209
789.767 .0349095
790.475 .0348989
791.182 .0348888
791.889 .0348791
792.595 .0348700
793.301 .0348597
794.008 .0348489
794.713 .0348368
795.419 .0348239
796.124 .0348099
796.829 .0347955
797.534 .0347802
798.238 .0347648
798.942 .0347488
799.646 .0347323
800.350 .0347148
801.053 .0346965
801.756 .0346769
802.459 .0346565
803.162 .0346354
803.864 .0346142
804.566 .0345929
805.267 .0345725
805.969 .0345525
806.670 .0345328
807.371 .0345135
808.071 .0344945
808.772 .0344749
809.472 .0344552
810.171 .0344352
810.871 .0344153
811.570 .0343961
812.269 .0343778
812.967 .0343603
813.666 .0343437
814.364 .0343279
815.061 .0343123
815.759 .0342970
816.456 .0342818
817.153 .0342659
817.849 .0342491
818.545 .0342318
819.241 .0342135
819.937 .0341944
820.632 .0341750
821.327 .0341546
822.022 .0341335
822.717 .0341115
823.411 .0340888
824.105 .0340654
824.798 .0340420
825.491 .0340185
826.184 .0339949
826.877 .0339717
827.569 .0339487
828.261 .0339260
828.953 .0339037
829.645 .0338818
830.336 .0338606
831.027 .0338399
831.717 .0338199
832.407 .0338009
833.097 .0337834
833.787 .0337667
834.476 .0337508
835.165 .0337358
835.854 .0337207
836.542 .0337058
837.230 .0336908
837.918 .0336752
838.605 .0336593
839.292 .0336437
839.979 .0336281
840.665 .0336131
841.352 .0335989
842.037 .0335856
842.723 .0335730
843.408 .0335615
844.093 .0335507
844.777 .0335402
845.462 .0335306
846.145 .0335208
846.829 .0335105
847.512 .0335001
848.195 .0334888
848.878 .0334770
849.560 .0334644
850.242 .0334516
850.923 .0334378
851.605 .0334235
852.286 .0334091
852.966 .0333946
853.646 .0333803
854.326 .0333664
855.006 .0333523
855.685 .0333383
856.364 .0333240
857.043 .0333090
857.721 .0332936
858.399 .0332779
859.077 .0332617
859.754 .0332454
860.431 .0332287
861.107 .0332122
861.784 .0331955
862.459 .0331795
863.135 .0331632
863.810 .0331468
864.485 .0331304
865.160 .0331140
865.834 .0330975
866.508 .0330814
867.181 .0330655
867.854 .0330502
868.527 .0330353
869.199 .0330209
869.872 .0330062
870.543 .0329916
871.215 .0329763
871.886 .0329605
872.557 .0329441
873.227 .0329271
873.897 .0329094
874.567 .0328921
875.236 .0328751
875.905 .0328584
876.573 .0328419
877.242 .0328255
877.909 .0328088
878.577 .0327916
879.244 .0327731
879.911 .0327537
880.577 .0327340
881.243 .0327146
881.909 .0326955
882.575 .0326772
883.240 .0326602
883.904 .0326440
884.569 .0326286
885.232 .0326130
885.896 .0325965
886.559 .0325796
887.222 .0325613
887.885 .0325422
888.547 .0325226
889.208 .0325031
889.870 .0324840
890.531 .0324660
891.192 .0324488
891.852 .0324321
892.512 .0324161
893.171 .0324007
893.830 .0323858
894.489 .0323715
895.148 .0323578
895.806 .0323446
896.464 .0323324
897.121 .0323212
897.778 .0323103
898.434 .0323000
899.091 .0322898
899.747 .0322789
900.402 .0322671
901.057 .0322540
901.712 .0322397
902.366 .0322242
903.020 .0322079
903.674 .0321904
904.327 .0321720
904.980 .0321528
905.633 .0321329
906.285 .0321125
906.936 .0320921
907.588 .0320712
908.239 .0320500
908.889 .0320289
909.540 .0320075
910.190 .0319865
910.839 .0319664
911.488 .0319472
912.137 .0319295
912.785 .0319125
913.433 .0318965
914.081 .0318810
914.728 .0318661
915.375 .0318511
916.021 .0318353
916.668 .0318190
917.313 .0318023
917.959 .0317850
918.604 .0317674
919.248 .0317502
919.892 .0317331
920.536 .0317163
921.180 .0316996
921.823 .0316828
922.465 .0316661
923.108 .0316492
923.750 .0316321
924.391 .0316141
925.032 .0315958
925.673 .0315773
926.313 .0315582
926.953 .0315397
927.593 .0315207
928.232 .0315010
928.871 .0314814
929.510 .0314615
930.148 .0314412
930.786 .0314210
931.423 .0314014
932.060 .0313822
932.697 .0313637
933.333 .0313455
933.969 .0313274
934.604 .0313097
935.239 .0312918
935.874 .0312734
936.508 .0312546
937.142 .0312361
937.776 .0312180
938.409 .0312011
939.042 .0311855
939.674 .0311709
940.306 .0311574
940.938 .0311439
941.569 .0311301
942.200 .0311153
942.830 .0310991
943.460 .0310814
944.090 .0310627
944.720 .0310433
945.349 .0310237
945.977 .0310052
946.606 .0309880
947.233 .0309717
947.861 .0309563
948.488 .0309407
949.115 .0309249
949.741 .0309082
950.367 .0308907
950.993 .0308723
951.618 .0308543
952.243 .0308369
952.868 .0308207
953.492 .0308059
954.115 .0307926
954.739 .0307806
955.362 .0307692
955.984 .0307580
956.607 .0307465
957.229 .0307347
957.850 .0307228
958.471 .0307103
959.092 .0306974
959.713 .0306839
960.333 .0306700
960.952 .0306558
961.572 .0306410
962.191 .0306263
962.809 .0306114
963.428 .0305964
964.045 .0305805
964.663 .0305641
965.280 .0305474
965.897 .0305309
966.513 .0305142
967.129 .0304983
967.745 .0304837
968.361 .0304703
968.976 .0304580
969.590 .0304473
970.205 .0304376
970.818 .0304287
971.432 .0304201
972.045 .0304118
972.658 .0304033
973.271 .0303947
973.883 .0303860
974.495 .0303779
975.106 .0303697
975.717 .0303613
976.328 .0303521
976.938 .0303426
977.548 .0303320
978.158 .0303201
978.768 .0303066
979.377 .0302920
979.985 .0302761
980.594 .0302590
981.202 .0302410
981.809 .0302230
982.417 .0302054
983.024 .0301886
983.631 .0301725
984.237 .0301574
984.843 .0301425
985.449 .0301281
986.054 .0301134
986.659 .0300985
987.264 .0300832
987.868 .0300682
988.472 .0300539
989.076 .0300406
989.679 .0300286
990.282 .0300181
990.885 .0300090
991.487 .0300010
992.090 .0299933
992.691 .0299852
993.293 .0299764
993.894 .0299666
994.495 .0299562
995.095 .0299454
995.696 .0299348
996.296 .0299244
996.895 .0299147
997.494 .0299059
998.093 .0298971
998.692 .0298883
999.291 .0298797
999.889 .0298706
1000.487 .0298613
1001.084 .0298518
1001.681 .0298416
1002.278 .0298311
1002.875 .0298203
1003.471 .0298090
1004.067 .0297976
1004.663 .0297859
1005.258 .0297740
1005.854 .0297616
1006.449 .0297494
1007.043 .0297370
1007.638 .0297237
1008.232 .0297105
1008.826 .0296968
1009.419 .0296829
1010.012 .0296692
1010.605 .0296561
1011.198 .0296446
1011.791 .0296347
1012.383 .0296267
1012.975 .0296203
1013.566 .0296153
1014.158 .0296108
1014.749 .0296066
1015.340 .0296022
1015.931 .0295975
1016.521 .0295923
1017.111 .0295867
1017.701 .0295817
1018.291 .0295778
1018.880 .0295745
1019.470 .0295715
1020.059 .0295695
1020.647 .0295679
1021.236 .0295659
1021.824 .0295641
1022.412 .0295626
1023.000 .0295617
1023.588 .0295616
1024.175 .0295617
1024.762 .0295628
1025.349 .0295651
1025.936 .0295685
1026.523 .0295720
1027.109 .0295760
1027.695 .0295797
1028.281 .0295832
1028.867 .0295867
1029.452 .0295899
1030.038 .0295928
1030.623 .0295956
1031.208 .0295977
1031.792 .0295995
1032.377 .0296003
1032.961 .0296005
1033.546 .0295999
1034.130 .0295996
1034.714 .0295981
1035.297 .0295955
1035.881 .0295924
1036.464 .0295894
1037.047 .0295865
1037.630 .0295839
1038.213 .0295811
1038.796 .0295784
1039.378 .0295751
1039.961 .0295709
1040.543 .0295652
1041.125 .0295583
1041.707 .0295507
1042.289 .0295416
1042.871 .0295317
1043.452 .0295216
1044.034 .0295117
1044.615 .0295029
1045.196 .0294952
1045.777 .0294879
1046.358 .0294811
1046.939 .0294752
1047.520 .0294698
1048.101 .0294651
1048.681 .0294615
1049.262 .0294596
1049.842 .0294588
1050.422 .0294599
1051.002 .0294624
1051.582 .0294648
1052.162 .0294687
1052.742 .0294722
1053.322 .0294754
1053.902 .0294787
1054.482 .0294818
1055.061 .0294855
1055.641 .0294902
1056.220 .0294957
1056.800 .0295007
1057.379 .0295060
1057.958 .0295119
1058.538 .0295166
1059.117 .0295211
1059.696 .0295254
1060.275 .0295292
1060.854 .0295319
1061.433 .0295340
1062.012 .0295346
1062.592 .0295346
1063.171 .0295345
1063.750 .0295332
1064.329 .0295317
1064.908 .0295294
1065.487 .0295253
1066.066 .0295192
1066.645 .0295102
1067.224 .0294990
1067.803 .0294834
1068.382 .0294651
1068.961 .0294452
1069.540 .0294249
1070.119 .0294052
1070.698 .0293888
1071.278 .0293759
1071.857 .0293670
1072.436 .0293613
1073.016 .0293579
1073.595 .0293556
1074.175 .0293542
1074.754 .0293527
1075.334 .0293502
1075.913 .0293476
1076.493 .0293475
1077.073 .0293472
1077.653 .0293498
1078.233 .0293561
1078.813 .0293638
1079.393 .0293718
1079.974 .0293802
1080.554 .0293871
1081.135 .0293918
1081.716 .0293943
1082.296 .0293937
1082.877 .0293907
1083.458 .0293865
1084.040 .0293798
1084.621 .0293714
1085.202 .0293633
1085.784 .0293550
1086.366 .0293461
1086.948 .0293375
1087.530 .0293299
1088.112 .0293228
1088.695 .0293168
1089.277 .0293118
1089.860 .0293082
1090.443 .0293045
1091.026 .0292993
1091.610 .0292926
1092.193 .0292846
1092.777 .0292734
1093.361 .0292605
1093.946 .0292464
1094.530 .0292326
1095.115 .0292195
1095.700 .0292074
1096.285 .0291950
1096.871 .0291850
1097.456 .0291746
1098.042 .0291636
1098.628 .0291521
1099.215 .0291399
1099.802 .0291264
1100.389 .0291134
1100.976 .0291020
1101.564 .0290927
1102.152 .0290860
1102.740 .0290838
1103.329 .0290846
1103.917 .0290889
1104.507 .0290929
1105.096 .0290965
1105.686 .0291015
1106.276 .0291063
1106.867 .0291099
1107.457 .0291145
1108.049 .0291212
1108.640 .0291298
1109.232 .0291411
1109.825 .0291549
1110.417 .0291692
1111.010 .0291840
1111.604 .0291954
1112.198 .0292050
1112.792 .0292137
1113.387 .0292217
1113.982 .0292293
1114.577 .0292423
1115.173 .0292614
1115.769 .0292827
1116.366 .0293070
1116.963 .0293328
1117.561 .0293578
1118.159 .0293798
1118.758 .0293966
1119.357 .0294108
1119.957 .0294222
1120.557 .0294330
1121.157 .0294416
1121.758 .0294542
1122.360 .0294694
1122.962 .0294839
1123.564 .0294997
1124.167 .0295148
1124.771 .0295277
1125.375 .0295378
1125.980 .0295496
1126.585 .0295635
1127.191 .0295814
1127.797 .0296039
1128.404 .0296289
1129.012 .0296598
1129.620 .0296965
1130.229 .0297345
1130.838 .0297775
1131.448 .0298241
1132.058 .0298743
1132.669 .0299271
1133.281 .0299856
1133.894 .0300479
1134.507 .0301134
1135.120 .0301850
1135.735 .0302613
1136.350 .0303382
1136.965 .0304233
1137.582 .0305098
1138.199 .0306024
1138.816 .0306993
1139.435 .0307988
1140.054 .0309038
1140.674 .0310098
1141.294 .0311272
1141.916 .0312497
1142.538 .0313074
1143.160 .0315073
1143.784 .0315432
1144.408 .0319021
1145.033 .0320113
