Measurement Sequence started on: 14-45-04-498
Integration time: 36
Scans to Average: 2 
>>>>>Begin Spectral Data<<<<<
433.946 .0559307
434.870 .0491347
435.793 .0462898
436.715 .0424642
437.635 .0399434
438.555 .0427231
439.473 .0419561
440.389 .0416606
441.305 .0415979
442.219 .0416813
443.132 .0418068
444.044 .0418693
444.954 .0419157
445.863 .0419384
446.771 .0419486
447.678 .0419491
448.584 .0419384
449.488 .0419147
450.391 .0418650
451.293 .0417843
452.194 .0416774
453.094 .0415449
453.992 .0413916
454.890 .0412255
455.786 .0410675
456.681 .0409220
457.575 .0407903
458.468 .0406735
459.360 .0405788
460.250 .0404960
461.140 .0404215
462.028 .0403559
462.915 .0402909
463.801 .0402279
464.687 .0401582
465.571 .0400866
466.454 .0400170
467.335 .0399507
468.216 .0398867
469.096 .0398217
469.975 .0397592
470.853 .0396907
471.729 .0396159
472.605 .0395390
473.479 .0394604
474.353 .0393809
475.226 .0393044
476.097 .0392319
476.968 .0391639
477.838 .0391000
478.706 .0390404
479.574 .0389901
480.441 .0389471
481.306 .0389083
482.171 .0388707
483.035 .0388367
483.898 .0388113
484.760 .0387886
485.621 .0387712
486.481 .0387570
487.340 .0387468
488.198 .0387398
489.055 .0387316
489.912 .0387222
490.767 .0387122
491.622 .0387022
492.476 .0386867
493.329 .0386667
494.180 .0386378
495.032 .0386026
495.882 .0385658
496.731 .0385274
497.580 .0384873
498.427 .0384451
499.274 .0384049
500.120 .0383661
500.965 .0383275
501.809 .0382916
502.653 .0382535
503.495 .0382180
504.337 .0381814
505.178 .0381401
506.018 .0380945
506.858 .0380508
507.696 .0380060
508.534 .0379634
509.371 .0379194
510.208 .0378735
511.043 .0378325
511.878 .0377951
512.712 .0377607
513.545 .0377232
514.377 .0376871
515.209 .0376462
516.040 .0375937
516.870 .0375327
517.699 .0374608
518.528 .0373827
519.356 .0373045
520.183 .0372191
521.010 .0371361
521.836 .0370569
522.661 .0369834
523.485 .0369107
524.309 .0368424
525.132 .0367654
525.954 .0366801
526.776 .0365866
527.597 .0364869
528.417 .0363776
529.237 .0362773
530.056 .0361850
530.874 .0361050
531.692 .0360464
532.508 .0360115
533.325 .0359974
534.140 .0360091
534.955 .0360315
535.770 .0360613
536.583 .0360929
537.397 .0361288
538.209 .0361577
539.021 .0361844
539.832 .0362066
540.643 .0362202
541.453 .0362285
542.262 .0362304
543.071 .0362168
543.879 .0361951
544.687 .0361599
545.494 .0361116
546.300 .0360486
547.106 .0359780
547.911 .0359067
548.716 .0358420
549.520 .0357871
550.323 .0357432
551.126 .0357188
551.929 .0357159
552.731 .0357226
553.532 .0357404
554.332 .0357688
555.133 .0357997
555.932 .0358278
556.731 .0358492
557.530 .0358643
558.328 .0358771
559.125 .0358887
559.922 .0358980
560.719 .0359070
561.515 .0359176
562.310 .0359271
563.105 .0359353
563.899 .0359411
564.693 .0359407
565.487 .0359337
566.280 .0359186
567.072 .0358952
567.864 .0358651
568.655 .0358297
569.446 .0357916
570.236 .0357534
571.026 .0357134
571.816 .0356696
572.605 .0356231
573.393 .0355742
574.181 .0355205
574.969 .0354615
575.756 .0353976
576.543 .0353301
577.329 .0352616
578.115 .0351938
578.900 .0351285
579.685 .0350723
580.469 .0350244
581.253 .0349819
582.036 .0349454
582.820 .0349110
583.602 .0348799
584.384 .0348494
585.166 .0348202
585.947 .0347924
586.728 .0347673
587.509 .0347439
588.289 .0347232
589.069 .0347068
589.848 .0346939
590.627 .0346810
591.405 .0346695
592.183 .0346571
592.961 .0346427
593.738 .0346261
594.515 .0346072
595.291 .0345856
596.067 .0345638
596.843 .0345399
597.618 .0345151
598.393 .0344904
599.167 .0344657
599.941 .0344408
600.715 .0344162
601.488 .0343922
602.261 .0343684
603.034 .0343435
603.806 .0343192
604.578 .0342944
605.349 .0342692
606.121 .0342437
606.891 .0342184
607.662 .0341939
608.432 .0341705
609.201 .0341482
609.971 .0341278
610.740 .0341087
611.508 .0340910
612.277 .0340738
613.045 .0340571
613.812 .0340407
614.579 .0340243
615.346 .0340073
616.113 .0339905
616.879 .0339738
617.645 .0339577
618.411 .0339420
619.176 .0339264
619.941 .0339106
620.705 .0338945
621.470 .0338779
622.233 .0338611
622.997 .0338436
623.760 .0338258
624.523 .0338075
625.286 .0337882
626.048 .0337678
626.810 .0337461
627.572 .0337227
628.333 .0336979
629.095 .0336718
629.855 .0336439
630.616 .0336153
631.376 .0335865
632.136 .0335584
632.895 .0335313
633.655 .0335049
634.414 .0334796
635.172 .0334546
635.931 .0334303
636.689 .0334067
637.447 .0333835
638.204 .0333622
638.962 .0333417
639.718 .0333232
640.475 .0333059
641.231 .0332905
641.988 .0332763
642.743 .0332632
643.499 .0332500
644.254 .0332362
645.009 .0332213
645.764 .0332058
646.518 .0331901
647.272 .0331744
648.026 .0331592
648.780 .0331447
649.533 .0331308
650.286 .0331172
651.039 .0331034
651.792 .0330904
652.544 .0330765
653.296 .0330623
654.048 .0330473
654.799 .0330326
655.550 .0330183
656.301 .0330045
657.052 .0329921
657.802 .0329805
658.552 .0329700
659.302 .0329600
660.052 .0329493
660.801 .0329380
661.550 .0329259
662.299 .0329132
663.048 .0328992
663.796 .0328853
664.544 .0328705
665.292 .0328568
666.040 .0328434
666.787 .0328312
667.534 .0328194
668.281 .0328079
669.028 .0327959
669.774 .0327826
670.521 .0327680
671.266 .0327519
672.012 .0327344
672.758 .0327171
673.503 .0326995
674.248 .0326822
674.992 .0326656
675.737 .0326504
676.481 .0326360
677.225 .0326223
677.969 .0326081
678.712 .0325936
679.455 .0325780
680.199 .0325610
680.941 .0325433
681.684 .0325258
682.426 .0325090
683.168 .0324927
683.910 .0324775
684.652 .0324634
685.393 .0324501
686.134 .0324365
686.875 .0324229
687.616 .0324091
688.356 .0323948
689.097 .0323799
689.837 .0323649
690.576 .0323502
691.316 .0323358
692.055 .0323218
692.794 .0323081
693.533 .0322945
694.272 .0322810
695.010 .0322671
695.748 .0322534
696.486 .0322391
697.224 .0322241
697.962 .0322086
698.699 .0321930
699.436 .0321771
700.173 .0321612
700.909 .0321457
701.646 .0321307
702.382 .0321162
703.118 .0321022
703.853 .0320886
704.589 .0320750
705.324 .0320614
706.059 .0320473
706.794 .0320327
707.529 .0320179
708.263 .0320028
708.997 .0319883
709.731 .0319744
710.465 .0319613
711.198 .0319486
711.931 .0319360
712.664 .0319238
713.397 .0319110
714.130 .0318975
714.862 .0318829
715.594 .0318673
716.326 .0318510
717.058 .0318347
717.789 .0318192
718.520 .0318042
719.251 .0317898
719.982 .0317762
720.713 .0317626
721.443 .0317487
722.173 .0317341
722.903 .0317186
723.633 .0317031
724.362 .0316882
725.091 .0316726
725.820 .0316575
726.549 .0316434
727.278 .0316302
728.006 .0316178
728.734 .0316054
729.462 .0315931
730.190 .0315807
730.917 .0315684
731.644 .0315558
732.371 .0315429
733.098 .0315309
733.825 .0315192
734.551 .0315082
735.277 .0314978
736.003 .0314877
736.728 .0314775
737.454 .0314677
738.179 .0314578
738.904 .0314474
739.629 .0314367
740.353 .0314266
741.077 .0314169
741.801 .0314078
742.525 .0313989
743.249 .0313901
743.972 .0313812
744.695 .0313722
745.418 .0313619
746.141 .0313505
746.863 .0313386
747.585 .0313264
748.307 .0313135
749.029 .0313004
749.750 .0312866
750.472 .0312723
751.193 .0312572
751.913 .0312413
752.634 .0312239
753.354 .0312060
754.074 .0311879
754.794 .0311699
755.514 .0311525
756.233 .0311362
756.952 .0311207
757.671 .0311064
758.390 .0310930
759.108 .0310795
759.826 .0310661
760.544 .0310528
761.262 .0310391
761.979 .0310255
762.697 .0310120
763.414 .0309986
764.130 .0309856
764.847 .0309733
765.563 .0309611
766.279 .0309489
766.995 .0309369
767.710 .0309246
768.426 .0309119
769.141 .0308992
769.855 .0308862
770.570 .0308729
771.284 .0308600
771.998 .0308470
772.712 .0308341
773.426 .0308216
774.139 .0308094
774.852 .0307974
775.565 .0307860
776.277 .0307749
776.990 .0307643
777.702 .0307541
778.414 .0307443
779.125 .0307349
779.836 .0307259
780.547 .0307168
781.258 .0307076
781.969 .0306981
782.679 .0306885
783.389 .0306785
784.099 .0306686
784.808 .0306587
785.517 .0306490
786.226 .0306399
786.935 .0306313
787.643 .0306232
788.352 .0306160
789.060 .0306088
789.767 .0306013
790.475 .0305936
791.182 .0305845
791.889 .0305743
792.595 .0305632
793.301 .0305513
794.008 .0305387
794.713 .0305258
795.419 .0305128
796.124 .0304995
796.829 .0304864
797.534 .0304734
798.238 .0304596
798.942 .0304457
799.646 .0304318
800.350 .0304173
801.053 .0304028
801.756 .0303885
802.459 .0303744
803.162 .0303608
803.864 .0303477
804.566 .0303349
805.267 .0303222
805.969 .0303105
806.670 .0302994
807.371 .0302893
808.071 .0302800
808.772 .0302711
809.472 .0302625
810.171 .0302543
810.871 .0302457
811.570 .0302362
812.269 .0302261
812.967 .0302152
813.666 .0302034
814.364 .0301908
815.061 .0301778
815.759 .0301654
816.456 .0301536
817.153 .0301422
817.849 .0301308
818.545 .0301197
819.241 .0301082
819.937 .0300960
820.632 .0300833
821.327 .0300691
822.022 .0300541
822.717 .0300384
823.411 .0300221
824.105 .0300056
824.798 .0299896
825.491 .0299741
826.184 .0299590
826.877 .0299448
827.569 .0299307
828.261 .0299169
828.953 .0299036
829.645 .0298902
830.336 .0298767
831.027 .0298636
831.717 .0298508
832.407 .0298388
833.097 .0298282
833.787 .0298184
834.476 .0298094
835.165 .0298013
835.854 .0297937
836.542 .0297861
837.230 .0297779
837.918 .0297689
838.605 .0297587
839.292 .0297479
839.979 .0297358
840.665 .0297233
841.352 .0297108
842.037 .0296981
842.723 .0296855
843.408 .0296734
844.093 .0296616
844.777 .0296499
845.462 .0296382
846.145 .0296265
846.829 .0296142
847.512 .0296020
848.195 .0295894
848.878 .0295772
849.560 .0295655
850.242 .0295544
850.923 .0295436
851.605 .0295337
852.286 .0295242
852.966 .0295147
853.646 .0295053
854.326 .0294953
855.006 .0294839
855.685 .0294712
856.364 .0294571
857.043 .0294416
857.721 .0294246
858.399 .0294074
859.077 .0293893
859.754 .0293713
860.431 .0293534
861.107 .0293355
861.784 .0293181
862.459 .0293007
863.135 .0292832
863.810 .0292651
864.485 .0292464
865.160 .0292274
865.834 .0292080
866.508 .0291892
867.181 .0291708
867.854 .0291533
868.527 .0291371
869.199 .0291218
869.872 .0291076
870.543 .0290940
871.215 .0290805
871.886 .0290671
872.557 .0290534
873.227 .0290394
873.897 .0290253
874.567 .0290111
875.236 .0289974
875.905 .0289847
876.573 .0289730
877.242 .0289617
877.909 .0289510
878.577 .0289410
879.244 .0289314
879.911 .0289217
880.577 .0289124
881.243 .0289030
881.909 .0288935
882.575 .0288835
883.240 .0288729
883.904 .0288620
884.569 .0288509
885.232 .0288393
885.896 .0288274
886.559 .0288150
887.222 .0288021
887.885 .0287885
888.547 .0287752
889.208 .0287620
889.870 .0287485
890.531 .0287351
891.192 .0287223
891.852 .0287100
892.512 .0286984
893.171 .0286877
893.830 .0286780
894.489 .0286694
895.148 .0286616
895.806 .0286540
896.464 .0286472
897.121 .0286409
897.778 .0286347
898.434 .0286284
899.091 .0286223
899.747 .0286160
900.402 .0286092
901.057 .0286022
901.712 .0285944
902.366 .0285860
903.020 .0285771
903.674 .0285676
904.327 .0285578
904.980 .0285482
905.633 .0285384
906.285 .0285287
906.936 .0285193
907.588 .0285096
908.239 .0284997
908.889 .0284899
909.540 .0284800
910.190 .0284697
910.839 .0284597
911.488 .0284498
912.137 .0284401
912.785 .0284307
913.433 .0284210
914.081 .0284105
914.728 .0283994
915.375 .0283870
916.021 .0283736
916.668 .0283593
917.313 .0283447
917.959 .0283298
918.604 .0283149
919.248 .0283002
919.892 .0282854
920.536 .0282706
921.180 .0282559
921.823 .0282403
922.465 .0282239
923.108 .0282066
923.750 .0281887
924.391 .0281705
925.032 .0281525
925.673 .0281350
926.313 .0281180
926.953 .0281014
927.593 .0280851
928.232 .0280682
928.871 .0280513
929.510 .0280344
930.148 .0280167
930.786 .0279992
931.423 .0279819
932.060 .0279651
932.697 .0279487
933.333 .0279331
933.969 .0279180
934.604 .0279027
935.239 .0278871
935.874 .0278707
936.508 .0278533
937.142 .0278358
937.776 .0278177
938.409 .0277995
939.042 .0277814
939.674 .0277633
940.306 .0277450
940.938 .0277263
941.569 .0277074
942.200 .0276881
942.830 .0276685
943.460 .0276489
944.090 .0276291
944.720 .0276095
945.349 .0275908
945.977 .0275729
946.606 .0275553
947.233 .0275375
947.861 .0275191
948.488 .0274998
949.115 .0274792
949.741 .0274575
950.367 .0274349
950.993 .0274117
951.618 .0273889
952.243 .0273659
952.868 .0273431
953.492 .0273205
954.115 .0272978
954.739 .0272748
955.362 .0272515
955.984 .0272278
956.607 .0272038
957.229 .0271811
957.850 .0271599
958.471 .0271400
959.092 .0271219
959.713 .0271053
960.333 .0270898
960.952 .0270748
961.572 .0270599
962.191 .0270448
962.809 .0270301
963.428 .0270160
964.045 .0270022
964.663 .0269898
965.280 .0269789
965.897 .0269690
966.513 .0269596
967.129 .0269506
967.745 .0269414
968.361 .0269313
968.976 .0269205
969.590 .0269094
970.205 .0268981
970.818 .0268878
971.432 .0268789
972.045 .0268714
972.658 .0268660
973.271 .0268619
973.883 .0268580
974.495 .0268538
975.106 .0268487
975.717 .0268426
976.328 .0268355
976.938 .0268277
977.548 .0268194
978.158 .0268112
978.768 .0268039
979.377 .0267972
979.985 .0267907
980.594 .0267842
981.202 .0267769
981.809 .0267687
982.417 .0267600
983.024 .0267503
983.631 .0267407
984.237 .0267317
984.843 .0267236
985.449 .0267162
986.054 .0267096
986.659 .0267042
987.264 .0266995
987.868 .0266957
988.472 .0266922
989.076 .0266892
989.679 .0266868
990.282 .0266850
990.885 .0266837
991.487 .0266828
992.090 .0266818
992.691 .0266806
993.293 .0266793
993.894 .0266775
994.495 .0266753
995.095 .0266734
995.696 .0266715
996.296 .0266695
996.895 .0266667
997.494 .0266634
998.093 .0266592
998.692 .0266543
999.291 .0266484
999.889 .0266415
1000.487 .0266345
1001.084 .0266279
1001.681 .0266213
1002.278 .0266153
1002.875 .0266101
1003.471 .0266053
1004.067 .0266009
1004.663 .0265963
1005.258 .0265913
1005.854 .0265858
1006.449 .0265802
1007.043 .0265746
1007.638 .0265683
1008.232 .0265631
1008.826 .0265584
1009.419 .0265546
1010.012 .0265519
1010.605 .0265500
1011.198 .0265487
1011.791 .0265481
1012.383 .0265473
1012.975 .0265455
1013.566 .0265425
1014.158 .0265381
1014.749 .0265328
1015.340 .0265272
1015.931 .0265221
1016.521 .0265174
1017.111 .0265141
1017.701 .0265126
1018.291 .0265109
1018.880 .0265096
1019.470 .0265080
1020.059 .0265054
1020.647 .0265018
1021.236 .0264969
1021.824 .0264919
1022.412 .0264876
1023.000 .0264853
1023.588 .0264839
1024.175 .0264844
1024.762 .0264863
1025.349 .0264881
1025.936 .0264897
1026.523 .0264906
1027.109 .0264904
1027.695 .0264893
1028.281 .0264885
1028.867 .0264872
1029.452 .0264868
1030.038 .0264877
1030.623 .0264893
1031.208 .0264914
1031.792 .0264940
1032.377 .0264956
1032.961 .0264966
1033.546 .0264975
1034.130 .0264980
1034.714 .0264978
1035.297 .0264986
1035.881 .0264984
1036.464 .0264984
1037.047 .0264984
1037.630 .0264980
1038.213 .0264974
1038.796 .0264972
1039.378 .0264968
1039.961 .0264961
1040.543 .0264945
1041.125 .0264928
1041.707 .0264899
1042.289 .0264872
1042.871 .0264843
1043.452 .0264814
1044.034 .0264806
1044.615 .0264809
1045.196 .0264818
1045.777 .0264842
1046.358 .0264862
1046.939 .0264869
1047.520 .0264858
1048.101 .0264825
1048.681 .0264768
1049.262 .0264697
1049.842 .0264625
1050.422 .0264557
1051.002 .0264505
1051.582 .0264466
1052.162 .0264427
1052.742 .0264388
1053.322 .0264339
1053.902 .0264256
1054.482 .0264151
1055.061 .0264021
1055.641 .0263865
1056.220 .0263705
1056.800 .0263553
1057.379 .0263425
1057.958 .0263328
1058.538 .0263265
1059.117 .0263227
1059.696 .0263207
1060.275 .0263203
1060.854 .0263187
1061.433 .0263164
1062.012 .0263136
1062.592 .0263096
1063.171 .0263054
1063.750 .0263013
1064.329 .0262978
1064.908 .0262957
1065.487 .0262945
1066.066 .0262942
1066.645 .0262940
1067.224 .0262931
1067.803 .0262904
1068.382 .0262855
1068.961 .0262779
1069.540 .0262671
1070.119 .0262539
1070.698 .0262390
1071.278 .0262240
1071.857 .0262082
1072.436 .0261931
1073.016 .0261794
1073.595 .0261686
1074.175 .0261599
1074.754 .0261540
1075.334 .0261517
1075.913 .0261531
1076.493 .0261570
1077.073 .0261624
1077.653 .0261674
1078.233 .0261729
1078.813 .0261757
1079.393 .0261752
1079.974 .0261718
1080.554 .0261666
1081.135 .0261590
1081.716 .0261523
1082.296 .0261455
1082.877 .0261392
1083.458 .0261318
1084.040 .0261233
1084.621 .0261117
1085.202 .0260969
1085.784 .0260794
1086.366 .0260602
1086.948 .0260412
1087.530 .0260255
1088.112 .0260121
1088.695 .0260049
1089.277 .0260055
1089.860 .0260125
1090.443 .0260233
1091.026 .0260375
1091.610 .0260533
1092.193 .0260684
1092.777 .0260806
1093.361 .0260898
1093.946 .0260947
1094.530 .0260977
1095.115 .0260991
1095.700 .0260983
1096.285 .0260985
1096.871 .0261007
1097.456 .0261041
1098.042 .0261093
1098.628 .0261150
1099.215 .0261210
1099.802 .0261258
1100.389 .0261283
1100.976 .0261277
1101.564 .0261224
1102.152 .0261146
1102.740 .0261051
1103.329 .0260955
1103.917 .0260886
1104.507 .0260839
1105.096 .0260839
1105.686 .0260882
1106.276 .0260945
1106.867 .0261010
1107.457 .0261063
1108.049 .0261116
1108.640 .0261159
1109.232 .0261182
1109.825 .0261234
1110.417 .0261332
1111.010 .0261479
1111.604 .0261682
1112.198 .0261944
1112.792 .0262258
1113.387 .0262615
1113.982 .0262984
1114.577 .0263362
1115.173 .0263712
1115.769 .0264013
1116.366 .0264230
1116.963 .0264396
1117.561 .0264511
1118.159 .0264567
1118.758 .0264589
1119.357 .0264603
1119.957 .0264601
1120.557 .0264608
1121.157 .0264616
1121.758 .0264624
1122.360 .0264625
1122.962 .0264594
1123.564 .0264514
1124.167 .0264424
1124.771 .0264330
1125.375 .0264255
1125.980 .0264232
1126.585 .0264269
1127.191 .0264344
1127.797 .0264487
1128.404 .0264679
1129.012 .0264899
1129.620 .0265134
1130.229 .0265390
1130.838 .0265629
1131.448 .0265873
1132.058 .0266141
1132.669 .0266427
1133.281 .0266756
1133.894 .0267121
1134.507 .0267473
1135.120 .0267823
1135.735 .0268177
1136.350 .0268514
1136.965 .0268882
1137.582 .0269303
1138.199 .0269772
1138.816 .0270301
1139.435 .0270881
1140.054 .0271531
1140.674 .0272237
1141.294 .0273057
1141.916 .0273917
1142.538 .0273798
1143.160 .0275237
1143.784 .0276301
1144.408 .0279118
1145.033 .0278952
