Measurement Sequence started on: 14-45-04-498
Integration time: 36
Scans to Average: 2 
>>>>>Begin Spectral Data<<<<<
433.946 .0532766
434.870 .0451599
435.793 .0432101
436.715 .0436817
437.635 .0434209
438.555 .0431244
439.473 .0424503
440.389 .0420913
441.305 .0418107
442.219 .0415353
443.132 .0412995
444.044 .0411027
444.954 .0409382
445.863 .0407990
446.771 .0406607
447.678 .0405271
448.584 .0403974
449.488 .0402654
450.391 .0401354
451.293 .0400036
452.194 .0398814
453.094 .0397618
453.992 .0396468
454.890 .0395344
455.786 .0394175
456.681 .0393038
457.575 .0391884
458.468 .0390689
459.360 .0389507
460.250 .0388341
461.140 .0387217
462.028 .0386215
462.915 .0385283
463.801 .0384406
464.687 .0383548
465.571 .0382733
466.454 .0381938
467.335 .0381131
468.216 .0380347
469.096 .0379591
469.975 .0378885
470.853 .0378277
471.729 .0377695
472.605 .0377206
473.479 .0376800
474.353 .0376449
475.226 .0376132
476.097 .0375838
476.968 .0375587
477.838 .0375350
478.706 .0375177
479.574 .0375075
480.441 .0375010
481.306 .0375033
482.171 .0375097
483.035 .0375137
483.898 .0375167
484.760 .0375156
485.621 .0375091
486.481 .0374936
487.340 .0374706
488.198 .0374404
489.055 .0374029
489.912 .0373613
490.767 .0373151
491.622 .0372643
492.476 .0372122
493.329 .0371560
494.180 .0370997
495.032 .0370432
495.882 .0369870
496.731 .0369307
497.580 .0368770
498.427 .0368249
499.274 .0367751
500.120 .0367261
500.965 .0366854
501.809 .0366519
502.653 .0366210
503.495 .0365967
504.337 .0365777
505.178 .0365632
506.018 .0365487
506.858 .0365333
507.696 .0365165
508.534 .0364926
509.371 .0364646
510.208 .0364287
511.043 .0363923
511.878 .0363577
512.712 .0363206
513.545 .0362841
514.377 .0362542
515.209 .0362311
516.040 .0362116
516.870 .0361993
517.699 .0361979
518.528 .0362012
519.356 .0362083
520.183 .0362136
521.010 .0362214
521.836 .0362280
522.661 .0362289
523.485 .0362202
524.309 .0362056
525.132 .0361846
525.954 .0361585
526.776 .0361260
527.597 .0360946
528.417 .0360544
529.237 .0360044
530.056 .0359356
530.874 .0358517
531.692 .0357461
532.508 .0356227
533.325 .0354859
534.140 .0353435
534.955 .0352021
535.770 .0350686
536.583 .0349475
537.397 .0348499
538.209 .0347636
539.021 .0346857
539.832 .0346046
540.643 .0345229
541.453 .0344330
542.262 .0343414
543.071 .0342472
543.879 .0341593
544.687 .0340876
545.494 .0340355
546.300 .0340018
547.106 .0339920
547.911 .0340027
548.716 .0340274
549.520 .0340581
550.323 .0340873
551.126 .0341079
551.929 .0341278
552.731 .0341407
553.532 .0341479
554.332 .0341537
555.133 .0341607
555.932 .0341646
556.731 .0341669
557.530 .0341679
558.328 .0341647
559.125 .0341569
559.922 .0341424
560.719 .0341165
561.515 .0340789
562.310 .0340309
563.105 .0339749
563.899 .0339125
564.693 .0338465
565.487 .0337763
566.280 .0337049
567.072 .0336361
567.864 .0335722
568.655 .0335115
569.446 .0334550
570.236 .0334016
571.026 .0333487
571.816 .0332918
572.605 .0332324
573.393 .0331722
574.181 .0331102
574.969 .0330514
575.756 .0329928
576.543 .0329355
577.329 .0328838
578.115 .0328357
578.900 .0327931
579.685 .0327542
580.469 .0327203
581.253 .0326885
582.036 .0326569
582.820 .0326269
583.602 .0325981
584.384 .0325725
585.166 .0325497
585.947 .0325288
586.728 .0325109
587.509 .0324964
588.289 .0324835
589.069 .0324727
589.848 .0324633
590.627 .0324530
591.405 .0324409
592.183 .0324261
592.961 .0324099
593.738 .0323919
594.515 .0323713
595.291 .0323488
596.067 .0323237
596.843 .0322970
597.618 .0322685
598.393 .0322390
599.167 .0322099
599.941 .0321808
600.715 .0321519
601.488 .0321228
602.261 .0320936
603.034 .0320637
603.806 .0320333
604.578 .0320025
605.349 .0319716
606.121 .0319406
606.891 .0319096
607.662 .0318793
608.432 .0318502
609.201 .0318221
609.971 .0317948
610.740 .0317676
611.508 .0317408
612.277 .0317133
613.045 .0316855
613.812 .0316572
614.579 .0316283
615.346 .0315997
616.113 .0315717
616.879 .0315443
617.645 .0315177
618.411 .0314914
619.176 .0314650
619.941 .0314381
620.705 .0314106
621.470 .0313820
622.233 .0313529
622.997 .0313237
623.760 .0312946
624.523 .0312659
625.286 .0312379
626.048 .0312109
626.810 .0311849
627.572 .0311596
628.333 .0311353
629.095 .0311123
629.855 .0310906
630.616 .0310707
631.376 .0310530
632.136 .0310377
632.895 .0310248
633.655 .0310143
634.414 .0310058
635.172 .0309985
635.931 .0309919
636.689 .0309854
637.447 .0309793
638.204 .0309733
638.962 .0309664
639.718 .0309590
640.475 .0309513
641.231 .0309424
641.988 .0309313
642.743 .0309185
643.499 .0309033
644.254 .0308851
645.009 .0308641
645.764 .0308406
646.518 .0308150
647.272 .0307886
648.026 .0307620
648.780 .0307358
649.533 .0307108
650.286 .0306868
651.039 .0306628
651.792 .0306392
652.544 .0306156
653.296 .0305906
654.048 .0305649
654.799 .0305392
655.550 .0305128
656.301 .0304858
657.052 .0304595
657.802 .0304339
658.552 .0304090
659.302 .0303848
660.052 .0303604
660.801 .0303357
661.550 .0303107
662.299 .0302844
663.048 .0302562
663.796 .0302277
664.544 .0301992
665.292 .0301702
666.040 .0301418
666.787 .0301144
667.534 .0300881
668.281 .0300634
669.028 .0300403
669.774 .0300185
670.521 .0299977
671.266 .0299785
672.012 .0299599
672.758 .0299422
673.503 .0299255
674.248 .0299097
674.992 .0298948
675.737 .0298805
676.481 .0298664
677.225 .0298518
677.969 .0298377
678.712 .0298243
679.455 .0298108
680.199 .0297986
680.941 .0297877
681.684 .0297785
682.426 .0297706
683.168 .0297642
683.910 .0297587
684.652 .0297540
685.393 .0297500
686.134 .0297459
686.875 .0297422
687.616 .0297389
688.356 .0297360
689.097 .0297340
689.837 .0297330
690.576 .0297326
691.316 .0297322
692.055 .0297317
692.794 .0297299
693.533 .0297266
694.272 .0297219
695.010 .0297161
695.748 .0297095
696.486 .0297021
697.224 .0296942
697.962 .0296862
698.699 .0296784
699.436 .0296701
700.173 .0296613
700.909 .0296526
701.646 .0296434
702.382 .0296340
703.118 .0296244
703.853 .0296155
704.589 .0296071
705.324 .0295993
706.059 .0295920
706.794 .0295844
707.529 .0295768
708.263 .0295688
708.997 .0295605
709.731 .0295517
710.465 .0295423
711.198 .0295320
711.931 .0295207
712.664 .0295089
713.397 .0294960
714.130 .0294817
714.862 .0294666
715.594 .0294504
716.326 .0294329
717.058 .0294149
717.789 .0293963
718.520 .0293774
719.251 .0293581
719.982 .0293384
720.713 .0293182
721.443 .0292976
722.173 .0292768
722.903 .0292558
723.633 .0292351
724.362 .0292146
725.091 .0291941
725.820 .0291740
726.549 .0291546
727.278 .0291354
728.006 .0291169
728.734 .0290989
729.462 .0290815
730.190 .0290645
730.917 .0290478
731.644 .0290317
732.371 .0290165
733.098 .0290020
733.825 .0289885
734.551 .0289760
735.277 .0289645
736.003 .0289540
736.728 .0289445
737.454 .0289358
738.179 .0289278
738.904 .0289198
739.629 .0289119
740.353 .0289041
741.077 .0288966
741.801 .0288894
742.525 .0288830
743.249 .0288773
743.972 .0288720
744.695 .0288669
745.418 .0288617
746.141 .0288561
746.863 .0288503
747.585 .0288439
748.307 .0288366
749.029 .0288290
749.750 .0288214
750.472 .0288137
751.193 .0288063
751.913 .0287997
752.634 .0287936
753.354 .0287874
754.074 .0287811
754.794 .0287746
755.514 .0287675
756.233 .0287604
756.952 .0287529
757.671 .0287459
758.390 .0287393
759.108 .0287333
759.826 .0287279
760.544 .0287236
761.262 .0287203
761.979 .0287175
762.697 .0287153
763.414 .0287140
764.130 .0287133
764.847 .0287129
765.563 .0287131
766.279 .0287141
766.995 .0287157
767.710 .0287181
768.426 .0287206
769.141 .0287240
769.855 .0287272
770.570 .0287303
771.284 .0287332
771.998 .0287353
772.712 .0287372
773.426 .0287386
774.139 .0287397
774.852 .0287408
775.565 .0287421
776.277 .0287433
776.990 .0287446
777.702 .0287459
778.414 .0287463
779.125 .0287458
779.836 .0287440
780.547 .0287414
781.258 .0287375
781.969 .0287329
782.679 .0287278
783.389 .0287221
784.099 .0287164
784.808 .0287104
785.517 .0287041
786.226 .0286976
786.935 .0286908
787.643 .0286835
788.352 .0286754
789.060 .0286668
789.767 .0286573
790.475 .0286475
791.182 .0286372
791.889 .0286264
792.595 .0286151
793.301 .0286036
794.008 .0285915
794.713 .0285787
795.419 .0285657
796.124 .0285523
796.829 .0285382
797.534 .0285237
798.238 .0285083
798.942 .0284924
799.646 .0284758
800.350 .0284590
801.053 .0284421
801.756 .0284253
802.459 .0284090
803.162 .0283927
803.864 .0283771
804.566 .0283620
805.267 .0283468
805.969 .0283319
806.670 .0283169
807.371 .0283023
808.071 .0282881
808.772 .0282747
809.472 .0282620
810.171 .0282501
810.871 .0282393
811.570 .0282287
812.269 .0282183
812.967 .0282077
813.666 .0281972
814.364 .0281863
815.061 .0281753
815.759 .0281643
816.456 .0281534
817.153 .0281429
817.849 .0281324
818.545 .0281219
819.241 .0281109
819.937 .0280995
820.632 .0280873
821.327 .0280742
822.022 .0280603
822.717 .0280454
823.411 .0280299
824.105 .0280145
824.798 .0279991
825.491 .0279837
826.184 .0279686
826.877 .0279542
827.569 .0279400
828.261 .0279261
828.953 .0279123
829.645 .0278985
830.336 .0278849
831.027 .0278714
831.717 .0278581
832.407 .0278456
833.097 .0278343
833.787 .0278247
834.476 .0278166
835.165 .0278107
835.854 .0278065
836.542 .0278039
837.230 .0278024
837.918 .0278019
838.605 .0278015
839.292 .0278016
839.979 .0278019
840.665 .0278027
841.352 .0278041
842.037 .0278066
842.723 .0278098
843.408 .0278140
844.093 .0278184
844.777 .0278231
845.462 .0278271
846.145 .0278305
846.829 .0278325
847.512 .0278332
848.195 .0278328
848.878 .0278312
849.560 .0278288
850.242 .0278260
850.923 .0278227
851.605 .0278193
852.286 .0278156
852.966 .0278115
853.646 .0278072
854.326 .0278033
855.006 .0277994
855.685 .0277958
856.364 .0277922
857.043 .0277891
857.721 .0277861
858.399 .0277832
859.077 .0277802
859.754 .0277770
860.431 .0277733
861.107 .0277692
861.784 .0277648
862.459 .0277606
863.135 .0277565
863.810 .0277528
864.485 .0277491
865.160 .0277455
865.834 .0277419
866.508 .0277380
867.181 .0277336
867.854 .0277292
868.527 .0277237
869.199 .0277177
869.872 .0277111
870.543 .0277043
871.215 .0276974
871.886 .0276904
872.557 .0276831
873.227 .0276756
873.897 .0276680
874.567 .0276602
875.236 .0276520
875.905 .0276439
876.573 .0276351
877.242 .0276254
877.909 .0276149
878.577 .0276033
879.244 .0275903
879.911 .0275764
880.577 .0275616
881.243 .0275458
881.909 .0275294
882.575 .0275126
883.240 .0274957
883.904 .0274791
884.569 .0274623
885.232 .0274447
885.896 .0274262
886.559 .0274072
887.222 .0273872
887.885 .0273664
888.547 .0273453
889.208 .0273241
889.870 .0273035
890.531 .0272837
891.192 .0272651
891.852 .0272478
892.512 .0272317
893.171 .0272166
893.830 .0272017
894.489 .0271869
895.148 .0271720
895.806 .0271572
896.464 .0271428
897.121 .0271286
897.778 .0271149
898.434 .0271020
899.091 .0270898
899.747 .0270778
900.402 .0270656
901.057 .0270530
901.712 .0270397
902.366 .0270253
903.020 .0270101
903.674 .0269944
904.327 .0269785
904.980 .0269630
905.633 .0269477
906.285 .0269330
906.936 .0269190
907.588 .0269050
908.239 .0268912
908.889 .0268772
909.540 .0268628
910.190 .0268479
910.839 .0268328
911.488 .0268179
912.137 .0268033
912.785 .0267891
913.433 .0267752
914.081 .0267617
914.728 .0267484
915.375 .0267348
916.021 .0267208
916.668 .0267061
917.313 .0266905
917.959 .0266742
918.604 .0266572
919.248 .0266399
919.892 .0266227
920.536 .0266062
921.180 .0265906
921.823 .0265759
922.465 .0265619
923.108 .0265482
923.750 .0265344
924.391 .0265203
925.032 .0265057
925.673 .0264906
926.313 .0264753
926.953 .0264600
927.593 .0264447
928.232 .0264297
928.871 .0264150
929.510 .0264008
930.148 .0263861
930.786 .0263706
931.423 .0263536
932.060 .0263352
932.697 .0263157
933.333 .0262951
933.969 .0262743
934.604 .0262538
935.239 .0262338
935.874 .0262148
936.508 .0261969
937.142 .0261807
937.776 .0261658
938.409 .0261527
939.042 .0261406
939.674 .0261295
940.306 .0261191
940.938 .0261096
941.569 .0261014
942.200 .0260944
942.830 .0260888
943.460 .0260842
944.090 .0260803
944.720 .0260770
945.349 .0260742
945.977 .0260715
946.606 .0260681
947.233 .0260638
947.861 .0260580
948.488 .0260506
949.115 .0260420
949.741 .0260325
950.367 .0260228
950.993 .0260137
951.618 .0260058
952.243 .0259987
952.868 .0259930
953.492 .0259884
954.115 .0259845
954.739 .0259814
955.362 .0259783
955.984 .0259746
956.607 .0259706
957.229 .0259671
957.850 .0259639
958.471 .0259612
959.092 .0259593
959.713 .0259577
960.333 .0259565
960.952 .0259553
961.572 .0259533
962.191 .0259504
962.809 .0259470
963.428 .0259428
964.045 .0259380
964.663 .0259332
965.280 .0259291
965.897 .0259261
966.513 .0259247
967.129 .0259250
967.745 .0259262
968.361 .0259282
968.976 .0259307
969.590 .0259333
970.205 .0259357
970.818 .0259385
971.432 .0259413
972.045 .0259446
972.658 .0259486
973.271 .0259528
973.883 .0259566
974.495 .0259597
975.106 .0259614
975.717 .0259614
976.328 .0259595
976.938 .0259557
977.548 .0259513
978.158 .0259472
978.768 .0259437
979.377 .0259407
979.985 .0259382
980.594 .0259356
981.202 .0259322
981.809 .0259274
982.417 .0259210
983.024 .0259132
983.631 .0259046
984.237 .0258953
984.843 .0258862
985.449 .0258769
986.054 .0258677
986.659 .0258584
987.264 .0258487
987.868 .0258376
988.472 .0258253
989.076 .0258122
989.679 .0257986
990.282 .0257854
990.885 .0257727
991.487 .0257611
992.090 .0257506
992.691 .0257411
993.293 .0257317
993.894 .0257226
994.495 .0257141
995.095 .0257056
995.696 .0256977
996.296 .0256899
996.895 .0256824
997.494 .0256758
998.093 .0256690
998.692 .0256620
999.291 .0256547
999.889 .0256466
1000.487 .0256375
1001.084 .0256277
1001.681 .0256170
1002.278 .0256056
1002.875 .0255942
1003.471 .0255832
1004.067 .0255719
1004.663 .0255612
1005.258 .0255507
1005.854 .0255402
1006.449 .0255303
1007.043 .0255203
1007.638 .0255097
1008.232 .0254995
1008.826 .0254892
1009.419 .0254784
1010.012 .0254677
1010.605 .0254574
1011.198 .0254472
1011.791 .0254371
1012.383 .0254267
1012.975 .0254160
1013.566 .0254051
1014.158 .0253938
1014.749 .0253819
1015.340 .0253693
1015.931 .0253566
1016.521 .0253434
1017.111 .0253306
1017.701 .0253184
1018.291 .0253072
1018.880 .0252970
1019.470 .0252878
1020.059 .0252792
1020.647 .0252711
1021.236 .0252634
1021.824 .0252564
1022.412 .0252499
1023.000 .0252442
1023.588 .0252392
1024.175 .0252352
1024.762 .0252317
1025.349 .0252288
1025.936 .0252260
1026.523 .0252227
1027.109 .0252178
1027.695 .0252125
1028.281 .0252059
1028.867 .0251981
1029.452 .0251892
1030.038 .0251797
1030.623 .0251691
1031.208 .0251575
1031.792 .0251450
1032.377 .0251315
1032.961 .0251175
1033.546 .0251039
1034.130 .0250906
1034.714 .0250793
1035.297 .0250706
1035.881 .0250644
1036.464 .0250606
1037.047 .0250598
1037.630 .0250597
1038.213 .0250603
1038.796 .0250613
1039.378 .0250627
1039.961 .0250630
1040.543 .0250624
1041.125 .0250613
1041.707 .0250596
1042.289 .0250576
1042.871 .0250551
1043.452 .0250513
1044.034 .0250466
1044.615 .0250393
1045.196 .0250305
1045.777 .0250197
1046.358 .0250074
1046.939 .0249937
1047.520 .0249792
1048.101 .0249641
1048.681 .0249489
1049.262 .0249340
1049.842 .0249200
1050.422 .0249086
1051.002 .0248991
1051.582 .0248910
1052.162 .0248850
1052.742 .0248812
1053.322 .0248787
1053.902 .0248776
1054.482 .0248775
1055.061 .0248779
1055.641 .0248798
1056.220 .0248832
1056.800 .0248879
1057.379 .0248947
1057.958 .0249033
1058.538 .0249139
1059.117 .0249252
1059.696 .0249375
1060.275 .0249483
1060.854 .0249582
1061.433 .0249675
1062.012 .0249752
1062.592 .0249828
1063.171 .0249909
1063.750 .0249999
1064.329 .0250101
1064.908 .0250194
1065.487 .0250268
1066.066 .0250306
1066.645 .0250315
1067.224 .0250286
1067.803 .0250218
1068.382 .0250128
1068.961 .0250051
1069.540 .0249984
1070.119 .0249955
1070.698 .0249957
1071.278 .0249988
1071.857 .0250043
1072.436 .0250080
1073.016 .0250089
1073.595 .0250065
1074.175 .0250021
1074.754 .0249969
1075.334 .0249906
1075.913 .0249882
1076.493 .0249889
1077.073 .0249931
1077.653 .0249995
1078.233 .0250075
1078.813 .0250147
1079.393 .0250210
1079.974 .0250250
1080.554 .0250275
1081.135 .0250288
1081.716 .0250312
1082.296 .0250353
1082.877 .0250430
1083.458 .0250525
1084.040 .0250630
1084.621 .0250729
1085.202 .0250836
1085.784 .0250922
1086.366 .0250995
1086.948 .0251061
1087.530 .0251151
1088.112 .0251244
1088.695 .0251349
1089.277 .0251457
1089.860 .0251582
1090.443 .0251710
1091.026 .0251831
1091.610 .0251938
1092.193 .0252036
1092.777 .0252112
1093.361 .0252178
1093.946 .0252221
1094.530 .0252260
1095.115 .0252290
1095.700 .0252306
1096.285 .0252325
1096.871 .0252344
1097.456 .0252370
1098.042 .0252394
1098.628 .0252438
1099.215 .0252502
1099.802 .0252554
1100.389 .0252602
1100.976 .0252656
1101.564 .0252703
1102.152 .0252759
1102.740 .0252816
1103.329 .0252883
1103.917 .0252965
1104.507 .0253082
1105.096 .0253214
1105.686 .0253381
1106.276 .0253572
1106.867 .0253790
1107.457 .0254006
1108.049 .0254244
1108.640 .0254471
1109.232 .0254675
1109.825 .0254865
1110.417 .0255041
1111.010 .0255178
1111.604 .0255279
1112.198 .0255358
1112.792 .0255426
1113.387 .0255486
1113.982 .0255577
1114.577 .0255665
1115.173 .0255770
1115.769 .0255871
1116.366 .0255951
1116.963 .0255981
1117.561 .0255979
1118.159 .0255932
1118.758 .0255829
1119.357 .0255700
1119.957 .0255574
1120.557 .0255432
1121.157 .0255327
1121.758 .0255256
1122.360 .0255224
1122.962 .0255214
1123.564 .0255229
1124.167 .0255245
1124.771 .0255278
1125.375 .0255336
1125.980 .0255430
1126.585 .0255548
1127.191 .0255723
1127.797 .0255937
1128.404 .0256200
1129.012 .0256530
1129.620 .0256931
1130.229 .0257390
1130.838 .0257920
1131.448 .0258454
1132.058 .0259023
1132.669 .0259582
1133.281 .0260170
1133.894 .0260746
1134.507 .0261291
1135.120 .0261806
1135.735 .0262264
1136.350 .0262689
1136.965 .0263066
1137.582 .0263405
1138.199 .0263738
1138.816 .0263996
1139.435 .0264209
1140.054 .0264409
1140.674 .0264539
1141.294 .0264680
1141.916 .0264792
1142.538 .0264355
1143.160 .0265828
1143.784 .0263939
1144.408 .0265495
1145.033 .0265516
