Measurement Sequence started on: 14-45-04-498
Integration time: 36
Scans to Average: 2 
>>>>>Begin Spectral Data<<<<<
433.946 .0522319
434.870 .0549599
435.793 .0522506
436.715 .0516961
437.635 .0504860
438.555 .0505155
439.473 .0500426
440.389 .0495551
441.305 .0492128
442.219 .0489270
443.132 .0487092
444.044 .0485338
444.954 .0484199
445.863 .0483333
446.771 .0482903
447.678 .0482718
448.584 .0482776
449.488 .0482805
450.391 .0482783
451.293 .0482518
452.194 .0482109
453.094 .0481465
453.992 .0480678
454.890 .0479808
455.786 .0478930
456.681 .0478066
457.575 .0477249
458.468 .0476445
459.360 .0475691
460.250 .0474928
461.140 .0474084
462.028 .0473166
462.915 .0472207
463.801 .0471155
464.687 .0470123
465.571 .0469110
466.454 .0468203
467.335 .0467370
468.216 .0466680
469.096 .0466074
469.975 .0465534
470.853 .0465013
471.729 .0464451
472.605 .0463853
473.479 .0463214
474.353 .0462523
475.226 .0461842
476.097 .0461155
476.968 .0460498
477.838 .0459849
478.706 .0459261
479.574 .0458678
480.441 .0458161
481.306 .0457681
482.171 .0457226
483.035 .0456804
483.898 .0456427
484.760 .0456086
485.621 .0455781
486.481 .0455517
487.340 .0455282
488.198 .0455057
489.055 .0454823
489.912 .0454536
490.767 .0454229
491.622 .0453898
492.476 .0453527
493.329 .0453097
494.180 .0452645
495.032 .0452163
495.882 .0451644
496.731 .0451108
497.580 .0450547
498.427 .0449957
499.274 .0449315
500.120 .0448645
500.965 .0447929
501.809 .0447173
502.653 .0446399
503.495 .0445632
504.337 .0444861
505.178 .0444121
506.018 .0443427
506.858 .0442802
507.696 .0442297
508.534 .0441873
509.371 .0441440
510.208 .0441017
511.043 .0440594
511.878 .0440140
512.712 .0439617
513.545 .0439126
514.377 .0438637
515.209 .0438180
516.040 .0437830
516.870 .0437593
517.699 .0437460
518.528 .0437487
519.356 .0437626
520.183 .0437767
521.010 .0437928
521.836 .0438079
522.661 .0438091
523.485 .0438030
524.309 .0437893
525.132 .0437586
525.954 .0437181
526.776 .0436775
527.597 .0436338
528.417 .0435936
529.237 .0435678
530.056 .0435428
530.874 .0435129
531.692 .0434856
532.508 .0434464
533.325 .0433894
534.140 .0433242
534.955 .0432440
535.770 .0431541
536.583 .0430684
537.397 .0429909
538.209 .0429213
539.021 .0428682
539.832 .0428301
540.643 .0427947
541.453 .0427591
542.262 .0427261
543.071 .0426835
543.879 .0426383
544.687 .0425904
545.494 .0425367
546.300 .0424836
547.106 .0424349
547.911 .0423911
548.716 .0423547
549.520 .0423219
550.323 .0423038
551.126 .0422915
551.929 .0422928
552.731 .0422985
553.532 .0422990
554.332 .0422904
555.133 .0422688
555.932 .0422278
556.731 .0421671
557.530 .0420921
558.328 .0420131
559.125 .0419313
559.922 .0418608
560.719 .0417996
561.515 .0417514
562.310 .0417169
563.105 .0416919
563.899 .0416628
564.693 .0416357
565.487 .0416040
566.280 .0415680
567.072 .0415311
567.864 .0414932
568.655 .0414520
569.446 .0414135
570.236 .0413766
571.026 .0413357
571.816 .0412915
572.605 .0412492
573.393 .0412017
574.181 .0411528
574.969 .0411004
575.756 .0410453
576.543 .0409877
577.329 .0409332
578.115 .0408754
578.900 .0408167
579.685 .0407613
580.469 .0407076
581.253 .0406586
582.036 .0406150
582.820 .0405755
583.602 .0405406
584.384 .0405097
585.166 .0404801
585.947 .0404471
586.728 .0404134
587.509 .0403772
588.289 .0403378
589.069 .0402945
589.848 .0402495
590.627 .0402025
591.405 .0401555
592.183 .0401096
592.961 .0400650
593.738 .0400239
594.515 .0399856
595.291 .0399512
596.067 .0399200
596.843 .0398924
597.618 .0398676
598.393 .0398441
599.167 .0398223
599.941 .0398004
600.715 .0397786
601.488 .0397572
602.261 .0397370
603.034 .0397181
603.806 .0397005
604.578 .0396841
605.349 .0396685
606.121 .0396539
606.891 .0396398
607.662 .0396252
608.432 .0396101
609.201 .0395944
609.971 .0395779
610.740 .0395606
611.508 .0395429
612.277 .0395250
613.045 .0395068
613.812 .0394880
614.579 .0394682
615.346 .0394476
616.113 .0394268
616.879 .0394051
617.645 .0393832
618.411 .0393614
619.176 .0393395
619.941 .0393167
620.705 .0392932
621.470 .0392687
622.233 .0392425
622.997 .0392141
623.760 .0391838
624.523 .0391528
625.286 .0391203
626.048 .0390873
626.810 .0390548
627.572 .0390230
628.333 .0389924
629.095 .0389617
629.855 .0389311
630.616 .0389009
631.376 .0388706
632.136 .0388394
632.895 .0388072
633.655 .0387757
634.414 .0387435
635.172 .0387111
635.931 .0386796
636.689 .0386488
637.447 .0386185
638.204 .0385897
638.962 .0385618
639.718 .0385348
640.475 .0385088
641.231 .0384827
641.988 .0384563
642.743 .0384298
643.499 .0384022
644.254 .0383725
645.009 .0383425
645.764 .0383133
646.518 .0382842
647.272 .0382564
648.026 .0382306
648.780 .0382064
649.533 .0381838
650.286 .0381620
651.039 .0381405
651.792 .0381189
652.544 .0380973
653.296 .0380752
654.048 .0380535
654.799 .0380329
655.550 .0380136
656.301 .0379958
657.052 .0379800
657.802 .0379652
658.552 .0379503
659.302 .0379353
660.052 .0379201
660.801 .0379036
661.550 .0378866
662.299 .0378688
663.048 .0378507
663.796 .0378324
664.544 .0378142
665.292 .0377951
666.040 .0377756
666.787 .0377551
667.534 .0377335
668.281 .0377108
669.028 .0376874
669.774 .0376634
670.521 .0376397
671.266 .0376165
672.012 .0375941
672.758 .0375727
673.503 .0375524
674.248 .0375322
674.992 .0375123
675.737 .0374921
676.481 .0374709
677.225 .0374491
677.969 .0374265
678.712 .0374035
679.455 .0373802
680.199 .0373568
680.941 .0373334
681.684 .0373107
682.426 .0372884
683.168 .0372666
683.910 .0372449
684.652 .0372235
685.393 .0372020
686.134 .0371808
686.875 .0371599
687.616 .0371397
688.356 .0371206
689.097 .0371031
689.837 .0370867
690.576 .0370713
691.316 .0370567
692.055 .0370426
692.794 .0370283
693.533 .0370136
694.272 .0369983
695.010 .0369826
695.748 .0369663
696.486 .0369498
697.224 .0369328
697.962 .0369157
698.699 .0368982
699.436 .0368798
700.173 .0368603
700.909 .0368398
701.646 .0368185
702.382 .0367966
703.118 .0367746
703.853 .0367526
704.589 .0367311
705.324 .0367099
706.059 .0366893
706.794 .0366687
707.529 .0366477
708.263 .0366267
708.997 .0366053
709.731 .0365835
710.465 .0365615
711.198 .0365398
711.931 .0365187
712.664 .0364980
713.397 .0364774
714.130 .0364563
714.862 .0364355
715.594 .0364145
716.326 .0363936
717.058 .0363731
717.789 .0363535
718.520 .0363344
719.251 .0363162
719.982 .0362986
720.713 .0362812
721.443 .0362642
722.173 .0362468
722.903 .0362286
723.633 .0362100
724.362 .0361906
725.091 .0361706
725.820 .0361505
726.549 .0361306
727.278 .0361100
728.006 .0360897
728.734 .0360688
729.462 .0360476
730.190 .0360264
730.917 .0360053
731.644 .0359842
732.371 .0359637
733.098 .0359437
733.825 .0359237
734.551 .0359040
735.277 .0358846
736.003 .0358646
736.728 .0358450
737.454 .0358255
738.179 .0358061
738.904 .0357875
739.629 .0357702
740.353 .0357539
741.077 .0357393
741.801 .0357258
742.525 .0357125
743.249 .0356995
743.972 .0356864
744.695 .0356730
745.418 .0356592
746.141 .0356455
746.863 .0356319
747.585 .0356187
748.307 .0356060
749.029 .0355930
749.750 .0355799
750.472 .0355665
751.193 .0355521
751.913 .0355367
752.634 .0355203
753.354 .0355031
754.074 .0354854
754.794 .0354679
755.514 .0354505
756.233 .0354333
756.952 .0354165
757.671 .0353999
758.390 .0353829
759.108 .0353660
759.826 .0353489
760.544 .0353321
761.262 .0353163
761.979 .0353016
762.697 .0352881
763.414 .0352763
764.130 .0352659
764.847 .0352562
765.563 .0352467
766.279 .0352370
766.995 .0352262
767.710 .0352143
768.426 .0352012
769.141 .0351868
769.855 .0351715
770.570 .0351559
771.284 .0351405
771.998 .0351255
772.712 .0351111
773.426 .0350973
774.139 .0350838
774.852 .0350704
775.565 .0350562
776.277 .0350414
776.990 .0350259
777.702 .0350097
778.414 .0349931
779.125 .0349762
779.836 .0349596
780.547 .0349436
781.258 .0349284
781.969 .0349140
782.679 .0349002
783.389 .0348864
784.099 .0348724
784.808 .0348582
785.517 .0348436
786.226 .0348286
786.935 .0348135
787.643 .0347987
788.352 .0347844
789.060 .0347705
789.767 .0347570
790.475 .0347438
791.182 .0347309
791.889 .0347179
792.595 .0347048
793.301 .0346911
794.008 .0346769
794.713 .0346626
795.419 .0346479
796.124 .0346328
796.829 .0346174
797.534 .0346016
798.238 .0345856
798.942 .0345695
799.646 .0345534
800.350 .0345368
801.053 .0345203
801.756 .0345038
802.459 .0344870
803.162 .0344702
803.864 .0344531
804.566 .0344360
805.267 .0344190
805.969 .0344020
806.670 .0343850
807.371 .0343686
808.071 .0343530
808.772 .0343379
809.472 .0343229
810.171 .0343079
810.871 .0342927
811.570 .0342777
812.269 .0342622
812.967 .0342459
813.666 .0342292
814.364 .0342123
815.061 .0341952
815.759 .0341788
816.456 .0341625
817.153 .0341468
817.849 .0341316
818.545 .0341166
819.241 .0341013
819.937 .0340859
820.632 .0340701
821.327 .0340537
822.022 .0340371
822.717 .0340196
823.411 .0340014
824.105 .0339834
824.798 .0339658
825.491 .0339486
826.184 .0339321
826.877 .0339165
827.569 .0339015
828.261 .0338873
828.953 .0338728
829.645 .0338577
830.336 .0338422
831.027 .0338263
831.717 .0338099
832.407 .0337932
833.097 .0337769
833.787 .0337609
834.476 .0337459
835.165 .0337320
835.854 .0337187
836.542 .0337063
837.230 .0336940
837.918 .0336819
838.605 .0336694
839.292 .0336568
839.979 .0336440
840.665 .0336318
841.352 .0336201
842.037 .0336086
842.723 .0335973
843.408 .0335863
844.093 .0335751
844.777 .0335638
845.462 .0335519
846.145 .0335392
846.829 .0335259
847.512 .0335125
848.195 .0334990
848.878 .0334863
849.560 .0334741
850.242 .0334623
850.923 .0334510
851.605 .0334395
852.286 .0334274
852.966 .0334147
853.646 .0334016
854.326 .0333881
855.006 .0333743
855.685 .0333603
856.364 .0333463
857.043 .0333327
857.721 .0333197
858.399 .0333063
859.077 .0332926
859.754 .0332778
860.431 .0332615
861.107 .0332439
861.784 .0332245
862.459 .0332039
863.135 .0331827
863.810 .0331610
864.485 .0331389
865.160 .0331175
865.834 .0330969
866.508 .0330772
867.181 .0330583
867.854 .0330399
868.527 .0330215
869.199 .0330028
869.872 .0329836
870.543 .0329641
871.215 .0329446
871.886 .0329252
872.557 .0329052
873.227 .0328857
873.897 .0328664
874.567 .0328470
875.236 .0328278
875.905 .0328090
876.573 .0327905
877.242 .0327718
877.909 .0327532
878.577 .0327351
879.244 .0327174
879.911 .0326998
880.577 .0326826
881.243 .0326655
881.909 .0326482
882.575 .0326308
883.240 .0326134
883.904 .0325971
884.569 .0325813
885.232 .0325656
885.896 .0325502
886.559 .0325352
887.222 .0325202
887.885 .0325047
888.547 .0324889
889.208 .0324728
889.870 .0324559
890.531 .0324387
891.192 .0324214
891.852 .0324042
892.512 .0323876
893.171 .0323716
893.830 .0323565
894.489 .0323424
895.148 .0323286
895.806 .0323156
896.464 .0323035
897.121 .0322919
897.778 .0322806
898.434 .0322695
899.091 .0322582
899.747 .0322462
900.402 .0322333
901.057 .0322199
901.712 .0322060
902.366 .0321914
903.020 .0321769
903.674 .0321627
904.327 .0321487
904.980 .0321351
905.633 .0321221
906.285 .0321097
906.936 .0320976
907.588 .0320858
908.239 .0320742
908.889 .0320631
909.540 .0320528
910.190 .0320425
910.839 .0320331
911.488 .0320242
912.137 .0320159
912.785 .0320074
913.433 .0319997
914.081 .0319922
914.728 .0319850
915.375 .0319779
916.021 .0319703
916.668 .0319617
917.313 .0319519
917.959 .0319401
918.604 .0319269
919.248 .0319121
919.892 .0318962
920.536 .0318794
921.180 .0318633
921.823 .0318478
922.465 .0318332
923.108 .0318190
923.750 .0318051
924.391 .0317905
925.032 .0317747
925.673 .0317574
926.313 .0317387
926.953 .0317191
927.593 .0316988
928.232 .0316780
928.871 .0316578
929.510 .0316379
930.148 .0316186
930.786 .0315993
931.423 .0315804
932.060 .0315615
932.697 .0315421
933.333 .0315229
933.969 .0315037
934.604 .0314846
935.239 .0314654
935.874 .0314463
936.508 .0314274
937.142 .0314085
937.776 .0313898
938.409 .0313713
939.042 .0313533
939.674 .0313355
940.306 .0313180
940.938 .0313009
941.569 .0312841
942.200 .0312673
942.830 .0312498
943.460 .0312317
944.090 .0312124
944.720 .0311917
945.349 .0311699
945.977 .0311474
946.606 .0311244
947.233 .0311012
947.861 .0310782
948.488 .0310554
949.115 .0310334
949.741 .0310120
950.367 .0309913
950.993 .0309711
951.618 .0309509
952.243 .0309306
952.868 .0309098
953.492 .0308888
954.115 .0308671
954.739 .0308456
955.362 .0308248
955.984 .0308050
956.607 .0307863
957.229 .0307687
957.850 .0307520
958.471 .0307357
959.092 .0307187
959.713 .0307003
960.333 .0306799
960.952 .0306581
961.572 .0306350
962.191 .0306112
962.809 .0305876
963.428 .0305650
964.045 .0305435
964.663 .0305237
965.280 .0305043
965.897 .0304854
966.513 .0304674
967.129 .0304497
967.745 .0304324
968.361 .0304159
968.976 .0304003
969.590 .0303859
970.205 .0303733
970.818 .0303628
971.432 .0303536
972.045 .0303465
972.658 .0303403
973.271 .0303344
973.883 .0303283
974.495 .0303213
975.106 .0303133
975.717 .0303048
976.328 .0302951
976.938 .0302842
977.548 .0302734
978.158 .0302631
978.768 .0302530
979.377 .0302435
979.985 .0302336
980.594 .0302234
981.202 .0302123
981.809 .0301997
982.417 .0301853
983.024 .0301706
983.631 .0301554
984.237 .0301401
984.843 .0301256
985.449 .0301117
986.054 .0300986
986.659 .0300863
987.264 .0300742
987.868 .0300616
988.472 .0300493
989.076 .0300371
989.679 .0300249
990.282 .0300139
990.885 .0300035
991.487 .0299936
992.090 .0299843
992.691 .0299756
993.293 .0299668
993.894 .0299585
994.495 .0299505
995.095 .0299429
995.696 .0299360
996.296 .0299297
996.895 .0299239
997.494 .0299191
998.093 .0299150
998.692 .0299103
999.291 .0299053
999.889 .0298999
1000.487 .0298934
1001.084 .0298864
1001.681 .0298787
1002.278 .0298706
1002.875 .0298627
1003.471 .0298546
1004.067 .0298466
1004.663 .0298393
1005.258 .0298323
1005.854 .0298251
1006.449 .0298185
1007.043 .0298119
1007.638 .0298047
1008.232 .0297973
1008.826 .0297901
1009.419 .0297830
1010.012 .0297766
1010.605 .0297713
1011.198 .0297668
1011.791 .0297637
1012.383 .0297617
1012.975 .0297602
1013.566 .0297595
1014.158 .0297592
1014.749 .0297588
1015.340 .0297591
1015.931 .0297604
1016.521 .0297628
1017.111 .0297668
1017.701 .0297725
1018.291 .0297798
1018.880 .0297881
1019.470 .0297965
1020.059 .0298048
1020.647 .0298126
1021.236 .0298201
1021.824 .0298261
1022.412 .0298315
1023.000 .0298359
1023.588 .0298392
1024.175 .0298416
1024.762 .0298426
1025.349 .0298420
1025.936 .0298399
1026.523 .0298350
1027.109 .0298282
1027.695 .0298195
1028.281 .0298094
1028.867 .0297978
1029.452 .0297862
1030.038 .0297749
1030.623 .0297643
1031.208 .0297547
1031.792 .0297469
1032.377 .0297407
1032.961 .0297355
1033.546 .0297310
1034.130 .0297274
1034.714 .0297251
1035.297 .0297234
1035.881 .0297227
1036.464 .0297235
1037.047 .0297261
1037.630 .0297303
1038.213 .0297359
1038.796 .0297434
1039.378 .0297522
1039.961 .0297616
1040.543 .0297706
1041.125 .0297786
1041.707 .0297850
1042.289 .0297893
1042.871 .0297916
1043.452 .0297924
1044.034 .0297918
1044.615 .0297899
1045.196 .0297870
1045.777 .0297835
1046.358 .0297785
1046.939 .0297720
1047.520 .0297634
1048.101 .0297518
1048.681 .0297369
1049.262 .0297195
1049.842 .0296994
1050.422 .0296781
1051.002 .0296571
1051.582 .0296374
1052.162 .0296200
1052.742 .0296055
1053.322 .0295947
1053.902 .0295862
1054.482 .0295796
1055.061 .0295737
1055.641 .0295677
1056.220 .0295624
1056.800 .0295569
1057.379 .0295523
1057.958 .0295494
1058.538 .0295488
1059.117 .0295503
1059.696 .0295529
1060.275 .0295571
1060.854 .0295608
1061.433 .0295639
1062.012 .0295657
1062.592 .0295662
1063.171 .0295649
1063.750 .0295625
1064.329 .0295586
1064.908 .0295532
1065.487 .0295457
1066.066 .0295371
1066.645 .0295267
1067.224 .0295151
1067.803 .0295019
1068.382 .0294875
1068.961 .0294723
1069.540 .0294570
1070.119 .0294403
1070.698 .0294236
1071.278 .0294061
1071.857 .0293878
1072.436 .0293689
1073.016 .0293507
1073.595 .0293334
1074.175 .0293182
1074.754 .0293058
1075.334 .0292963
1075.913 .0292885
1076.493 .0292829
1077.073 .0292775
1077.653 .0292721
1078.233 .0292659
1078.813 .0292578
1079.393 .0292488
1079.974 .0292389
1080.554 .0292289
1081.135 .0292200
1081.716 .0292122
1082.296 .0292061
1082.877 .0291996
1083.458 .0291942
1084.040 .0291881
1084.621 .0291816
1085.202 .0291749
1085.784 .0291687
1086.366 .0291627
1086.948 .0291569
1087.530 .0291517
1088.112 .0291474
1088.695 .0291434
1089.277 .0291402
1089.860 .0291368
1090.443 .0291339
1091.026 .0291295
1091.610 .0291261
1092.193 .0291207
1092.777 .0291161
1093.361 .0291113
1093.946 .0291058
1094.530 .0290994
1095.115 .0290930
1095.700 .0290846
1096.285 .0290756
1096.871 .0290673
1097.456 .0290606
1098.042 .0290539
1098.628 .0290500
1099.215 .0290471
1099.802 .0290459
1100.389 .0290457
1100.976 .0290475
1101.564 .0290470
1102.152 .0290464
1102.740 .0290447
1103.329 .0290400
1103.917 .0290360
1104.507 .0290317
1105.096 .0290273
1105.686 .0290237
1106.276 .0290184
1106.867 .0290122
1107.457 .0290034
1108.049 .0289952
1108.640 .0289864
1109.232 .0289771
1109.825 .0289718
1110.417 .0289686
1111.010 .0289700
1111.604 .0289774
1112.198 .0289906
1112.792 .0290077
1113.387 .0290296
1113.982 .0290518
1114.577 .0290763
1115.173 .0291018
1115.769 .0291276
1116.366 .0291527
1116.963 .0291781
1117.561 .0292033
1118.159 .0292297
1118.758 .0292572
1119.357 .0292882
1119.957 .0293191
1120.557 .0293533
1121.157 .0293871
1121.758 .0294201
1122.360 .0294539
1122.962 .0294864
1123.564 .0295184
1124.167 .0295487
1124.771 .0295749
1125.375 .0295988
1125.980 .0296228
1126.585 .0296467
1127.191 .0296715
1127.797 .0297029
1128.404 .0297373
1129.012 .0297749
1129.620 .0298174
1130.229 .0298596
1130.838 .0299020
1131.448 .0299390
1132.058 .0299716
1132.669 .0299983
1133.281 .0300239
1133.894 .0300490
1134.507 .0300788
1135.120 .0301261
1135.735 .0301858
1136.350 .0302575
1136.965 .0303454
1137.582 .0304425
1138.199 .0305424
1138.816 .0306409
1139.435 .0307370
1140.054 .0308343
1140.674 .0309382
1141.294 .0310514
1141.916 .0311555
1142.538 .0311638
1143.160 .0314633
1143.784 .0317007
1144.408 .0319226
1145.033 .0314657
