Measurement Sequence started on: 14-45-04-498
Integration time: 36
Scans to Average: 2 
>>>>>Begin Spectral Data<<<<<
433.946 .0472030
434.870 .0399522
435.793 .0356329
436.715 .0373345
437.635 .0370500
438.555 .0369954
439.473 .0364879
440.389 .0363304
441.305 .0363468
442.219 .0363580
443.132 .0364279
444.044 .0365643
444.954 .0367167
445.863 .0368908
446.771 .0370740
447.678 .0372577
448.584 .0374357
449.488 .0375966
450.391 .0377390
451.293 .0378599
452.194 .0379634
453.094 .0380439
453.992 .0380962
454.890 .0381257
455.786 .0381282
456.681 .0381038
457.575 .0380597
458.468 .0380004
459.360 .0379270
460.250 .0378430
461.140 .0377462
462.028 .0376418
462.915 .0375286
463.801 .0374061
464.687 .0372784
465.571 .0371514
466.454 .0370289
467.335 .0369125
468.216 .0368068
469.096 .0367168
469.975 .0366381
470.853 .0365694
471.729 .0365086
472.605 .0364533
473.479 .0363973
474.353 .0363383
475.226 .0362767
476.097 .0362150
476.968 .0361558
477.838 .0360991
478.706 .0360450
479.574 .0359961
480.441 .0359518
481.306 .0359071
482.171 .0358624
483.035 .0358180
483.898 .0357710
484.760 .0357232
485.621 .0356756
486.481 .0356270
487.340 .0355792
488.198 .0355332
489.055 .0354889
489.912 .0354464
490.767 .0354054
491.622 .0353641
492.476 .0353252
493.329 .0352901
494.180 .0352570
495.032 .0352254
495.882 .0351981
496.731 .0351712
497.580 .0351448
498.427 .0351147
499.274 .0350810
500.120 .0350454
500.965 .0350077
501.809 .0349673
502.653 .0349232
503.495 .0348777
504.337 .0348304
505.178 .0347793
506.018 .0347262
506.858 .0346669
507.696 .0346082
508.534 .0345463
509.371 .0344841
510.208 .0344258
511.043 .0343735
511.878 .0343287
512.712 .0342938
513.545 .0342645
514.377 .0342441
515.209 .0342290
516.040 .0342227
516.870 .0342255
517.699 .0342367
518.528 .0342527
519.356 .0342771
520.183 .0343037
521.010 .0343321
521.836 .0343528
522.661 .0343702
523.485 .0343726
524.309 .0343612
525.132 .0343316
525.954 .0342812
526.776 .0342191
527.597 .0341491
528.417 .0340638
529.237 .0339727
530.056 .0338714
530.874 .0337635
531.692 .0336501
532.508 .0335362
533.325 .0334237
534.140 .0333195
534.955 .0332258
535.770 .0331424
536.583 .0330721
537.397 .0330254
538.209 .0329911
539.021 .0329739
539.832 .0329617
540.643 .0329480
541.453 .0329330
542.262 .0329139
543.071 .0328857
543.879 .0328565
544.687 .0328260
545.494 .0327949
546.300 .0327688
547.106 .0327475
547.911 .0327306
548.716 .0327233
549.520 .0327165
550.323 .0327031
551.126 .0326807
551.929 .0326510
552.731 .0326079
553.532 .0325600
554.332 .0325060
555.133 .0324480
555.932 .0323944
556.731 .0323423
557.530 .0322910
558.328 .0322462
559.125 .0322083
559.922 .0321721
560.719 .0321383
561.515 .0321085
562.310 .0320826
563.105 .0320655
563.899 .0320561
564.693 .0320547
565.487 .0320587
566.280 .0320677
567.072 .0320774
567.864 .0320844
568.655 .0320872
569.446 .0320829
570.236 .0320736
571.026 .0320565
571.816 .0320345
572.605 .0320072
573.393 .0319766
574.181 .0319423
574.969 .0319046
575.756 .0318609
576.543 .0318129
577.329 .0317627
578.115 .0317099
578.900 .0316555
579.685 .0316025
580.469 .0315523
581.253 .0315079
582.036 .0314686
582.820 .0314341
583.602 .0314036
584.384 .0313775
585.166 .0313537
585.947 .0313304
586.728 .0313069
587.509 .0312831
588.289 .0312597
589.069 .0312361
589.848 .0312125
590.627 .0311905
591.405 .0311705
592.183 .0311525
592.961 .0311360
593.738 .0311211
594.515 .0311077
595.291 .0310953
596.067 .0310846
596.843 .0310745
597.618 .0310654
598.393 .0310569
599.167 .0310492
599.941 .0310420
600.715 .0310353
601.488 .0310292
602.261 .0310231
603.034 .0310171
603.806 .0310103
604.578 .0310020
605.349 .0309926
606.121 .0309819
606.891 .0309695
607.662 .0309547
608.432 .0309386
609.201 .0309204
609.971 .0309005
610.740 .0308797
611.508 .0308580
612.277 .0308360
613.045 .0308135
613.812 .0307903
614.579 .0307663
615.346 .0307420
616.113 .0307177
616.879 .0306926
617.645 .0306680
618.411 .0306438
619.176 .0306201
619.941 .0305971
620.705 .0305750
621.470 .0305530
622.233 .0305313
622.997 .0305099
623.760 .0304884
624.523 .0304669
625.286 .0304456
626.048 .0304248
626.810 .0304041
627.572 .0303835
628.333 .0303639
629.095 .0303441
629.855 .0303251
630.616 .0303065
631.376 .0302881
632.136 .0302700
632.895 .0302520
633.655 .0302347
634.414 .0302180
635.172 .0302022
635.931 .0301872
636.689 .0301725
637.447 .0301584
638.204 .0301443
638.962 .0301299
639.718 .0301157
640.475 .0301017
641.231 .0300874
641.988 .0300732
642.743 .0300591
643.499 .0300455
644.254 .0300321
645.009 .0300192
645.764 .0300068
646.518 .0299941
647.272 .0299813
648.026 .0299681
648.780 .0299548
649.533 .0299419
650.286 .0299291
651.039 .0299168
651.792 .0299049
652.544 .0298934
653.296 .0298818
654.048 .0298701
654.799 .0298584
655.550 .0298464
656.301 .0298338
657.052 .0298211
657.802 .0298085
658.552 .0297962
659.302 .0297847
660.052 .0297734
660.801 .0297622
661.550 .0297511
662.299 .0297391
663.048 .0297262
663.796 .0297123
664.544 .0296977
665.292 .0296822
666.040 .0296667
666.787 .0296512
667.534 .0296360
668.281 .0296214
669.028 .0296072
669.774 .0295934
670.521 .0295799
671.266 .0295666
672.012 .0295538
672.758 .0295417
673.503 .0295300
674.248 .0295181
674.992 .0295064
675.737 .0294950
676.481 .0294835
677.225 .0294719
677.969 .0294603
678.712 .0294487
679.455 .0294373
680.199 .0294258
680.941 .0294144
681.684 .0294031
682.426 .0293914
683.168 .0293787
683.910 .0293647
684.652 .0293498
685.393 .0293338
686.134 .0293173
686.875 .0293013
687.616 .0292859
688.356 .0292713
689.097 .0292580
689.837 .0292456
690.576 .0292342
691.316 .0292234
692.055 .0292125
692.794 .0292017
693.533 .0291908
694.272 .0291799
695.010 .0291690
695.748 .0291583
696.486 .0291479
697.224 .0291373
697.962 .0291266
698.699 .0291159
699.436 .0291049
700.173 .0290939
700.909 .0290828
701.646 .0290719
702.382 .0290612
703.118 .0290506
703.853 .0290398
704.589 .0290291
705.324 .0290178
706.059 .0290064
706.794 .0289948
707.529 .0289834
708.263 .0289726
708.997 .0289626
709.731 .0289531
710.465 .0289445
711.198 .0289363
711.931 .0289280
712.664 .0289193
713.397 .0289101
714.130 .0288999
714.862 .0288894
715.594 .0288787
716.326 .0288681
717.058 .0288578
717.789 .0288479
718.520 .0288375
719.251 .0288265
719.982 .0288142
720.713 .0288006
721.443 .0287858
722.173 .0287700
722.903 .0287534
723.633 .0287369
724.362 .0287206
725.091 .0287047
725.820 .0286893
726.549 .0286744
727.278 .0286592
728.006 .0286435
728.734 .0286270
729.462 .0286099
730.190 .0285930
730.917 .0285765
731.644 .0285609
732.371 .0285469
733.098 .0285343
733.825 .0285228
734.551 .0285116
735.277 .0285008
736.003 .0284892
736.728 .0284765
737.454 .0284633
738.179 .0284495
738.904 .0284354
739.629 .0284218
740.353 .0284091
741.077 .0283971
741.801 .0283858
742.525 .0283748
743.249 .0283637
743.972 .0283526
744.695 .0283412
745.418 .0283294
746.141 .0283182
746.863 .0283083
747.585 .0282991
748.307 .0282910
749.029 .0282841
749.750 .0282780
750.472 .0282726
751.193 .0282677
751.913 .0282628
752.634 .0282579
753.354 .0282530
754.074 .0282480
754.794 .0282429
755.514 .0282378
756.233 .0282320
756.952 .0282254
757.671 .0282183
758.390 .0282101
759.108 .0282013
759.826 .0281930
760.544 .0281850
761.262 .0281778
761.979 .0281709
762.697 .0281641
763.414 .0281572
764.130 .0281503
764.847 .0281426
765.563 .0281344
766.279 .0281262
766.995 .0281182
767.710 .0281106
768.426 .0281040
769.141 .0280980
769.855 .0280925
770.570 .0280869
771.284 .0280807
771.998 .0280733
772.712 .0280653
773.426 .0280565
774.139 .0280475
774.852 .0280382
775.565 .0280289
776.277 .0280192
776.990 .0280096
777.702 .0279994
778.414 .0279888
779.125 .0279775
779.836 .0279657
780.547 .0279536
781.258 .0279419
781.969 .0279305
782.679 .0279199
783.389 .0279097
784.099 .0279000
784.808 .0278900
785.517 .0278799
786.226 .0278688
786.935 .0278571
787.643 .0278448
788.352 .0278328
789.060 .0278209
789.767 .0278099
790.475 .0277995
791.182 .0277897
791.889 .0277801
792.595 .0277703
793.301 .0277593
794.008 .0277473
794.713 .0277340
795.419 .0277197
796.124 .0277040
796.829 .0276883
797.534 .0276725
798.238 .0276579
798.942 .0276442
799.646 .0276317
800.350 .0276199
801.053 .0276092
801.756 .0275985
802.459 .0275878
803.162 .0275771
803.864 .0275664
804.566 .0275557
805.267 .0275457
805.969 .0275360
806.670 .0275275
807.371 .0275202
808.071 .0275146
808.772 .0275097
809.472 .0275056
810.171 .0275016
810.871 .0274973
811.570 .0274926
812.269 .0274870
812.967 .0274804
813.666 .0274736
814.364 .0274667
815.061 .0274601
815.759 .0274543
816.456 .0274499
817.153 .0274463
817.849 .0274432
818.545 .0274400
819.241 .0274364
819.937 .0274318
820.632 .0274260
821.327 .0274187
822.022 .0274106
822.717 .0274021
823.411 .0273935
824.105 .0273853
824.798 .0273779
825.491 .0273708
826.184 .0273638
826.877 .0273564
827.569 .0273479
828.261 .0273384
828.953 .0273274
829.645 .0273152
830.336 .0273025
831.027 .0272897
831.717 .0272774
832.407 .0272663
833.097 .0272566
833.787 .0272478
834.476 .0272400
835.165 .0272326
835.854 .0272255
836.542 .0272185
837.230 .0272108
837.918 .0272027
838.605 .0271942
839.292 .0271856
839.979 .0271767
840.665 .0271685
841.352 .0271606
842.037 .0271531
842.723 .0271457
843.408 .0271380
844.093 .0271297
844.777 .0271206
845.462 .0271098
846.145 .0270970
846.829 .0270821
847.512 .0270654
848.195 .0270467
848.878 .0270276
849.560 .0270078
850.242 .0269882
850.923 .0269686
851.605 .0269492
852.286 .0269298
852.966 .0269109
853.646 .0268919
854.326 .0268730
855.006 .0268540
855.685 .0268350
856.364 .0268160
857.043 .0267977
857.721 .0267800
858.399 .0267633
859.077 .0267472
859.754 .0267317
860.431 .0267165
861.107 .0267021
861.784 .0266880
862.459 .0266746
863.135 .0266622
863.810 .0266502
864.485 .0266384
865.160 .0266268
865.834 .0266154
866.508 .0266043
867.181 .0265934
867.854 .0265830
868.527 .0265728
869.199 .0265631
869.872 .0265537
870.543 .0265446
871.215 .0265358
871.886 .0265270
872.557 .0265174
873.227 .0265069
873.897 .0264954
874.567 .0264830
875.236 .0264702
875.905 .0264574
876.573 .0264453
877.242 .0264338
877.909 .0264233
878.577 .0264139
879.244 .0264053
879.911 .0263975
880.577 .0263902
881.243 .0263833
881.909 .0263768
882.575 .0263706
883.240 .0263650
883.904 .0263598
884.569 .0263559
885.232 .0263526
885.896 .0263497
886.559 .0263473
887.222 .0263450
887.885 .0263425
888.547 .0263398
889.208 .0263365
889.870 .0263327
890.531 .0263288
891.192 .0263250
891.852 .0263215
892.512 .0263188
893.171 .0263171
893.830 .0263166
894.489 .0263172
895.148 .0263187
895.806 .0263203
896.464 .0263224
897.121 .0263245
897.778 .0263261
898.434 .0263273
899.091 .0263278
899.747 .0263279
900.402 .0263273
901.057 .0263258
901.712 .0263230
902.366 .0263193
903.020 .0263147
903.674 .0263091
904.327 .0263029
904.980 .0262964
905.633 .0262898
906.285 .0262834
906.936 .0262771
907.588 .0262706
908.239 .0262638
908.889 .0262567
909.540 .0262485
910.190 .0262395
910.839 .0262296
911.488 .0262191
912.137 .0262084
912.785 .0261978
913.433 .0261875
914.081 .0261771
914.728 .0261669
915.375 .0261563
916.021 .0261450
916.668 .0261322
917.313 .0261181
917.959 .0261028
918.604 .0260865
919.248 .0260695
919.892 .0260525
920.536 .0260360
921.180 .0260208
921.823 .0260059
922.465 .0259918
923.108 .0259778
923.750 .0259635
924.391 .0259480
925.032 .0259310
925.673 .0259126
926.313 .0258932
926.953 .0258728
927.593 .0258520
928.232 .0258311
928.871 .0258104
929.510 .0257896
930.148 .0257688
930.786 .0257477
931.423 .0257262
932.060 .0257042
932.697 .0256820
933.333 .0256595
933.969 .0256370
934.604 .0256146
935.239 .0255921
935.874 .0255703
936.508 .0255488
937.142 .0255273
937.776 .0255059
938.409 .0254846
939.042 .0254632
939.674 .0254418
940.306 .0254199
940.938 .0253981
941.569 .0253762
942.200 .0253544
942.830 .0253323
943.460 .0253105
944.090 .0252889
944.720 .0252677
945.349 .0252467
945.977 .0252262
946.606 .0252061
947.233 .0251865
947.861 .0251671
948.488 .0251478
949.115 .0251288
949.741 .0251104
950.367 .0250924
950.993 .0250754
951.618 .0250596
952.243 .0250448
952.868 .0250311
953.492 .0250186
954.115 .0250068
954.739 .0249957
955.362 .0249849
955.984 .0249742
956.607 .0249635
957.229 .0249529
957.850 .0249425
958.471 .0249322
959.092 .0249221
959.713 .0249119
960.333 .0249013
960.952 .0248906
961.572 .0248798
962.191 .0248690
962.809 .0248587
963.428 .0248491
964.045 .0248403
964.663 .0248319
965.280 .0248242
965.897 .0248175
966.513 .0248116
967.129 .0248068
967.745 .0248032
968.361 .0248008
968.976 .0247999
969.590 .0248005
970.205 .0248026
970.818 .0248061
971.432 .0248106
972.045 .0248154
972.658 .0248199
973.271 .0248241
973.883 .0248274
974.495 .0248298
975.106 .0248322
975.717 .0248343
976.328 .0248360
976.938 .0248381
977.548 .0248408
978.158 .0248436
978.768 .0248463
979.377 .0248486
979.985 .0248503
980.594 .0248515
981.202 .0248522
981.809 .0248524
982.417 .0248530
983.024 .0248544
983.631 .0248564
984.237 .0248586
984.843 .0248611
985.449 .0248631
986.054 .0248639
986.659 .0248642
987.264 .0248634
987.868 .0248621
988.472 .0248613
989.076 .0248613
989.679 .0248626
990.282 .0248653
990.885 .0248688
991.487 .0248724
992.090 .0248758
992.691 .0248784
993.293 .0248793
993.894 .0248793
994.495 .0248792
995.095 .0248789
995.696 .0248793
996.296 .0248809
996.895 .0248830
997.494 .0248861
998.093 .0248888
998.692 .0248902
999.291 .0248900
999.889 .0248879
1000.487 .0248843
1001.084 .0248792
1001.681 .0248740
1002.278 .0248693
1002.875 .0248657
1003.471 .0248638
1004.067 .0248627
1004.663 .0248624
1005.258 .0248624
1005.854 .0248611
1006.449 .0248587
1007.043 .0248545
1007.638 .0248485
1008.232 .0248412
1008.826 .0248336
1009.419 .0248262
1010.012 .0248197
1010.605 .0248146
1011.198 .0248104
1011.791 .0248068
1012.383 .0248034
1012.975 .0247992
1013.566 .0247940
1014.158 .0247877
1014.749 .0247800
1015.340 .0247717
1015.931 .0247631
1016.521 .0247545
1017.111 .0247469
1017.701 .0247399
1018.291 .0247335
1018.880 .0247274
1019.470 .0247211
1020.059 .0247140
1020.647 .0247059
1021.236 .0246968
1021.824 .0246870
1022.412 .0246764
1023.000 .0246661
1023.588 .0246559
1024.175 .0246467
1024.762 .0246383
1025.349 .0246306
1025.936 .0246241
1026.523 .0246186
1027.109 .0246135
1027.695 .0246083
1028.281 .0246027
1028.867 .0245967
1029.452 .0245900
1030.038 .0245830
1030.623 .0245749
1031.208 .0245667
1031.792 .0245579
1032.377 .0245489
1032.961 .0245399
1033.546 .0245311
1034.130 .0245224
1034.714 .0245145
1035.297 .0245067
1035.881 .0244983
1036.464 .0244893
1037.047 .0244800
1037.630 .0244702
1038.213 .0244606
1038.796 .0244511
1039.378 .0244422
1039.961 .0244345
1040.543 .0244281
1041.125 .0244226
1041.707 .0244178
1042.289 .0244134
1042.871 .0244089
1043.452 .0244038
1044.034 .0243975
1044.615 .0243897
1045.196 .0243810
1045.777 .0243721
1046.358 .0243628
1046.939 .0243542
1047.520 .0243465
1048.101 .0243400
1048.681 .0243346
1049.262 .0243305
1049.842 .0243264
1050.422 .0243233
1051.002 .0243194
1051.582 .0243145
1052.162 .0243088
1052.742 .0243019
1053.322 .0242938
1053.902 .0242856
1054.482 .0242774
1055.061 .0242702
1055.641 .0242638
1056.220 .0242596
1056.800 .0242566
1057.379 .0242556
1057.958 .0242554
1058.538 .0242550
1059.117 .0242541
1059.696 .0242519
1060.275 .0242473
1060.854 .0242422
1061.433 .0242374
1062.012 .0242332
1062.592 .0242304
1063.171 .0242301
1063.750 .0242323
1064.329 .0242372
1064.908 .0242422
1065.487 .0242471
1066.066 .0242510
1066.645 .0242531
1067.224 .0242525
1067.803 .0242501
1068.382 .0242477
1068.961 .0242456
1069.540 .0242450
1070.119 .0242464
1070.698 .0242497
1071.278 .0242551
1071.857 .0242615
1072.436 .0242675
1073.016 .0242729
1073.595 .0242768
1074.175 .0242785
1074.754 .0242797
1075.334 .0242799
1075.913 .0242787
1076.493 .0242769
1077.073 .0242752
1077.653 .0242742
1078.233 .0242733
1078.813 .0242745
1079.393 .0242771
1079.974 .0242815
1080.554 .0242881
1081.135 .0242958
1081.716 .0243040
1082.296 .0243135
1082.877 .0243227
1083.458 .0243313
1084.040 .0243395
1084.621 .0243474
1085.202 .0243566
1085.784 .0243684
1086.366 .0243829
1086.948 .0243997
1087.530 .0244184
1088.112 .0244384
1088.695 .0244564
1089.277 .0244732
1089.860 .0244877
1090.443 .0244981
1091.026 .0245051
1091.610 .0245099
1092.193 .0245132
1092.777 .0245167
1093.361 .0245210
1093.946 .0245258
1094.530 .0245321
1095.115 .0245381
1095.700 .0245424
1096.285 .0245445
1096.871 .0245445
1097.456 .0245419
1098.042 .0245360
1098.628 .0245288
1099.215 .0245190
1099.802 .0245087
1100.389 .0244993
1100.976 .0244903
1101.564 .0244825
1102.152 .0244756
1102.740 .0244697
1103.329 .0244647
1103.917 .0244606
1104.507 .0244564
1105.096 .0244535
1105.686 .0244534
1106.276 .0244547
1106.867 .0244583
1107.457 .0244651
1108.049 .0244750
1108.640 .0244874
1109.232 .0245027
1109.825 .0245207
1110.417 .0245378
1111.010 .0245562
1111.604 .0245754
1112.198 .0245956
1112.792 .0246166
1113.387 .0246371
1113.982 .0246581
1114.577 .0246804
1115.173 .0247014
1115.769 .0247193
1116.366 .0247328
1116.963 .0247450
1117.561 .0247519
1118.159 .0247548
1118.758 .0247554
1119.357 .0247539
1119.957 .0247518
1120.557 .0247506
1121.157 .0247492
1121.758 .0247507
1122.360 .0247539
1122.962 .0247585
1123.564 .0247650
1124.167 .0247720
1124.771 .0247803
1125.375 .0247911
1125.980 .0248079
1126.585 .0248333
1127.191 .0248627
1127.797 .0249004
1128.404 .0249436
1129.012 .0249911
1129.620 .0250421
1130.229 .0250918
1130.838 .0251424
1131.448 .0251902
1132.058 .0252340
1132.669 .0252736
1133.281 .0253093
1133.894 .0253447
1134.507 .0253757
1135.120 .0254023
1135.735 .0254258
1136.350 .0254423
1136.965 .0254530
1137.582 .0254603
1138.199 .0254640
1138.816 .0254641
1139.435 .0254589
1140.054 .0254498
1140.674 .0254407
1141.294 .0254403
1141.916 .0254303
1142.538 .0253714
1143.160 .0253716
1143.784 .0254209
1144.408 .0256450
1145.033 .0252035
