Measurement Sequence started on: 14-45-04-498
Integration time: 36
Scans to Average: 2 
>>>>>Begin Spectral Data<<<<<
433.946 .0309678
434.870 .0399920
435.793 .0372698
436.715 .0375364
437.635 .0377108
438.555 .0381495
439.473 .0384714
440.389 .0384816
441.305 .0385359
442.219 .0385361
443.132 .0385048
444.044 .0384419
444.954 .0383820
445.863 .0383475
446.771 .0383233
447.678 .0382950
448.584 .0382629
449.488 .0382287
450.391 .0381827
451.293 .0381294
452.194 .0380699
453.094 .0380084
453.992 .0379461
454.890 .0378852
455.786 .0378284
456.681 .0377760
457.575 .0377262
458.468 .0376761
459.360 .0376209
460.250 .0375683
461.140 .0375110
462.028 .0374532
462.915 .0373883
463.801 .0373193
464.687 .0372388
465.571 .0371532
466.454 .0370679
467.335 .0369865
468.216 .0369096
469.096 .0368379
469.975 .0367708
470.853 .0367064
471.729 .0366422
472.605 .0365766
473.479 .0365059
474.353 .0364309
475.226 .0363501
476.097 .0362666
476.968 .0361817
477.838 .0360997
478.706 .0360254
479.574 .0359576
480.441 .0358991
481.306 .0358463
482.171 .0357965
483.035 .0357478
483.898 .0357009
484.760 .0356537
485.621 .0356085
486.481 .0355668
487.340 .0355290
488.198 .0354957
489.055 .0354689
489.912 .0354458
490.767 .0354252
491.622 .0354049
492.476 .0353866
493.329 .0353658
494.180 .0353464
495.032 .0353259
495.882 .0353078
496.731 .0352929
497.580 .0352814
498.427 .0352711
499.274 .0352605
500.120 .0352475
500.965 .0352302
501.809 .0352091
502.653 .0351860
503.495 .0351603
504.337 .0351343
505.178 .0351093
506.018 .0350890
506.858 .0350666
507.696 .0350416
508.534 .0350119
509.371 .0349765
510.208 .0349330
511.043 .0348824
511.878 .0348273
512.712 .0347695
513.545 .0347139
514.377 .0346616
515.209 .0346127
516.040 .0345690
516.870 .0345270
517.699 .0344854
518.528 .0344413
519.356 .0343978
520.183 .0343487
521.010 .0342998
521.836 .0342573
522.661 .0342167
523.485 .0341784
524.309 .0341413
525.132 .0341008
525.954 .0340552
526.776 .0340037
527.597 .0339431
528.417 .0338717
529.237 .0337968
530.056 .0337184
530.874 .0336374
531.692 .0335603
532.508 .0334871
533.325 .0334173
534.140 .0333519
534.955 .0332843
535.770 .0332152
536.583 .0331514
537.397 .0330941
538.209 .0330424
539.021 .0329976
539.832 .0329595
540.643 .0329261
541.453 .0328977
542.262 .0328753
543.071 .0328526
543.879 .0328311
544.687 .0328104
545.494 .0327879
546.300 .0327676
547.106 .0327460
547.911 .0327242
548.716 .0327059
549.520 .0326834
550.323 .0326531
551.126 .0326154
551.929 .0325747
552.731 .0325259
553.532 .0324709
554.332 .0324156
555.133 .0323617
555.932 .0323127
556.731 .0322700
557.530 .0322308
558.328 .0322029
559.125 .0321825
559.922 .0321651
560.719 .0321524
561.515 .0321439
562.310 .0321404
563.105 .0321411
563.899 .0321454
564.693 .0321531
565.487 .0321614
566.280 .0321739
567.072 .0321890
567.864 .0322057
568.655 .0322220
569.446 .0322360
570.236 .0322462
571.026 .0322508
571.816 .0322489
572.605 .0322435
573.393 .0322348
574.181 .0322230
574.969 .0322100
575.756 .0321947
576.543 .0321789
577.329 .0321616
578.115 .0321402
578.900 .0321132
579.685 .0320783
580.469 .0320382
581.253 .0319929
582.036 .0319459
582.820 .0318995
583.602 .0318544
584.384 .0318137
585.166 .0317756
585.947 .0317389
586.728 .0317039
587.509 .0316696
588.289 .0316350
589.069 .0316013
589.848 .0315678
590.627 .0315354
591.405 .0315060
592.183 .0314800
592.961 .0314571
593.738 .0314369
594.515 .0314196
595.291 .0314036
596.067 .0313894
596.843 .0313762
597.618 .0313636
598.393 .0313524
599.167 .0313426
599.941 .0313319
600.715 .0313212
601.488 .0313102
602.261 .0312984
603.034 .0312863
603.806 .0312749
604.578 .0312643
605.349 .0312556
606.121 .0312490
606.891 .0312444
607.662 .0312410
608.432 .0312387
609.201 .0312356
609.971 .0312318
610.740 .0312265
611.508 .0312189
612.277 .0312092
613.045 .0311993
613.812 .0311888
614.579 .0311781
615.346 .0311674
616.113 .0311570
616.879 .0311457
617.645 .0311330
618.411 .0311187
619.176 .0311029
619.941 .0310851
620.705 .0310662
621.470 .0310458
622.233 .0310250
622.997 .0310037
623.760 .0309827
624.523 .0309620
625.286 .0309418
626.048 .0309218
626.810 .0309019
627.572 .0308822
628.333 .0308627
629.095 .0308427
629.855 .0308227
630.616 .0308025
631.376 .0307815
632.136 .0307597
632.895 .0307378
633.655 .0307157
634.414 .0306942
635.172 .0306729
635.931 .0306521
636.689 .0306317
637.447 .0306117
638.204 .0305920
638.962 .0305718
639.718 .0305518
640.475 .0305312
641.231 .0305100
641.988 .0304884
642.743 .0304668
643.499 .0304461
644.254 .0304267
645.009 .0304093
645.764 .0303938
646.518 .0303800
647.272 .0303684
648.026 .0303588
648.780 .0303506
649.533 .0303435
650.286 .0303365
651.039 .0303294
651.792 .0303219
652.544 .0303142
653.296 .0303057
654.048 .0302972
654.799 .0302888
655.550 .0302803
656.301 .0302712
657.052 .0302619
657.802 .0302515
658.552 .0302403
659.302 .0302276
660.052 .0302130
660.801 .0301967
661.550 .0301796
662.299 .0301620
663.048 .0301447
663.796 .0301284
664.544 .0301137
665.292 .0300999
666.040 .0300874
666.787 .0300756
667.534 .0300638
668.281 .0300523
669.028 .0300406
669.774 .0300283
670.521 .0300161
671.266 .0300036
672.012 .0299917
672.758 .0299806
673.503 .0299701
674.248 .0299599
674.992 .0299497
675.737 .0299394
676.481 .0299286
677.225 .0299170
677.969 .0299048
678.712 .0298922
679.455 .0298795
680.199 .0298671
680.941 .0298550
681.684 .0298442
682.426 .0298342
683.168 .0298250
683.910 .0298162
684.652 .0298071
685.393 .0297975
686.134 .0297875
686.875 .0297770
687.616 .0297666
688.356 .0297565
689.097 .0297473
689.837 .0297389
690.576 .0297310
691.316 .0297233
692.055 .0297154
692.794 .0297069
693.533 .0296974
694.272 .0296862
695.010 .0296740
695.748 .0296608
696.486 .0296469
697.224 .0296326
697.962 .0296183
698.699 .0296038
699.436 .0295889
700.173 .0295734
700.909 .0295573
701.646 .0295406
702.382 .0295237
703.118 .0295069
703.853 .0294909
704.589 .0294758
705.324 .0294619
706.059 .0294495
706.794 .0294386
707.529 .0294287
708.263 .0294195
708.997 .0294106
709.731 .0294019
710.465 .0293930
711.198 .0293841
711.931 .0293749
712.664 .0293657
713.397 .0293566
714.130 .0293472
714.862 .0293375
715.594 .0293279
716.326 .0293177
717.058 .0293073
717.789 .0292964
718.520 .0292849
719.251 .0292723
719.982 .0292594
720.713 .0292461
721.443 .0292326
722.173 .0292192
722.903 .0292065
723.633 .0291941
724.362 .0291825
725.091 .0291713
725.820 .0291603
726.549 .0291491
727.278 .0291375
728.006 .0291251
728.734 .0291119
729.462 .0290980
730.190 .0290839
730.917 .0290697
731.644 .0290562
732.371 .0290428
733.098 .0290300
733.825 .0290181
734.551 .0290068
735.277 .0289953
736.003 .0289840
736.728 .0289725
737.454 .0289608
738.179 .0289492
738.904 .0289379
739.629 .0289272
740.353 .0289178
741.077 .0289101
741.801 .0289034
742.525 .0288979
743.249 .0288938
743.972 .0288898
744.695 .0288861
745.418 .0288819
746.141 .0288763
746.863 .0288699
747.585 .0288628
748.307 .0288549
749.029 .0288465
749.750 .0288376
750.472 .0288285
751.193 .0288189
751.913 .0288086
752.634 .0287972
753.354 .0287849
754.074 .0287717
754.794 .0287572
755.514 .0287412
756.233 .0287244
756.952 .0287070
757.671 .0286896
758.390 .0286723
759.108 .0286552
759.826 .0286390
760.544 .0286237
761.262 .0286100
761.979 .0285977
762.697 .0285864
763.414 .0285764
764.130 .0285669
764.847 .0285578
765.563 .0285488
766.279 .0285397
766.995 .0285310
767.710 .0285228
768.426 .0285155
769.141 .0285089
769.855 .0285033
770.570 .0284988
771.284 .0284949
771.998 .0284912
772.712 .0284876
773.426 .0284835
774.139 .0284788
774.852 .0284738
775.565 .0284684
776.277 .0284629
776.990 .0284575
777.702 .0284520
778.414 .0284468
779.125 .0284416
779.836 .0284366
780.547 .0284312
781.258 .0284260
781.969 .0284209
782.679 .0284160
783.389 .0284112
784.099 .0284063
784.808 .0284013
785.517 .0283963
786.226 .0283908
786.935 .0283848
787.643 .0283785
788.352 .0283723
789.060 .0283658
789.767 .0283593
790.475 .0283528
791.182 .0283459
791.889 .0283388
792.595 .0283315
793.301 .0283238
794.008 .0283159
794.713 .0283079
795.419 .0282999
796.124 .0282924
796.829 .0282854
797.534 .0282784
798.238 .0282719
798.942 .0282655
799.646 .0282588
800.350 .0282518
801.053 .0282445
801.756 .0282364
802.459 .0282279
803.162 .0282190
803.864 .0282095
804.566 .0281994
805.267 .0281887
805.969 .0281768
806.670 .0281639
807.371 .0281504
808.071 .0281359
808.772 .0281204
809.472 .0281046
810.171 .0280883
810.871 .0280722
811.570 .0280564
812.269 .0280407
812.967 .0280254
813.666 .0280106
814.364 .0279958
815.061 .0279808
815.759 .0279666
816.456 .0279527
817.153 .0279389
817.849 .0279254
818.545 .0279121
819.241 .0278990
819.937 .0278861
820.632 .0278728
821.327 .0278588
822.022 .0278440
822.717 .0278282
823.411 .0278117
824.105 .0277951
824.798 .0277788
825.491 .0277632
826.184 .0277484
826.877 .0277350
827.569 .0277222
828.261 .0277106
828.953 .0276993
829.645 .0276881
830.336 .0276769
831.027 .0276655
831.717 .0276544
832.407 .0276441
833.097 .0276350
833.787 .0276273
834.476 .0276209
835.165 .0276158
835.854 .0276113
836.542 .0276076
837.230 .0276040
837.918 .0276004
838.605 .0275963
839.292 .0275919
839.979 .0275871
840.665 .0275824
841.352 .0275780
842.037 .0275739
842.723 .0275700
843.408 .0275663
844.093 .0275626
844.777 .0275587
845.462 .0275544
846.145 .0275496
846.829 .0275440
847.512 .0275377
848.195 .0275301
848.878 .0275221
849.560 .0275138
850.242 .0275053
850.923 .0274969
851.605 .0274888
852.286 .0274811
852.966 .0274741
853.646 .0274676
854.326 .0274614
855.006 .0274555
855.685 .0274497
856.364 .0274434
857.043 .0274370
857.721 .0274305
858.399 .0274236
859.077 .0274164
859.754 .0274088
860.431 .0274000
861.107 .0273905
861.784 .0273801
862.459 .0273687
863.135 .0273562
863.810 .0273432
864.485 .0273292
865.160 .0273146
865.834 .0273000
866.508 .0272854
867.181 .0272708
867.854 .0272568
868.527 .0272428
869.199 .0272292
869.872 .0272160
870.543 .0272038
871.215 .0271918
871.886 .0271808
872.557 .0271701
873.227 .0271595
873.897 .0271491
874.567 .0271387
875.236 .0271281
875.905 .0271173
876.573 .0271064
877.242 .0270950
877.909 .0270831
878.577 .0270709
879.244 .0270579
879.911 .0270443
880.577 .0270302
881.243 .0270155
881.909 .0270004
882.575 .0269855
883.240 .0269708
883.904 .0269565
884.569 .0269430
885.232 .0269299
885.896 .0269172
886.559 .0269044
887.222 .0268913
887.885 .0268776
888.547 .0268635
889.208 .0268492
889.870 .0268349
890.531 .0268208
891.192 .0268073
891.852 .0267942
892.512 .0267815
893.171 .0267690
893.830 .0267566
894.489 .0267443
895.148 .0267323
895.806 .0267205
896.464 .0267092
897.121 .0266985
897.778 .0266884
898.434 .0266787
899.091 .0266691
899.747 .0266598
900.402 .0266501
901.057 .0266401
901.712 .0266301
902.366 .0266201
903.020 .0266101
903.674 .0266006
904.327 .0265911
904.980 .0265818
905.633 .0265724
906.285 .0265628
906.936 .0265530
907.588 .0265431
908.239 .0265332
908.889 .0265230
909.540 .0265132
910.190 .0265036
910.839 .0264942
911.488 .0264852
912.137 .0264767
912.785 .0264683
913.433 .0264603
914.081 .0264525
914.728 .0264452
915.375 .0264381
916.021 .0264311
916.668 .0264237
917.313 .0264159
917.959 .0264074
918.604 .0263984
919.248 .0263889
919.892 .0263798
920.536 .0263708
921.180 .0263627
921.823 .0263553
922.465 .0263485
923.108 .0263415
923.750 .0263343
924.391 .0263260
925.032 .0263165
925.673 .0263058
926.313 .0262944
926.953 .0262826
927.593 .0262710
928.232 .0262596
928.871 .0262486
929.510 .0262376
930.148 .0262261
930.786 .0262137
931.423 .0262004
932.060 .0261865
932.697 .0261722
933.333 .0261577
933.969 .0261437
934.604 .0261305
935.239 .0261184
935.874 .0261072
936.508 .0260966
937.142 .0260867
937.776 .0260771
938.409 .0260678
939.042 .0260582
939.674 .0260486
940.306 .0260391
940.938 .0260297
941.569 .0260202
942.200 .0260110
942.830 .0260016
943.460 .0259921
944.090 .0259823
944.720 .0259721
945.349 .0259615
945.977 .0259502
946.606 .0259381
947.233 .0259255
947.861 .0259120
948.488 .0258971
949.115 .0258810
949.741 .0258644
950.367 .0258472
950.993 .0258295
951.618 .0258123
952.243 .0257955
952.868 .0257795
953.492 .0257639
954.115 .0257483
954.739 .0257328
955.362 .0257173
955.984 .0257008
956.607 .0256840
957.229 .0256673
957.850 .0256513
958.471 .0256363
959.092 .0256230
959.713 .0256115
960.333 .0256015
960.952 .0255931
961.572 .0255858
962.191 .0255786
962.809 .0255717
963.428 .0255642
964.045 .0255558
964.663 .0255467
965.280 .0255369
965.897 .0255263
966.513 .0255159
967.129 .0255054
967.745 .0254946
968.361 .0254838
968.976 .0254730
969.590 .0254617
970.205 .0254500
970.818 .0254376
971.432 .0254242
972.045 .0254104
972.658 .0253966
973.271 .0253823
973.883 .0253680
974.495 .0253540
975.106 .0253406
975.717 .0253277
976.328 .0253154
976.938 .0253038
977.548 .0252931
978.158 .0252833
978.768 .0252737
979.377 .0252643
979.985 .0252551
980.594 .0252455
981.202 .0252358
981.809 .0252259
982.417 .0252157
983.024 .0252058
983.631 .0251961
984.237 .0251868
984.843 .0251774
985.449 .0251680
986.054 .0251584
986.659 .0251484
987.264 .0251381
987.868 .0251276
988.472 .0251173
989.076 .0251080
989.679 .0250995
990.282 .0250920
990.885 .0250852
991.487 .0250793
992.090 .0250734
992.691 .0250673
993.293 .0250608
993.894 .0250539
994.495 .0250464
995.095 .0250389
995.696 .0250313
996.296 .0250236
996.895 .0250164
997.494 .0250099
998.093 .0250032
998.692 .0249966
999.291 .0249896
999.889 .0249821
1000.487 .0249741
1001.084 .0249658
1001.681 .0249570
1002.278 .0249484
1002.875 .0249406
1003.471 .0249338
1004.067 .0249282
1004.663 .0249244
1005.258 .0249224
1005.854 .0249212
1006.449 .0249213
1007.043 .0249215
1007.638 .0249209
1008.232 .0249203
1008.826 .0249197
1009.419 .0249188
1010.012 .0249181
1010.605 .0249181
1011.198 .0249188
1011.791 .0249201
1012.383 .0249220
1012.975 .0249236
1013.566 .0249247
1014.158 .0249258
1014.749 .0249260
1015.340 .0249256
1015.931 .0249258
1016.521 .0249263
1017.111 .0249278
1017.701 .0249305
1018.291 .0249342
1018.880 .0249379
1019.470 .0249415
1020.059 .0249446
1020.647 .0249469
1021.236 .0249484
1021.824 .0249498
1022.412 .0249513
1023.000 .0249537
1023.588 .0249568
1024.175 .0249603
1024.762 .0249640
1025.349 .0249676
1025.936 .0249700
1026.523 .0249713
1027.109 .0249716
1027.695 .0249713
1028.281 .0249703
1028.867 .0249692
1029.452 .0249686
1030.038 .0249691
1030.623 .0249702
1031.208 .0249721
1031.792 .0249738
1032.377 .0249755
1032.961 .0249767
1033.546 .0249777
1034.130 .0249786
1034.714 .0249805
1035.297 .0249840
1035.881 .0249892
1036.464 .0249963
1037.047 .0250062
1037.630 .0250181
1038.213 .0250322
1038.796 .0250477
1039.378 .0250628
1039.961 .0250763
1040.543 .0250882
1041.125 .0250976
1041.707 .0251051
1042.289 .0251112
1042.871 .0251163
1043.452 .0251208
1044.034 .0251260
1044.615 .0251308
1045.196 .0251344
1045.777 .0251376
1046.358 .0251392
1046.939 .0251370
1047.520 .0251313
1048.101 .0251217
1048.681 .0251086
1049.262 .0250942
1049.842 .0250798
1050.422 .0250664
1051.002 .0250554
1051.582 .0250473
1052.162 .0250412
1052.742 .0250368
1053.322 .0250335
1053.902 .0250294
1054.482 .0250244
1055.061 .0250192
1055.641 .0250132
1056.220 .0250078
1056.800 .0250041
1057.379 .0250031
1057.958 .0250048
1058.538 .0250092
1059.117 .0250149
1059.696 .0250213
1060.275 .0250272
1060.854 .0250312
1061.433 .0250338
1062.012 .0250356
1062.592 .0250376
1063.171 .0250399
1063.750 .0250426
1064.329 .0250460
1064.908 .0250490
1065.487 .0250505
1066.066 .0250497
1066.645 .0250473
1067.224 .0250424
1067.803 .0250357
1068.382 .0250289
1068.961 .0250225
1069.540 .0250173
1070.119 .0250135
1070.698 .0250104
1071.278 .0250068
1071.857 .0250019
1072.436 .0249935
1073.016 .0249827
1073.595 .0249710
1074.175 .0249589
1074.754 .0249472
1075.334 .0249382
1075.913 .0249319
1076.493 .0249280
1077.073 .0249258
1077.653 .0249250
1078.233 .0249238
1078.813 .0249224
1079.393 .0249196
1079.974 .0249165
1080.554 .0249144
1081.135 .0249135
1081.716 .0249141
1082.296 .0249168
1082.877 .0249205
1083.458 .0249240
1084.040 .0249256
1084.621 .0249251
1085.202 .0249208
1085.784 .0249129
1086.366 .0249012
1086.948 .0248868
1087.530 .0248708
1088.112 .0248546
1088.695 .0248381
1089.277 .0248223
1089.860 .0248072
1090.443 .0247922
1091.026 .0247782
1091.610 .0247644
1092.193 .0247498
1092.777 .0247344
1093.361 .0247191
1093.946 .0247048
1094.530 .0246904
1095.115 .0246779
1095.700 .0246673
1096.285 .0246574
1096.871 .0246490
1097.456 .0246410
1098.042 .0246330
1098.628 .0246253
1099.215 .0246179
1099.802 .0246095
1100.389 .0245999
1100.976 .0245888
1101.564 .0245763
1102.152 .0245640
1102.740 .0245527
1103.329 .0245409
1103.917 .0245307
1104.507 .0245225
1105.096 .0245163
1105.686 .0245129
1106.276 .0245120
1106.867 .0245134
1107.457 .0245164
1108.049 .0245203
1108.640 .0245245
1109.232 .0245300
1109.825 .0245369
1110.417 .0245451
1111.010 .0245552
1111.604 .0245667
1112.198 .0245784
1112.792 .0245917
1113.387 .0246062
1113.982 .0246225
1114.577 .0246405
1115.173 .0246609
1115.769 .0246807
1116.366 .0247026
1116.963 .0247251
1117.561 .0247491
1118.159 .0247744
1118.758 .0248009
1119.357 .0248267
1119.957 .0248543
1120.557 .0248828
1121.157 .0249124
1121.758 .0249421
1122.360 .0249755
1122.962 .0250079
1123.564 .0250399
1124.167 .0250689
1124.771 .0250925
1125.375 .0251124
1125.980 .0251309
1126.585 .0251458
1127.191 .0251590
1127.797 .0251707
1128.404 .0251840
1129.012 .0251991
1129.620 .0252154
1130.229 .0252297
1130.838 .0252428
1131.448 .0252527
1132.058 .0252572
1132.669 .0252567
1133.281 .0252561
1133.894 .0252570
1134.507 .0252633
1135.120 .0252796
1135.735 .0253018
1136.350 .0253318
1136.965 .0253705
1137.582 .0254139
1138.199 .0254609
1138.816 .0255075
1139.435 .0255557
1140.054 .0256111
1140.674 .0256666
1141.294 .0257253
1141.916 .0257812
1142.538 .0258490
1143.160 .0260751
1143.784 .0259464
1144.408 .0260085
1145.033 .0259728
