Measurement Sequence started on: 14-45-04-498
Integration time: 36
Scans to Average: 2 
>>>>>Begin Spectral Data<<<<<
433.946 .0346313
434.870 .0385551
435.793 .0369493
436.715 .0388605
437.635 .0385920
438.555 .0386565
439.473 .0388979
440.389 .0389782
441.305 .0390642
442.219 .0390590
443.132 .0390519
444.044 .0390276
444.954 .0390055
445.863 .0389811
446.771 .0389692
447.678 .0389733
448.584 .0389874
449.488 .0390056
450.391 .0390196
451.293 .0390303
452.194 .0390382
453.094 .0390247
453.992 .0389835
454.890 .0389297
455.786 .0388579
456.681 .0387731
457.575 .0386887
458.468 .0386021
459.360 .0385158
460.250 .0384311
461.140 .0383389
462.028 .0382371
462.915 .0381243
463.801 .0380066
464.687 .0378796
465.571 .0377550
466.454 .0376301
467.335 .0375105
468.216 .0374080
469.096 .0373221
469.975 .0372476
470.853 .0371837
471.729 .0371249
472.605 .0370644
473.479 .0370018
474.353 .0369342
475.226 .0368607
476.097 .0367853
476.968 .0367078
477.838 .0366298
478.706 .0365533
479.574 .0364808
480.441 .0364113
481.306 .0363443
482.171 .0362778
483.035 .0362069
483.898 .0361351
484.760 .0360606
485.621 .0359877
486.481 .0359157
487.340 .0358464
488.198 .0357810
489.055 .0357196
489.912 .0356634
490.767 .0356117
491.622 .0355630
492.476 .0355155
493.329 .0354680
494.180 .0354196
495.032 .0353699
495.882 .0353220
496.731 .0352749
497.580 .0352318
498.427 .0351910
499.274 .0351503
500.120 .0351086
500.965 .0350671
501.809 .0350284
502.653 .0349881
503.495 .0349503
504.337 .0349114
505.178 .0348732
506.018 .0348374
506.858 .0348002
507.696 .0347634
508.534 .0347290
509.371 .0346929
510.208 .0346577
511.043 .0346231
511.878 .0345891
512.712 .0345536
513.545 .0345180
514.377 .0344828
515.209 .0344452
516.040 .0344060
516.870 .0343645
517.699 .0343233
518.528 .0342829
519.356 .0342403
520.183 .0341968
521.010 .0341563
521.836 .0341159
522.661 .0340703
523.485 .0340214
524.309 .0339670
525.132 .0339068
525.954 .0338405
526.776 .0337659
527.597 .0336927
528.417 .0336200
529.237 .0335528
530.056 .0334869
530.874 .0334314
531.692 .0333818
532.508 .0333363
533.325 .0332951
534.140 .0332520
534.955 .0332044
535.770 .0331545
536.583 .0331003
537.397 .0330453
538.209 .0329894
539.021 .0329394
539.832 .0328885
540.643 .0328451
541.453 .0328075
542.262 .0327743
543.071 .0327459
543.879 .0327226
544.687 .0326997
545.494 .0326767
546.300 .0326543
547.106 .0326336
547.911 .0326158
548.716 .0326025
549.520 .0325866
550.323 .0325706
551.126 .0325567
551.929 .0325404
552.731 .0325165
553.532 .0324896
554.332 .0324593
555.133 .0324267
555.932 .0323944
556.731 .0323650
557.530 .0323430
558.328 .0323305
559.125 .0323233
559.922 .0323245
560.719 .0323322
561.515 .0323440
562.310 .0323540
563.105 .0323644
563.899 .0323733
564.693 .0323788
565.487 .0323816
566.280 .0323844
567.072 .0323889
567.864 .0323929
568.655 .0323957
569.446 .0323983
570.236 .0323986
571.026 .0323916
571.816 .0323772
572.605 .0323555
573.393 .0323269
574.181 .0322929
574.969 .0322578
575.756 .0322237
576.543 .0321937
577.329 .0321670
578.115 .0321434
578.900 .0321213
579.685 .0320996
580.469 .0320733
581.253 .0320443
582.036 .0320135
582.820 .0319802
583.602 .0319448
584.384 .0319125
585.166 .0318824
585.947 .0318562
586.728 .0318329
587.509 .0318129
588.289 .0317938
589.069 .0317762
589.848 .0317568
590.627 .0317363
591.405 .0317146
592.183 .0316923
592.961 .0316687
593.738 .0316473
594.515 .0316276
595.291 .0316112
596.067 .0315986
596.843 .0315899
597.618 .0315825
598.393 .0315767
599.167 .0315709
599.941 .0315648
600.715 .0315572
601.488 .0315491
602.261 .0315399
603.034 .0315313
603.806 .0315237
604.578 .0315169
605.349 .0315117
606.121 .0315082
606.891 .0315048
607.662 .0315008
608.432 .0314948
609.201 .0314862
609.971 .0314746
610.740 .0314606
611.508 .0314444
612.277 .0314263
613.045 .0314075
613.812 .0313892
614.579 .0313711
615.346 .0313543
616.113 .0313377
616.879 .0313207
617.645 .0313036
618.411 .0312851
619.176 .0312651
619.941 .0312439
620.705 .0312223
621.470 .0312008
622.233 .0311796
622.997 .0311597
623.760 .0311401
624.523 .0311216
625.286 .0311038
626.048 .0310858
626.810 .0310667
627.572 .0310464
628.333 .0310249
629.095 .0310024
629.855 .0309796
630.616 .0309568
631.376 .0309344
632.136 .0309133
632.895 .0308932
633.655 .0308740
634.414 .0308555
635.172 .0308382
635.931 .0308215
636.689 .0308055
637.447 .0307901
638.204 .0307758
638.962 .0307623
639.718 .0307499
640.475 .0307382
641.231 .0307269
641.988 .0307155
642.743 .0307037
643.499 .0306917
644.254 .0306792
645.009 .0306667
645.764 .0306545
646.518 .0306426
647.272 .0306319
648.026 .0306216
648.780 .0306120
649.533 .0306033
650.286 .0305946
651.039 .0305856
651.792 .0305756
652.544 .0305657
653.296 .0305557
654.048 .0305462
654.799 .0305383
655.550 .0305320
656.301 .0305273
657.052 .0305240
657.802 .0305215
658.552 .0305191
659.302 .0305161
660.052 .0305117
660.801 .0305055
661.550 .0304981
662.299 .0304895
663.048 .0304802
663.796 .0304711
664.544 .0304623
665.292 .0304533
666.040 .0304439
666.787 .0304336
667.534 .0304219
668.281 .0304089
669.028 .0303944
669.774 .0303790
670.521 .0303633
671.266 .0303479
672.012 .0303331
672.758 .0303194
673.503 .0303064
674.248 .0302938
674.992 .0302816
675.737 .0302694
676.481 .0302572
677.225 .0302457
677.969 .0302349
678.712 .0302255
679.455 .0302175
680.199 .0302109
680.941 .0302050
681.684 .0302005
682.426 .0301959
683.168 .0301908
683.910 .0301855
684.652 .0301795
685.393 .0301730
686.134 .0301669
686.875 .0301612
687.616 .0301560
688.356 .0301516
689.097 .0301480
689.837 .0301441
690.576 .0301399
691.316 .0301346
692.055 .0301281
692.794 .0301200
693.533 .0301113
694.272 .0301015
695.010 .0300916
695.748 .0300824
696.486 .0300738
697.224 .0300662
697.962 .0300592
698.699 .0300524
699.436 .0300452
700.173 .0300371
700.909 .0300279
701.646 .0300171
702.382 .0300060
703.118 .0299944
703.853 .0299827
704.589 .0299716
705.324 .0299610
706.059 .0299503
706.794 .0299397
707.529 .0299287
708.263 .0299167
708.997 .0299038
709.731 .0298897
710.465 .0298748
711.198 .0298597
711.931 .0298447
712.664 .0298293
713.397 .0298139
714.130 .0297987
714.862 .0297832
715.594 .0297674
716.326 .0297512
717.058 .0297344
717.789 .0297176
718.520 .0297006
719.251 .0296831
719.982 .0296656
720.713 .0296483
721.443 .0296307
722.173 .0296129
722.903 .0295949
723.633 .0295770
724.362 .0295592
725.091 .0295421
725.820 .0295257
726.549 .0295101
727.278 .0294955
728.006 .0294816
728.734 .0294688
729.462 .0294565
730.190 .0294444
730.917 .0294326
731.644 .0294209
732.371 .0294095
733.098 .0293988
733.825 .0293886
734.551 .0293795
735.277 .0293709
736.003 .0293626
736.728 .0293540
737.454 .0293454
738.179 .0293367
738.904 .0293276
739.629 .0293182
740.353 .0293091
741.077 .0292999
741.801 .0292910
742.525 .0292822
743.249 .0292740
743.972 .0292661
744.695 .0292583
745.418 .0292498
746.141 .0292409
746.863 .0292315
747.585 .0292220
748.307 .0292119
749.029 .0292014
749.750 .0291910
750.472 .0291804
751.193 .0291694
751.913 .0291582
752.634 .0291468
753.354 .0291348
754.074 .0291224
754.794 .0291097
755.514 .0290963
756.233 .0290829
756.952 .0290690
757.671 .0290550
758.390 .0290407
759.108 .0290256
759.826 .0290100
760.544 .0289942
761.262 .0289786
761.979 .0289626
762.697 .0289466
763.414 .0289309
764.130 .0289155
764.847 .0289002
765.563 .0288850
766.279 .0288701
766.995 .0288559
767.710 .0288417
768.426 .0288275
769.141 .0288139
769.855 .0288004
770.570 .0287871
771.284 .0287741
771.998 .0287610
772.712 .0287480
773.426 .0287346
774.139 .0287213
774.852 .0287075
775.565 .0286938
776.277 .0286799
776.990 .0286656
777.702 .0286515
778.414 .0286377
779.125 .0286241
779.836 .0286115
780.547 .0285995
781.258 .0285884
781.969 .0285779
782.679 .0285679
783.389 .0285584
784.099 .0285492
784.808 .0285401
785.517 .0285314
786.226 .0285230
786.935 .0285152
787.643 .0285078
788.352 .0285014
789.060 .0284956
789.767 .0284903
790.475 .0284849
791.182 .0284790
791.889 .0284722
792.595 .0284647
793.301 .0284556
794.008 .0284456
794.713 .0284347
795.419 .0284232
796.124 .0284113
796.829 .0283992
797.534 .0283867
798.238 .0283741
798.942 .0283609
799.646 .0283473
800.350 .0283329
801.053 .0283183
801.756 .0283034
802.459 .0282884
803.162 .0282739
803.864 .0282601
804.566 .0282473
805.267 .0282356
805.969 .0282246
806.670 .0282148
807.371 .0282061
808.071 .0281988
808.772 .0281929
809.472 .0281882
810.171 .0281843
810.871 .0281811
811.570 .0281781
812.269 .0281748
812.967 .0281702
813.666 .0281645
814.364 .0281572
815.061 .0281489
815.759 .0281397
816.456 .0281303
817.153 .0281209
817.849 .0281115
818.545 .0281018
819.241 .0280915
819.937 .0280799
820.632 .0280664
821.327 .0280507
822.022 .0280329
822.717 .0280135
823.411 .0279932
824.105 .0279730
824.798 .0279538
825.491 .0279360
826.184 .0279197
826.877 .0279044
827.569 .0278898
828.261 .0278748
828.953 .0278590
829.645 .0278422
830.336 .0278241
831.027 .0278055
831.717 .0277867
832.407 .0277687
833.097 .0277516
833.787 .0277357
834.476 .0277210
835.165 .0277072
835.854 .0276938
836.542 .0276804
837.230 .0276664
837.918 .0276523
838.605 .0276377
839.292 .0276228
839.979 .0276076
840.665 .0275929
841.352 .0275785
842.037 .0275648
842.723 .0275513
843.408 .0275384
844.093 .0275253
844.777 .0275123
845.462 .0274990
846.145 .0274851
846.829 .0274706
847.512 .0274556
848.195 .0274400
848.878 .0274243
849.560 .0274080
850.242 .0273915
850.923 .0273746
851.605 .0273573
852.286 .0273394
852.966 .0273215
853.646 .0273037
854.326 .0272865
855.006 .0272701
855.685 .0272542
856.364 .0272389
857.043 .0272242
857.721 .0272098
858.399 .0271953
859.077 .0271802
859.754 .0271651
860.431 .0271495
861.107 .0271342
861.784 .0271195
862.459 .0271058
863.135 .0270938
863.810 .0270832
864.485 .0270732
865.160 .0270636
865.834 .0270542
866.508 .0270445
867.181 .0270347
867.854 .0270251
868.527 .0270159
869.199 .0270074
869.872 .0269999
870.543 .0269936
871.215 .0269881
871.886 .0269839
872.557 .0269794
873.227 .0269745
873.897 .0269689
874.567 .0269621
875.236 .0269544
875.905 .0269467
876.573 .0269394
877.242 .0269322
877.909 .0269257
878.577 .0269198
879.244 .0269141
879.911 .0269088
880.577 .0269037
881.243 .0268984
881.909 .0268931
882.575 .0268875
883.240 .0268810
883.904 .0268747
884.569 .0268685
885.232 .0268622
885.896 .0268563
886.559 .0268506
887.222 .0268449
887.885 .0268391
888.547 .0268334
889.208 .0268272
889.870 .0268209
890.531 .0268145
891.192 .0268074
891.852 .0268001
892.512 .0267926
893.171 .0267852
893.830 .0267779
894.489 .0267711
895.148 .0267642
895.806 .0267570
896.464 .0267497
897.121 .0267417
897.778 .0267326
898.434 .0267224
899.091 .0267110
899.747 .0266979
900.402 .0266838
901.057 .0266687
901.712 .0266529
902.366 .0266369
903.020 .0266206
903.674 .0266039
904.327 .0265870
904.980 .0265700
905.633 .0265527
906.285 .0265356
906.936 .0265192
907.588 .0265034
908.239 .0264883
908.889 .0264751
909.540 .0264631
910.190 .0264522
910.839 .0264420
911.488 .0264320
912.137 .0264218
912.785 .0264114
913.433 .0264004
914.081 .0263892
914.728 .0263781
915.375 .0263668
916.021 .0263546
916.668 .0263418
917.313 .0263281
917.959 .0263129
918.604 .0262962
919.248 .0262782
919.892 .0262587
920.536 .0262388
921.180 .0262187
921.823 .0261988
922.465 .0261796
923.108 .0261606
923.750 .0261414
924.391 .0261216
925.032 .0261011
925.673 .0260797
926.313 .0260578
926.953 .0260362
927.593 .0260145
928.232 .0259933
928.871 .0259728
929.510 .0259532
930.148 .0259340
930.786 .0259146
931.423 .0258950
932.060 .0258749
932.697 .0258544
933.333 .0258337
933.969 .0258131
934.604 .0257933
935.239 .0257745
935.874 .0257570
936.508 .0257405
937.142 .0257256
937.776 .0257118
938.409 .0256986
939.042 .0256854
939.674 .0256724
940.306 .0256589
940.938 .0256453
941.569 .0256321
942.200 .0256193
942.830 .0256069
943.460 .0255954
944.090 .0255844
944.720 .0255739
945.349 .0255640
945.977 .0255539
946.606 .0255437
947.233 .0255330
947.861 .0255218
948.488 .0255099
949.115 .0254985
949.741 .0254876
950.367 .0254773
950.993 .0254677
951.618 .0254589
952.243 .0254501
952.868 .0254412
953.492 .0254319
954.115 .0254223
954.739 .0254122
955.362 .0254018
955.984 .0253907
956.607 .0253804
957.229 .0253710
957.850 .0253629
958.471 .0253556
959.092 .0253491
959.713 .0253430
960.333 .0253368
960.952 .0253307
961.572 .0253249
962.191 .0253194
962.809 .0253151
963.428 .0253115
964.045 .0253085
964.663 .0253061
965.280 .0253047
965.897 .0253034
966.513 .0253022
967.129 .0253005
967.745 .0252981
968.361 .0252952
968.976 .0252923
969.590 .0252890
970.205 .0252857
970.818 .0252831
971.432 .0252806
972.045 .0252781
972.658 .0252759
973.271 .0252733
973.883 .0252704
974.495 .0252672
975.106 .0252634
975.717 .0252589
976.328 .0252542
976.938 .0252492
977.548 .0252440
978.158 .0252390
978.768 .0252343
979.377 .0252296
979.985 .0252254
980.594 .0252218
981.202 .0252182
981.809 .0252155
982.417 .0252138
983.024 .0252133
983.631 .0252138
984.237 .0252150
984.843 .0252165
985.449 .0252182
986.054 .0252194
986.659 .0252198
987.264 .0252195
987.868 .0252184
988.472 .0252163
989.076 .0252135
989.679 .0252103
990.282 .0252063
990.885 .0252015
991.487 .0251959
992.090 .0251885
992.691 .0251798
993.293 .0251691
993.894 .0251571
994.495 .0251442
995.095 .0251311
995.696 .0251176
996.296 .0251043
996.895 .0250919
997.494 .0250803
998.093 .0250694
998.692 .0250592
999.291 .0250492
999.889 .0250391
1000.487 .0250289
1001.084 .0250182
1001.681 .0250071
1002.278 .0249960
1002.875 .0249848
1003.471 .0249739
1004.067 .0249632
1004.663 .0249535
1005.258 .0249446
1005.854 .0249363
1006.449 .0249284
1007.043 .0249203
1007.638 .0249116
1008.232 .0249024
1008.826 .0248928
1009.419 .0248827
1010.012 .0248725
1010.605 .0248623
1011.198 .0248525
1011.791 .0248427
1012.383 .0248331
1012.975 .0248233
1013.566 .0248133
1014.158 .0248031
1014.749 .0247922
1015.340 .0247812
1015.931 .0247704
1016.521 .0247599
1017.111 .0247502
1017.701 .0247412
1018.291 .0247335
1018.880 .0247268
1019.470 .0247212
1020.059 .0247165
1020.647 .0247128
1021.236 .0247100
1021.824 .0247079
1022.412 .0247063
1023.000 .0247051
1023.588 .0247039
1024.175 .0247025
1024.762 .0247003
1025.349 .0246971
1025.936 .0246934
1026.523 .0246892
1027.109 .0246846
1027.695 .0246797
1028.281 .0246742
1028.867 .0246680
1029.452 .0246614
1030.038 .0246538
1030.623 .0246456
1031.208 .0246368
1031.792 .0246282
1032.377 .0246200
1032.961 .0246127
1033.546 .0246062
1034.130 .0246012
1034.714 .0245978
1035.297 .0245954
1035.881 .0245937
1036.464 .0245933
1037.047 .0245938
1037.630 .0245961
1038.213 .0246000
1038.796 .0246055
1039.378 .0246126
1039.961 .0246203
1040.543 .0246270
1041.125 .0246332
1041.707 .0246381
1042.289 .0246407
1042.871 .0246423
1043.452 .0246434
1044.034 .0246437
1044.615 .0246438
1045.196 .0246446
1045.777 .0246457
1046.358 .0246470
1046.939 .0246477
1047.520 .0246466
1048.101 .0246440
1048.681 .0246404
1049.262 .0246353
1049.842 .0246303
1050.422 .0246262
1051.002 .0246228
1051.582 .0246199
1052.162 .0246182
1052.742 .0246156
1053.322 .0246118
1053.902 .0246068
1054.482 .0246015
1055.061 .0245961
1055.641 .0245917
1056.220 .0245888
1056.800 .0245885
1057.379 .0245913
1057.958 .0245963
1058.538 .0246023
1059.117 .0246092
1059.696 .0246161
1060.275 .0246235
1060.854 .0246310
1061.433 .0246397
1062.012 .0246495
1062.592 .0246617
1063.171 .0246761
1063.750 .0246916
1064.329 .0247071
1064.908 .0247211
1065.487 .0247327
1066.066 .0247417
1066.645 .0247465
1067.224 .0247485
1067.803 .0247479
1068.382 .0247467
1068.961 .0247445
1069.540 .0247417
1070.119 .0247387
1070.698 .0247360
1071.278 .0247335
1071.857 .0247309
1072.436 .0247280
1073.016 .0247258
1073.595 .0247242
1074.175 .0247247
1074.754 .0247269
1075.334 .0247312
1075.913 .0247370
1076.493 .0247446
1077.073 .0247515
1077.653 .0247587
1078.233 .0247643
1078.813 .0247684
1079.393 .0247720
1079.974 .0247741
1080.554 .0247746
1081.135 .0247743
1081.716 .0247743
1082.296 .0247749
1082.877 .0247756
1083.458 .0247787
1084.040 .0247804
1084.621 .0247833
1085.202 .0247873
1085.784 .0247915
1086.366 .0247967
1086.948 .0248034
1087.530 .0248105
1088.112 .0248185
1088.695 .0248262
1089.277 .0248337
1089.860 .0248403
1090.443 .0248475
1091.026 .0248532
1091.610 .0248579
1092.193 .0248628
1092.777 .0248684
1093.361 .0248733
1093.946 .0248786
1094.530 .0248823
1095.115 .0248830
1095.700 .0248801
1096.285 .0248740
1096.871 .0248639
1097.456 .0248516
1098.042 .0248391
1098.628 .0248285
1099.215 .0248191
1099.802 .0248126
1100.389 .0248080
1100.976 .0248049
1101.564 .0248026
1102.152 .0247982
1102.740 .0247913
1103.329 .0247826
1103.917 .0247722
1104.507 .0247603
1105.096 .0247489
1105.686 .0247391
1106.276 .0247302
1106.867 .0247237
1107.457 .0247183
1108.049 .0247108
1108.640 .0247025
1109.232 .0246929
1109.825 .0246825
1110.417 .0246709
1111.010 .0246604
1111.604 .0246509
1112.198 .0246460
1112.792 .0246450
1113.387 .0246455
1113.982 .0246490
1114.577 .0246555
1115.173 .0246621
1115.769 .0246671
1116.366 .0246700
1116.963 .0246709
1117.561 .0246700
1118.159 .0246712
1118.758 .0246730
1119.357 .0246769
1119.957 .0246856
1120.557 .0246981
1121.157 .0247117
1121.758 .0247271
1122.360 .0247426
1122.962 .0247558
1123.564 .0247679
1124.167 .0247788
1124.771 .0247879
1125.375 .0247975
1125.980 .0248132
1126.585 .0248346
1127.191 .0248617
1127.797 .0248948
1128.404 .0249283
1129.012 .0249607
1129.620 .0249919
1130.229 .0250185
1130.838 .0250402
1131.448 .0250598
1132.058 .0250808
1132.669 .0250999
1133.281 .0251200
1133.894 .0251451
1134.507 .0251733
1135.120 .0252062
1135.735 .0252422
1136.350 .0252762
1136.965 .0253101
1137.582 .0253447
1138.199 .0253817
1138.816 .0254236
1139.435 .0254689
1140.054 .0255153
1140.674 .0255712
1141.294 .0256313
1141.916 .0256843
1142.538 .0257511
1143.160 .0257020
1143.784 .0260058
1144.408 .0259838
1145.033 .0257414
