Measurement Sequence started on: 14-45-04-498
Integration time: 36
Scans to Average: 2 
>>>>>Begin Spectral Data<<<<<
433.946 .0634764
434.870 .0581064
435.793 .0484744
436.715 .0500507
437.635 .0491786
438.555 .0498772
439.473 .0488872
440.389 .0482423
441.305 .0479112
442.219 .0475495
443.132 .0472412
444.044 .0469617
444.954 .0467410
445.863 .0465741
446.771 .0464251
447.678 .0462904
448.584 .0461732
449.488 .0460508
450.391 .0459335
451.293 .0458194
452.194 .0457159
453.094 .0456161
453.992 .0455123
454.890 .0453905
455.786 .0452608
456.681 .0451148
457.575 .0449614
458.468 .0448098
459.360 .0446624
460.250 .0445187
461.140 .0443852
462.028 .0442567
462.915 .0441344
463.801 .0440091
464.687 .0438843
465.571 .0437580
466.454 .0436318
467.335 .0435110
468.216 .0433984
469.096 .0432965
469.975 .0432116
470.853 .0431410
471.729 .0430842
472.605 .0430333
473.479 .0429852
474.353 .0429347
475.226 .0428817
476.097 .0428250
476.968 .0427630
477.838 .0426983
478.706 .0426342
479.574 .0425696
480.441 .0425094
481.306 .0424519
482.171 .0423982
483.035 .0423478
483.898 .0423018
484.760 .0422549
485.621 .0422080
486.481 .0421586
487.340 .0421062
488.198 .0420505
489.055 .0419920
489.912 .0419295
490.767 .0418637
491.622 .0417992
492.476 .0417342
493.329 .0416714
494.180 .0416128
495.032 .0415594
495.882 .0415105
496.731 .0414614
497.580 .0414089
498.427 .0413520
499.274 .0412901
500.120 .0412222
500.965 .0411485
501.809 .0410753
502.653 .0410041
503.495 .0409378
504.337 .0408741
505.178 .0408168
506.018 .0407649
506.858 .0407150
507.696 .0406667
508.534 .0406193
509.371 .0405704
510.208 .0405253
511.043 .0404860
511.878 .0404581
512.712 .0404393
513.545 .0404308
514.377 .0404315
515.209 .0404366
516.040 .0404495
516.870 .0404645
517.699 .0404870
518.528 .0405163
519.356 .0405499
520.183 .0405851
521.010 .0406229
521.836 .0406585
522.661 .0406842
523.485 .0406957
524.309 .0406895
525.132 .0406589
525.954 .0406104
526.776 .0405501
527.597 .0404884
528.417 .0404267
529.237 .0403763
530.056 .0403279
530.874 .0402761
531.692 .0402144
532.508 .0401406
533.325 .0400536
534.140 .0399508
534.955 .0398326
535.770 .0397099
536.583 .0395935
537.397 .0394862
538.209 .0393912
539.021 .0393128
539.832 .0392450
540.643 .0391767
541.453 .0391046
542.262 .0390283
543.071 .0389504
543.879 .0388660
544.687 .0387819
545.494 .0386996
546.300 .0386275
547.106 .0385645
547.911 .0385119
548.716 .0384742
549.520 .0384450
550.323 .0384189
551.126 .0383973
551.929 .0383735
552.731 .0383474
553.532 .0383108
554.332 .0382704
555.133 .0382230
555.932 .0381708
556.731 .0381180
557.530 .0380677
558.328 .0380221
559.125 .0379849
559.922 .0379563
560.719 .0379371
561.515 .0379281
562.310 .0379258
563.105 .0379278
563.899 .0379335
564.693 .0379378
565.487 .0379381
566.280 .0379318
567.072 .0379184
567.864 .0378940
568.655 .0378579
569.446 .0378132
570.236 .0377585
571.026 .0376966
571.816 .0376313
572.605 .0375612
573.393 .0374871
574.181 .0374100
574.969 .0373279
575.756 .0372416
576.543 .0371534
577.329 .0370663
578.115 .0369826
578.900 .0369067
579.685 .0368405
580.469 .0367871
581.253 .0367487
582.036 .0367215
582.820 .0367041
583.602 .0366938
584.384 .0366871
585.166 .0366802
585.947 .0366726
586.728 .0366627
587.509 .0366494
588.289 .0366340
589.069 .0366164
589.848 .0365972
590.627 .0365780
591.405 .0365583
592.183 .0365368
592.961 .0365146
593.738 .0364901
594.515 .0364630
595.291 .0364349
596.067 .0364064
596.843 .0363765
597.618 .0363460
598.393 .0363162
599.167 .0362867
599.941 .0362578
600.715 .0362314
601.488 .0362065
602.261 .0361841
603.034 .0361645
603.806 .0361466
604.578 .0361298
605.349 .0361159
606.121 .0361041
606.891 .0360939
607.662 .0360849
608.432 .0360777
609.201 .0360712
609.971 .0360662
610.740 .0360620
611.508 .0360575
612.277 .0360531
613.045 .0360492
613.812 .0360447
614.579 .0360399
615.346 .0360359
616.113 .0360320
616.879 .0360277
617.645 .0360235
618.411 .0360184
619.176 .0360119
619.941 .0360042
620.705 .0359949
621.470 .0359831
622.233 .0359692
622.997 .0359540
623.760 .0359372
624.523 .0359202
625.286 .0359026
626.048 .0358851
626.810 .0358670
627.572 .0358493
628.333 .0358308
629.095 .0358116
629.855 .0357922
630.616 .0357727
631.376 .0357528
632.136 .0357339
632.895 .0357157
633.655 .0356994
634.414 .0356845
635.172 .0356718
635.931 .0356602
636.689 .0356500
637.447 .0356408
638.204 .0356327
638.962 .0356243
639.718 .0356165
640.475 .0356079
641.231 .0355984
641.988 .0355879
642.743 .0355762
643.499 .0355627
644.254 .0355475
645.009 .0355303
645.764 .0355114
646.518 .0354914
647.272 .0354711
648.026 .0354501
648.780 .0354295
649.533 .0354095
650.286 .0353894
651.039 .0353689
651.792 .0353484
652.544 .0353269
653.296 .0353044
654.048 .0352814
654.799 .0352581
655.550 .0352355
656.301 .0352146
657.052 .0351951
657.802 .0351771
658.552 .0351608
659.302 .0351454
660.052 .0351300
660.801 .0351142
661.550 .0350971
662.299 .0350787
663.048 .0350591
663.796 .0350390
664.544 .0350184
665.292 .0349988
666.040 .0349798
666.787 .0349617
667.534 .0349448
668.281 .0349284
669.028 .0349118
669.774 .0348950
670.521 .0348780
671.266 .0348605
672.012 .0348429
672.758 .0348261
673.503 .0348100
674.248 .0347956
674.992 .0347830
675.737 .0347719
676.481 .0347624
677.225 .0347542
677.969 .0347459
678.712 .0347372
679.455 .0347281
680.199 .0347177
680.941 .0347063
681.684 .0346943
682.426 .0346816
683.168 .0346679
683.910 .0346536
684.652 .0346387
685.393 .0346226
686.134 .0346055
686.875 .0345870
687.616 .0345670
688.356 .0345463
689.097 .0345248
689.837 .0345025
690.576 .0344808
691.316 .0344600
692.055 .0344402
692.794 .0344214
693.533 .0344040
694.272 .0343879
695.010 .0343732
695.748 .0343597
696.486 .0343466
697.224 .0343340
697.962 .0343218
698.699 .0343098
699.436 .0342973
700.173 .0342845
700.909 .0342710
701.646 .0342566
702.382 .0342412
703.118 .0342246
703.853 .0342072
704.589 .0341892
705.324 .0341711
706.059 .0341527
706.794 .0341340
707.529 .0341156
708.263 .0340969
708.997 .0340783
709.731 .0340588
710.465 .0340386
711.198 .0340172
711.931 .0339954
712.664 .0339733
713.397 .0339507
714.130 .0339283
714.862 .0339063
715.594 .0338848
716.326 .0338636
717.058 .0338424
717.789 .0338214
718.520 .0338002
719.251 .0337792
719.982 .0337578
720.713 .0337369
721.443 .0337167
722.173 .0336977
722.903 .0336798
723.633 .0336636
724.362 .0336487
725.091 .0336349
725.820 .0336219
726.549 .0336098
727.278 .0335983
728.006 .0335870
728.734 .0335757
729.462 .0335644
730.190 .0335527
730.917 .0335411
731.644 .0335292
732.371 .0335175
733.098 .0335061
733.825 .0334949
734.551 .0334837
735.277 .0334730
736.003 .0334629
736.728 .0334533
737.454 .0334447
738.179 .0334371
738.904 .0334301
739.629 .0334238
740.353 .0334183
741.077 .0334138
741.801 .0334100
742.525 .0334062
743.249 .0334022
743.972 .0333978
744.695 .0333930
745.418 .0333870
746.141 .0333799
746.863 .0333721
747.585 .0333630
748.307 .0333525
749.029 .0333406
749.750 .0333273
750.472 .0333132
751.193 .0332984
751.913 .0332829
752.634 .0332667
753.354 .0332499
754.074 .0332332
754.794 .0332162
755.514 .0331994
756.233 .0331823
756.952 .0331650
757.671 .0331480
758.390 .0331309
759.108 .0331137
759.826 .0330968
760.544 .0330806
761.262 .0330648
761.979 .0330493
762.697 .0330340
763.414 .0330188
764.130 .0330043
764.847 .0329900
765.563 .0329762
766.279 .0329626
766.995 .0329497
767.710 .0329368
768.426 .0329236
769.141 .0329100
769.855 .0328953
770.570 .0328798
771.284 .0328633
771.998 .0328457
772.712 .0328275
773.426 .0328096
774.139 .0327919
774.852 .0327745
775.565 .0327573
776.277 .0327405
776.990 .0327237
777.702 .0327065
778.414 .0326888
779.125 .0326712
779.836 .0326540
780.547 .0326376
781.258 .0326222
781.969 .0326088
782.679 .0325970
783.389 .0325869
784.099 .0325779
784.808 .0325697
785.517 .0325622
786.226 .0325552
786.935 .0325483
787.643 .0325422
788.352 .0325367
789.060 .0325322
789.767 .0325283
790.475 .0325252
791.182 .0325220
791.889 .0325188
792.595 .0325152
793.301 .0325112
794.008 .0325068
794.713 .0325028
795.419 .0324989
796.124 .0324962
796.829 .0324944
797.534 .0324929
798.238 .0324913
798.942 .0324897
799.646 .0324869
800.350 .0324824
801.053 .0324759
801.756 .0324681
802.459 .0324587
803.162 .0324485
803.864 .0324376
804.566 .0324271
805.267 .0324169
805.969 .0324066
806.670 .0323964
807.371 .0323865
808.071 .0323761
808.772 .0323653
809.472 .0323535
810.171 .0323417
810.871 .0323293
811.570 .0323170
812.269 .0323046
812.967 .0322929
813.666 .0322818
814.364 .0322714
815.061 .0322617
815.759 .0322527
816.456 .0322435
817.153 .0322339
817.849 .0322232
818.545 .0322113
819.241 .0321978
819.937 .0321833
820.632 .0321675
821.327 .0321507
822.022 .0321327
822.717 .0321142
823.411 .0320951
824.105 .0320761
824.798 .0320566
825.491 .0320367
826.184 .0320166
826.877 .0319964
827.569 .0319754
828.261 .0319544
828.953 .0319332
829.645 .0319120
830.336 .0318907
831.027 .0318697
831.717 .0318493
832.407 .0318297
833.097 .0318113
833.787 .0317938
834.476 .0317772
835.165 .0317612
835.854 .0317454
836.542 .0317296
837.230 .0317135
837.918 .0316972
838.605 .0316804
839.292 .0316633
839.979 .0316463
840.665 .0316295
841.352 .0316131
842.037 .0315973
842.723 .0315822
843.408 .0315673
844.093 .0315528
844.777 .0315386
845.462 .0315244
846.145 .0315103
846.829 .0314956
847.512 .0314807
848.195 .0314658
848.878 .0314509
849.560 .0314358
850.242 .0314209
850.923 .0314065
851.605 .0313918
852.286 .0313769
852.966 .0313622
853.646 .0313470
854.326 .0313317
855.006 .0313161
855.685 .0313001
856.364 .0312838
857.043 .0312677
857.721 .0312516
858.399 .0312358
859.077 .0312203
859.754 .0312047
860.431 .0311893
861.107 .0311748
861.784 .0311605
862.459 .0311465
863.135 .0311331
863.810 .0311200
864.485 .0311067
865.160 .0310934
865.834 .0310800
866.508 .0310663
867.181 .0310530
867.854 .0310399
868.527 .0310271
869.199 .0310154
869.872 .0310048
870.543 .0309955
871.215 .0309877
871.886 .0309809
872.557 .0309744
873.227 .0309685
873.897 .0309631
874.567 .0309578
875.236 .0309529
875.905 .0309488
876.573 .0309456
877.242 .0309432
877.909 .0309420
878.577 .0309413
879.244 .0309407
879.911 .0309399
880.577 .0309377
881.243 .0309337
881.909 .0309283
882.575 .0309213
883.240 .0309129
883.904 .0309039
884.569 .0308941
885.232 .0308836
885.896 .0308727
886.559 .0308618
887.222 .0308500
887.885 .0308376
888.547 .0308248
889.208 .0308108
889.870 .0307964
890.531 .0307816
891.192 .0307671
891.852 .0307532
892.512 .0307407
893.171 .0307290
893.830 .0307183
894.489 .0307089
895.148 .0307000
895.806 .0306917
896.464 .0306842
897.121 .0306770
897.778 .0306701
898.434 .0306637
899.091 .0306578
899.747 .0306517
900.402 .0306460
901.057 .0306395
901.712 .0306322
902.366 .0306232
903.020 .0306125
903.674 .0305999
904.327 .0305859
904.980 .0305709
905.633 .0305552
906.285 .0305392
906.936 .0305235
907.588 .0305074
908.239 .0304915
908.889 .0304750
909.540 .0304581
910.190 .0304397
910.839 .0304203
911.488 .0303998
912.137 .0303784
912.785 .0303568
913.433 .0303355
914.081 .0303147
914.728 .0302946
915.375 .0302743
916.021 .0302538
916.668 .0302322
917.313 .0302099
917.959 .0301860
918.604 .0301614
919.248 .0301360
919.892 .0301106
920.536 .0300852
921.180 .0300608
921.823 .0300372
922.465 .0300144
923.108 .0299917
923.750 .0299691
924.391 .0299462
925.032 .0299232
925.673 .0298998
926.313 .0298770
926.953 .0298543
927.593 .0298319
928.232 .0298094
928.871 .0297868
929.510 .0297640
930.148 .0297410
930.786 .0297180
931.423 .0296948
932.060 .0296719
932.697 .0296500
933.333 .0296287
933.969 .0296082
934.604 .0295887
935.239 .0295690
935.874 .0295493
936.508 .0295300
937.142 .0295111
937.776 .0294927
938.409 .0294757
939.042 .0294600
939.674 .0294452
940.306 .0294317
940.938 .0294196
941.569 .0294079
942.200 .0293968
942.830 .0293855
943.460 .0293735
944.090 .0293614
944.720 .0293491
945.349 .0293369
945.977 .0293255
946.606 .0293152
947.233 .0293058
947.861 .0292968
948.488 .0292887
949.115 .0292806
949.741 .0292726
950.367 .0292644
950.993 .0292553
951.618 .0292452
952.243 .0292345
952.868 .0292233
953.492 .0292123
954.115 .0292017
954.739 .0291918
955.362 .0291830
955.984 .0291750
956.607 .0291678
957.229 .0291614
957.850 .0291553
958.471 .0291494
959.092 .0291431
959.713 .0291361
960.333 .0291287
960.952 .0291218
961.572 .0291160
962.191 .0291115
962.809 .0291089
963.428 .0291080
964.045 .0291086
964.663 .0291103
965.280 .0291125
965.897 .0291142
966.513 .0291158
967.129 .0291167
967.745 .0291162
968.361 .0291154
968.976 .0291140
969.590 .0291127
970.205 .0291120
970.818 .0291116
971.432 .0291115
972.045 .0291113
972.658 .0291108
973.271 .0291090
973.883 .0291055
974.495 .0291005
975.106 .0290932
975.717 .0290842
976.328 .0290734
976.938 .0290615
977.548 .0290496
978.158 .0290386
978.768 .0290278
979.377 .0290179
979.985 .0290086
980.594 .0289996
981.202 .0289905
981.809 .0289808
982.417 .0289707
983.024 .0289602
983.631 .0289497
984.237 .0289396
984.843 .0289297
985.449 .0289207
986.054 .0289123
986.659 .0289058
987.264 .0289009
987.868 .0288967
988.472 .0288938
989.076 .0288928
989.679 .0288929
990.282 .0288936
990.885 .0288943
991.487 .0288949
992.090 .0288948
992.691 .0288935
993.293 .0288906
993.894 .0288868
994.495 .0288827
995.095 .0288780
995.696 .0288725
996.296 .0288669
996.895 .0288606
997.494 .0288532
998.093 .0288446
998.692 .0288344
999.291 .0288222
999.889 .0288078
1000.487 .0287919
1001.084 .0287743
1001.681 .0287560
1002.278 .0287375
1002.875 .0287192
1003.471 .0287016
1004.067 .0286849
1004.663 .0286688
1005.258 .0286533
1005.854 .0286382
1006.449 .0286229
1007.043 .0286070
1007.638 .0285906
1008.232 .0285738
1008.826 .0285568
1009.419 .0285398
1010.012 .0285236
1010.605 .0285086
1011.198 .0284947
1011.791 .0284814
1012.383 .0284686
1012.975 .0284559
1013.566 .0284429
1014.158 .0284298
1014.749 .0284169
1015.340 .0284045
1015.931 .0283939
1016.521 .0283851
1017.111 .0283784
1017.701 .0283731
1018.291 .0283687
1018.880 .0283637
1019.470 .0283571
1020.059 .0283485
1020.647 .0283380
1021.236 .0283261
1021.824 .0283141
1022.412 .0283025
1023.000 .0282921
1023.588 .0282835
1024.175 .0282760
1024.762 .0282687
1025.349 .0282610
1025.936 .0282522
1026.523 .0282420
1027.109 .0282303
1027.695 .0282185
1028.281 .0282073
1028.867 .0281981
1029.452 .0281926
1030.038 .0281904
1030.623 .0281916
1031.208 .0281955
1031.792 .0282011
1032.377 .0282071
1032.961 .0282116
1033.546 .0282152
1034.130 .0282174
1034.714 .0282194
1035.297 .0282213
1035.881 .0282233
1036.464 .0282267
1037.047 .0282319
1037.630 .0282381
1038.213 .0282449
1038.796 .0282520
1039.378 .0282581
1039.961 .0282623
1040.543 .0282643
1041.125 .0282645
1041.707 .0282623
1042.289 .0282586
1042.871 .0282551
1043.452 .0282509
1044.034 .0282465
1044.615 .0282421
1045.196 .0282382
1045.777 .0282351
1046.358 .0282316
1046.939 .0282277
1047.520 .0282226
1048.101 .0282177
1048.681 .0282133
1049.262 .0282086
1049.842 .0282060
1050.422 .0282047
1051.002 .0282037
1051.582 .0282038
1052.162 .0282051
1052.742 .0282067
1053.322 .0282088
1053.902 .0282121
1054.482 .0282155
1055.061 .0282186
1055.641 .0282225
1056.220 .0282269
1056.800 .0282321
1057.379 .0282376
1057.958 .0282423
1058.538 .0282460
1059.117 .0282503
1059.696 .0282539
1060.275 .0282582
1060.854 .0282647
1061.433 .0282736
1062.012 .0282844
1062.592 .0282973
1063.171 .0283116
1063.750 .0283263
1064.329 .0283401
1064.908 .0283510
1065.487 .0283576
1066.066 .0283602
1066.645 .0283588
1067.224 .0283548
1067.803 .0283496
1068.382 .0283434
1068.961 .0283365
1069.540 .0283305
1070.119 .0283243
1070.698 .0283178
1071.278 .0283114
1071.857 .0283049
1072.436 .0282992
1073.016 .0282932
1073.595 .0282882
1074.175 .0282854
1074.754 .0282865
1075.334 .0282904
1075.913 .0282971
1076.493 .0283069
1077.073 .0283185
1077.653 .0283310
1078.233 .0283449
1078.813 .0283596
1079.393 .0283742
1079.974 .0283889
1080.554 .0284037
1081.135 .0284193
1081.716 .0284348
1082.296 .0284497
1082.877 .0284647
1083.458 .0284784
1084.040 .0284894
1084.621 .0284965
1085.202 .0285010
1085.784 .0285039
1086.366 .0285044
1086.948 .0285026
1087.530 .0284999
1088.112 .0284963
1088.695 .0284901
1089.277 .0284813
1089.860 .0284712
1090.443 .0284590
1091.026 .0284435
1091.610 .0284267
1092.193 .0284091
1092.777 .0283930
1093.361 .0283808
1093.946 .0283729
1094.530 .0283707
1095.115 .0283735
1095.700 .0283788
1096.285 .0283856
1096.871 .0283940
1097.456 .0284020
1098.042 .0284077
1098.628 .0284130
1099.215 .0284172
1099.802 .0284211
1100.389 .0284242
1100.976 .0284270
1101.564 .0284293
1102.152 .0284306
1102.740 .0284296
1103.329 .0284263
1103.917 .0284219
1104.507 .0284170
1105.096 .0284114
1105.686 .0284069
1106.276 .0284011
1106.867 .0283953
1107.457 .0283889
1108.049 .0283808
1108.640 .0283727
1109.232 .0283650
1109.825 .0283579
1110.417 .0283532
1111.010 .0283500
1111.604 .0283480
1112.198 .0283477
1112.792 .0283480
1113.387 .0283475
1113.982 .0283460
1114.577 .0283460
1115.173 .0283465
1115.769 .0283477
1116.366 .0283529
1116.963 .0283608
1117.561 .0283729
1118.159 .0283886
1118.758 .0284033
1119.357 .0284205
1119.957 .0284363
1120.557 .0284508
1121.157 .0284619
1121.758 .0284739
1122.360 .0284855
1122.962 .0284959
1123.564 .0285049
1124.167 .0285102
1124.771 .0285117
1125.375 .0285117
1125.980 .0285086
1126.585 .0285046
1127.191 .0285005
1127.797 .0285001
1128.404 .0285030
1129.012 .0285151
1129.620 .0285339
1130.229 .0285583
1130.838 .0285887
1131.448 .0286231
1132.058 .0286580
1132.669 .0286939
1133.281 .0287312
1133.894 .0287712
1134.507 .0288159
1135.120 .0288615
1135.735 .0289074
1136.350 .0289541
1136.965 .0290027
1137.582 .0290519
1138.199 .0290971
1138.816 .0291379
1139.435 .0291739
1140.054 .0292071
1140.674 .0292401
1141.294 .0292610
1141.916 .0292735
1142.538 .0292739
1143.160 .0293339
1143.784 .0294791
1144.408 .0292098
1145.033 .0290842
