Measurement Sequence started on: 14-45-04-498
Integration time: 36
Scans to Average: 2 
>>>>>Begin Spectral Data<<<<<
433.946 .0218860
434.870 .0396644
435.793 .0406653
436.715 .0409946
437.635 .0400024
438.555 .0394175
439.473 .0399564
440.389 .0398290
441.305 .0396775
442.219 .0395225
443.132 .0394012
444.044 .0392844
444.954 .0391823
445.863 .0390956
446.771 .0390366
447.678 .0389823
448.584 .0389510
449.488 .0389256
450.391 .0388990
451.293 .0388580
452.194 .0388121
453.094 .0387452
453.992 .0386610
454.890 .0385592
455.786 .0384673
456.681 .0383692
457.575 .0382730
458.468 .0381866
459.360 .0381091
460.250 .0380330
461.140 .0379558
462.028 .0378721
462.915 .0377813
463.801 .0376787
464.687 .0375699
465.571 .0374534
466.454 .0373387
467.335 .0372292
468.216 .0371249
469.096 .0370306
469.975 .0369511
470.853 .0368780
471.729 .0368115
472.605 .0367536
473.479 .0366979
474.353 .0366422
475.226 .0365874
476.097 .0365358
476.968 .0364900
477.838 .0364536
478.706 .0364291
479.574 .0364168
480.441 .0364206
481.306 .0364391
482.171 .0364681
483.035 .0365102
483.898 .0365581
484.760 .0366102
485.621 .0366615
486.481 .0367079
487.340 .0367486
488.198 .0367845
489.055 .0368139
489.912 .0368411
490.767 .0368645
491.622 .0368837
492.476 .0368902
493.329 .0368877
494.180 .0368691
495.032 .0368350
495.882 .0367852
496.731 .0367199
497.580 .0366441
498.427 .0365654
499.274 .0364798
500.120 .0363984
500.965 .0363218
501.809 .0362533
502.653 .0361862
503.495 .0361252
504.337 .0360621
505.178 .0360015
506.018 .0359447
506.858 .0358969
507.696 .0358565
508.534 .0358303
509.371 .0358123
510.208 .0357995
511.043 .0357889
511.878 .0357748
512.712 .0357485
513.545 .0357190
514.377 .0356789
515.209 .0356406
516.040 .0356020
516.870 .0355729
517.699 .0355534
518.528 .0355406
519.356 .0355331
520.183 .0355207
521.010 .0355025
521.836 .0354785
522.661 .0354424
523.485 .0353974
524.309 .0353503
525.132 .0353141
525.954 .0352830
526.776 .0352588
527.597 .0352392
528.417 .0352162
529.237 .0351823
530.056 .0351300
530.874 .0350553
531.692 .0349537
532.508 .0348392
533.325 .0347079
534.140 .0345703
534.955 .0344438
535.770 .0343246
536.583 .0342268
537.397 .0341464
538.209 .0340852
539.021 .0340354
539.832 .0339947
540.643 .0339691
541.453 .0339476
542.262 .0339347
543.071 .0339258
543.879 .0339224
544.687 .0339302
545.494 .0339430
546.300 .0339638
547.106 .0339897
547.911 .0340188
548.716 .0340481
549.520 .0340734
550.323 .0340943
551.126 .0341127
551.929 .0341273
552.731 .0341382
553.532 .0341457
554.332 .0341486
555.133 .0341452
555.932 .0341295
556.731 .0341023
557.530 .0340617
558.328 .0340094
559.125 .0339527
559.922 .0338953
560.719 .0338450
561.515 .0338016
562.310 .0337666
563.105 .0337401
563.899 .0337209
564.693 .0337038
565.487 .0336845
566.280 .0336582
567.072 .0336248
567.864 .0335840
568.655 .0335381
569.446 .0334903
570.236 .0334455
571.026 .0334079
571.816 .0333751
572.605 .0333505
573.393 .0333302
574.181 .0333106
574.969 .0332917
575.756 .0332652
576.543 .0332315
577.329 .0331899
578.115 .0331429
578.900 .0330937
579.685 .0330472
580.469 .0330107
581.253 .0329810
582.036 .0329610
582.820 .0329481
583.602 .0329373
584.384 .0329282
585.166 .0329174
585.947 .0329035
586.728 .0328889
587.509 .0328721
588.289 .0328560
589.069 .0328423
589.848 .0328316
590.627 .0328226
591.405 .0328163
592.183 .0328119
592.961 .0328069
593.738 .0328020
594.515 .0327967
595.291 .0327892
596.067 .0327809
596.843 .0327708
597.618 .0327575
598.393 .0327426
599.167 .0327268
599.941 .0327086
600.715 .0326914
601.488 .0326747
602.261 .0326584
603.034 .0326432
603.806 .0326280
604.578 .0326129
605.349 .0325965
606.121 .0325786
606.891 .0325579
607.662 .0325352
608.432 .0325112
609.201 .0324856
609.971 .0324601
610.740 .0324356
611.508 .0324125
612.277 .0323904
613.045 .0323700
613.812 .0323504
614.579 .0323313
615.346 .0323113
616.113 .0322893
616.879 .0322662
617.645 .0322415
618.411 .0322149
619.176 .0321877
619.941 .0321603
620.705 .0321337
621.470 .0321085
622.233 .0320855
622.997 .0320647
623.760 .0320456
624.523 .0320275
625.286 .0320093
626.048 .0319904
626.810 .0319701
627.572 .0319476
628.333 .0319239
629.095 .0319000
629.855 .0318757
630.616 .0318522
631.376 .0318303
632.136 .0318112
632.895 .0317940
633.655 .0317781
634.414 .0317632
635.172 .0317491
635.931 .0317350
636.689 .0317214
637.447 .0317076
638.204 .0316948
638.962 .0316823
639.718 .0316704
640.475 .0316589
641.231 .0316476
641.988 .0316358
642.743 .0316243
643.499 .0316121
644.254 .0316007
645.009 .0315894
645.764 .0315791
646.518 .0315710
647.272 .0315646
648.026 .0315601
648.780 .0315566
649.533 .0315536
650.286 .0315507
651.039 .0315457
651.792 .0315394
652.544 .0315308
653.296 .0315208
654.048 .0315106
654.799 .0314999
655.550 .0314893
656.301 .0314790
657.052 .0314690
657.802 .0314585
658.552 .0314472
659.302 .0314347
660.052 .0314208
660.801 .0314050
661.550 .0313881
662.299 .0313705
663.048 .0313522
663.796 .0313347
664.544 .0313175
665.292 .0313012
666.040 .0312860
666.787 .0312716
667.534 .0312586
668.281 .0312465
669.028 .0312352
669.774 .0312243
670.521 .0312133
671.266 .0312024
672.012 .0311909
672.758 .0311790
673.503 .0311668
674.248 .0311544
674.992 .0311414
675.737 .0311282
676.481 .0311154
677.225 .0311024
677.969 .0310893
678.712 .0310759
679.455 .0310621
680.199 .0310471
680.941 .0310317
681.684 .0310156
682.426 .0309989
683.168 .0309818
683.910 .0309640
684.652 .0309458
685.393 .0309278
686.134 .0309097
686.875 .0308917
687.616 .0308743
688.356 .0308578
689.097 .0308413
689.837 .0308254
690.576 .0308105
691.316 .0307959
692.055 .0307816
692.794 .0307678
693.533 .0307537
694.272 .0307396
695.010 .0307262
695.748 .0307130
696.486 .0307005
697.224 .0306891
697.962 .0306778
698.699 .0306670
699.436 .0306570
700.173 .0306464
700.909 .0306357
701.646 .0306253
702.382 .0306150
703.118 .0306041
703.853 .0305943
704.589 .0305850
705.324 .0305765
706.059 .0305696
706.794 .0305636
707.529 .0305578
708.263 .0305533
708.997 .0305486
709.731 .0305432
710.465 .0305379
711.198 .0305324
711.931 .0305260
712.664 .0305203
713.397 .0305145
714.130 .0305082
714.862 .0305019
715.594 .0304954
716.326 .0304875
717.058 .0304789
717.789 .0304695
718.520 .0304584
719.251 .0304466
719.982 .0304348
720.713 .0304221
721.443 .0304098
722.173 .0303976
722.903 .0303854
723.633 .0303733
724.362 .0303615
725.091 .0303488
725.820 .0303364
726.549 .0303250
727.278 .0303138
728.006 .0303033
728.734 .0302934
729.462 .0302835
730.190 .0302736
730.917 .0302631
731.644 .0302516
732.371 .0302385
733.098 .0302240
733.825 .0302082
734.551 .0301912
735.277 .0301735
736.003 .0301549
736.728 .0301364
737.454 .0301181
738.179 .0300998
738.904 .0300810
739.629 .0300630
740.353 .0300457
741.077 .0300292
741.801 .0300139
742.525 .0299999
743.249 .0299874
743.972 .0299761
744.695 .0299657
745.418 .0299560
746.141 .0299461
746.863 .0299364
747.585 .0299262
748.307 .0299155
749.029 .0299043
749.750 .0298927
750.472 .0298806
751.193 .0298681
751.913 .0298545
752.634 .0298397
753.354 .0298240
754.074 .0298075
754.794 .0297896
755.514 .0297712
756.233 .0297527
756.952 .0297335
757.671 .0297147
758.390 .0296965
759.108 .0296783
759.826 .0296602
760.544 .0296428
761.262 .0296254
761.979 .0296081
762.697 .0295920
763.414 .0295757
764.130 .0295599
764.847 .0295450
765.563 .0295305
766.279 .0295163
766.995 .0295030
767.710 .0294900
768.426 .0294770
769.141 .0294648
769.855 .0294533
770.570 .0294419
771.284 .0294316
771.998 .0294224
772.712 .0294141
773.426 .0294067
774.139 .0294002
774.852 .0293936
775.565 .0293875
776.277 .0293819
776.990 .0293761
777.702 .0293698
778.414 .0293638
779.125 .0293579
779.836 .0293524
780.547 .0293473
781.258 .0293430
781.969 .0293389
782.679 .0293355
783.389 .0293318
784.099 .0293278
784.808 .0293235
785.517 .0293193
786.226 .0293140
786.935 .0293082
787.643 .0293021
788.352 .0292956
789.060 .0292889
789.767 .0292828
790.475 .0292762
791.182 .0292690
791.889 .0292611
792.595 .0292528
793.301 .0292432
794.008 .0292338
794.713 .0292239
795.419 .0292144
796.124 .0292055
796.829 .0291968
797.534 .0291881
798.238 .0291798
798.942 .0291715
799.646 .0291626
800.350 .0291525
801.053 .0291418
801.756 .0291301
802.459 .0291184
803.162 .0291070
803.864 .0290955
804.566 .0290845
805.267 .0290739
805.969 .0290630
806.670 .0290522
807.371 .0290412
808.071 .0290307
808.772 .0290201
809.472 .0290089
810.171 .0289974
810.871 .0289853
811.570 .0289730
812.269 .0289608
812.967 .0289476
813.666 .0289339
814.364 .0289196
815.061 .0289046
815.759 .0288898
816.456 .0288753
817.153 .0288616
817.849 .0288480
818.545 .0288348
819.241 .0288216
819.937 .0288070
820.632 .0287918
821.327 .0287756
822.022 .0287590
822.717 .0287424
823.411 .0287258
824.105 .0287102
824.798 .0286963
825.491 .0286835
826.184 .0286717
826.877 .0286606
827.569 .0286493
828.261 .0286369
828.953 .0286227
829.645 .0286066
830.336 .0285892
831.027 .0285707
831.717 .0285522
832.407 .0285339
833.097 .0285166
833.787 .0284999
834.476 .0284838
835.165 .0284687
835.854 .0284535
836.542 .0284381
837.230 .0284222
837.918 .0284056
838.605 .0283887
839.292 .0283724
839.979 .0283569
840.665 .0283429
841.352 .0283310
842.037 .0283202
842.723 .0283106
843.408 .0283018
844.093 .0282933
844.777 .0282844
845.462 .0282750
846.145 .0282650
846.829 .0282536
847.512 .0282422
848.195 .0282305
848.878 .0282189
849.560 .0282079
850.242 .0281967
850.923 .0281852
851.605 .0281731
852.286 .0281600
852.966 .0281454
853.646 .0281300
854.326 .0281139
855.006 .0280974
855.685 .0280813
856.364 .0280659
857.043 .0280515
857.721 .0280376
858.399 .0280242
859.077 .0280109
859.754 .0279971
860.431 .0279834
861.107 .0279689
861.784 .0279548
862.459 .0279406
863.135 .0279269
863.810 .0279140
864.485 .0279015
865.160 .0278893
865.834 .0278779
866.508 .0278664
867.181 .0278547
867.854 .0278435
868.527 .0278328
869.199 .0278228
869.872 .0278140
870.543 .0278057
871.215 .0277979
871.886 .0277901
872.557 .0277820
873.227 .0277723
873.897 .0277623
874.567 .0277514
875.236 .0277396
875.905 .0277282
876.573 .0277171
877.242 .0277062
877.909 .0276959
878.577 .0276863
879.244 .0276766
879.911 .0276665
880.577 .0276563
881.243 .0276456
881.909 .0276354
882.575 .0276257
883.240 .0276161
883.904 .0276069
884.569 .0275989
885.232 .0275907
885.896 .0275823
886.559 .0275746
887.222 .0275669
887.885 .0275596
888.547 .0275529
889.208 .0275466
889.870 .0275404
890.531 .0275348
891.192 .0275299
891.852 .0275243
892.512 .0275186
893.171 .0275124
893.830 .0275053
894.489 .0274983
895.148 .0274913
895.806 .0274845
896.464 .0274788
897.121 .0274744
897.778 .0274702
898.434 .0274663
899.091 .0274624
899.747 .0274576
900.402 .0274517
901.057 .0274448
901.712 .0274361
902.366 .0274254
903.020 .0274139
903.674 .0274012
904.327 .0273881
904.980 .0273755
905.633 .0273631
906.285 .0273513
906.936 .0273405
907.588 .0273300
908.239 .0273197
908.889 .0273098
909.540 .0273001
910.190 .0272893
910.839 .0272783
911.488 .0272667
912.137 .0272542
912.785 .0272418
913.433 .0272302
914.081 .0272191
914.728 .0272093
915.375 .0272007
916.021 .0271929
916.668 .0271860
917.313 .0271795
917.959 .0271719
918.604 .0271631
919.248 .0271525
919.892 .0271394
920.536 .0271244
921.180 .0271088
921.823 .0270925
922.465 .0270763
923.108 .0270608
923.750 .0270461
924.391 .0270311
925.032 .0270162
925.673 .0270002
926.313 .0269826
926.953 .0269637
927.593 .0269426
928.232 .0269195
928.871 .0268965
929.510 .0268738
930.148 .0268519
930.786 .0268316
931.423 .0268133
932.060 .0267963
932.697 .0267803
933.333 .0267643
933.969 .0267478
934.604 .0267309
935.239 .0267135
935.874 .0266957
936.508 .0266779
937.142 .0266608
937.776 .0266440
938.409 .0266278
939.042 .0266116
939.674 .0265947
940.306 .0265769
940.938 .0265578
941.569 .0265376
942.200 .0265165
942.830 .0264946
943.460 .0264725
944.090 .0264506
944.720 .0264298
945.349 .0264092
945.977 .0263894
946.606 .0263703
947.233 .0263521
947.861 .0263342
948.488 .0263166
949.115 .0262992
949.741 .0262824
950.367 .0262664
950.993 .0262503
951.618 .0262343
952.243 .0262189
952.868 .0262031
953.492 .0261867
954.115 .0261695
954.739 .0261521
955.362 .0261339
955.984 .0261154
956.607 .0260966
957.229 .0260775
957.850 .0260589
958.471 .0260398
959.092 .0260206
959.713 .0260016
960.333 .0259823
960.952 .0259629
961.572 .0259441
962.191 .0259269
962.809 .0259109
963.428 .0258969
964.045 .0258843
964.663 .0258741
965.280 .0258653
965.897 .0258573
966.513 .0258493
967.129 .0258411
967.745 .0258315
968.361 .0258206
968.976 .0258084
969.590 .0257965
970.205 .0257849
970.818 .0257752
971.432 .0257665
972.045 .0257602
972.658 .0257546
973.271 .0257493
973.883 .0257433
974.495 .0257362
975.106 .0257264
975.717 .0257151
976.328 .0257022
976.938 .0256892
977.548 .0256771
978.158 .0256674
978.768 .0256601
979.377 .0256562
979.985 .0256537
980.594 .0256524
981.202 .0256512
981.809 .0256503
982.417 .0256477
983.024 .0256449
983.631 .0256416
984.237 .0256382
984.843 .0256351
985.449 .0256329
986.054 .0256311
986.659 .0256297
987.264 .0256282
987.868 .0256255
988.472 .0256216
989.076 .0256165
989.679 .0256095
990.282 .0256015
990.885 .0255923
991.487 .0255822
992.090 .0255714
992.691 .0255608
993.293 .0255509
993.894 .0255417
994.495 .0255340
995.095 .0255276
995.696 .0255223
996.296 .0255175
996.895 .0255130
997.494 .0255089
998.093 .0255054
998.692 .0255024
999.291 .0254996
999.889 .0254975
1000.487 .0254964
1001.084 .0254959
1001.681 .0254964
1002.278 .0254970
1002.875 .0254974
1003.471 .0254973
1004.067 .0254968
1004.663 .0254959
1005.258 .0254956
1005.854 .0254958
1006.449 .0254965
1007.043 .0254982
1007.638 .0255009
1008.232 .0255031
1008.826 .0255059
1009.419 .0255090
1010.012 .0255114
1010.605 .0255135
1011.198 .0255152
1011.791 .0255158
1012.383 .0255163
1012.975 .0255164
1013.566 .0255156
1014.158 .0255134
1014.749 .0255109
1015.340 .0255068
1015.931 .0255027
1016.521 .0254989
1017.111 .0254952
1017.701 .0254913
1018.291 .0254878
1018.880 .0254830
1019.470 .0254769
1020.059 .0254700
1020.647 .0254624
1021.236 .0254546
1021.824 .0254481
1022.412 .0254426
1023.000 .0254390
1023.588 .0254369
1024.175 .0254366
1024.762 .0254355
1025.349 .0254341
1025.936 .0254313
1026.523 .0254272
1027.109 .0254223
1027.695 .0254170
1028.281 .0254119
1028.867 .0254078
1029.452 .0254044
1030.038 .0254019
1030.623 .0253987
1031.208 .0253957
1031.792 .0253913
1032.377 .0253870
1032.961 .0253825
1033.546 .0253790
1034.130 .0253766
1034.714 .0253766
1035.297 .0253783
1035.881 .0253811
1036.464 .0253850
1037.047 .0253898
1037.630 .0253945
1038.213 .0254002
1038.796 .0254066
1039.378 .0254152
1039.961 .0254252
1040.543 .0254377
1041.125 .0254504
1041.707 .0254631
1042.289 .0254729
1042.871 .0254797
1043.452 .0254825
1044.034 .0254821
1044.615 .0254780
1045.196 .0254720
1045.777 .0254648
1046.358 .0254571
1046.939 .0254474
1047.520 .0254376
1048.101 .0254266
1048.681 .0254151
1049.262 .0254015
1049.842 .0253879
1050.422 .0253746
1051.002 .0253639
1051.582 .0253549
1052.162 .0253479
1052.742 .0253424
1053.322 .0253376
1053.902 .0253319
1054.482 .0253247
1055.061 .0253154
1055.641 .0253049
1056.220 .0252933
1056.800 .0252822
1057.379 .0252713
1057.958 .0252619
1058.538 .0252537
1059.117 .0252478
1059.696 .0252415
1060.275 .0252349
1060.854 .0252267
1061.433 .0252181
1062.012 .0252097
1062.592 .0252034
1063.171 .0252013
1063.750 .0252053
1064.329 .0252162
1064.908 .0252341
1065.487 .0252569
1066.066 .0252841
1066.645 .0253119
1067.224 .0253396
1067.803 .0253645
1068.382 .0253863
1068.961 .0254042
1069.540 .0254198
1070.119 .0254345
1070.698 .0254495
1071.278 .0254652
1071.857 .0254817
1072.436 .0254992
1073.016 .0255151
1073.595 .0255274
1074.175 .0255353
1074.754 .0255379
1075.334 .0255345
1075.913 .0255254
1076.493 .0255125
1077.073 .0254981
1077.653 .0254835
1078.233 .0254692
1078.813 .0254549
1079.393 .0254414
1079.974 .0254265
1080.554 .0254084
1081.135 .0253874
1081.716 .0253637
1082.296 .0253374
1082.877 .0253109
1083.458 .0252862
1084.040 .0252628
1084.621 .0252420
1085.202 .0252251
1085.784 .0252106
1086.366 .0251990
1086.948 .0251892
1087.530 .0251802
1088.112 .0251728
1088.695 .0251661
1089.277 .0251589
1089.860 .0251494
1090.443 .0251414
1091.026 .0251318
1091.610 .0251219
1092.193 .0251114
1092.777 .0251001
1093.361 .0250892
1093.946 .0250796
1094.530 .0250716
1095.115 .0250643
1095.700 .0250582
1096.285 .0250545
1096.871 .0250514
1097.456 .0250528
1098.042 .0250555
1098.628 .0250615
1099.215 .0250714
1099.802 .0250847
1100.389 .0250986
1100.976 .0251140
1101.564 .0251293
1102.152 .0251431
1102.740 .0251541
1103.329 .0251599
1103.917 .0251613
1104.507 .0251602
1105.096 .0251552
1105.686 .0251480
1106.276 .0251407
1106.867 .0251332
1107.457 .0251244
1108.049 .0251163
1108.640 .0251084
1109.232 .0251007
1109.825 .0250945
1110.417 .0250877
1111.010 .0250811
1111.604 .0250775
1112.198 .0250760
1112.792 .0250769
1113.387 .0250834
1113.982 .0250939
1114.577 .0251081
1115.173 .0251287
1115.769 .0251488
1116.366 .0251709
1116.963 .0251926
1117.561 .0252114
1118.159 .0252291
1118.758 .0252440
1119.357 .0252584
1119.957 .0252732
1120.557 .0252898
1121.157 .0253081
1121.758 .0253256
1122.360 .0253443
1122.962 .0253605
1123.564 .0253720
1124.167 .0253822
1124.771 .0253900
1125.375 .0253964
1125.980 .0254109
1126.585 .0254282
1127.191 .0254529
1127.797 .0254845
1128.404 .0255179
1129.012 .0255530
1129.620 .0255856
1130.229 .0256148
1130.838 .0256387
1131.448 .0256585
1132.058 .0256813
1132.669 .0257041
1133.281 .0257362
1133.894 .0257760
1134.507 .0258231
1135.120 .0258752
1135.735 .0259323
1136.350 .0259862
1136.965 .0260366
1137.582 .0260806
1138.199 .0261186
1138.816 .0261510
1139.435 .0261862
1140.054 .0262237
1140.674 .0262580
1141.294 .0262904
1141.916 .0263070
1142.538 .0265146
1143.160 .0265276
1143.784 .0263550
1144.408 .0262872
1145.033 .0259083
