Measurement Sequence started on: 14-45-04-498
Integration time: 36
Scans to Average: 2 
>>>>>Begin Spectral Data<<<<<
433.946 .0514402
434.870 .0536462
435.793 .0468495
436.715 .0485896
437.635 .0469625
438.555 .0476959
439.473 .0472556
440.389 .0468513
441.305 .0466684
442.219 .0464402
443.132 .0462745
444.044 .0461162
444.954 .0459908
445.863 .0459162
446.771 .0458759
447.678 .0458535
448.584 .0458439
449.488 .0458285
450.391 .0457932
451.293 .0457327
452.194 .0456536
453.094 .0455491
453.992 .0454298
454.890 .0452970
455.786 .0451600
456.681 .0450281
457.575 .0448995
458.468 .0447685
459.360 .0446414
460.250 .0445179
461.140 .0443928
462.028 .0442712
462.915 .0441575
463.801 .0440533
464.687 .0439603
465.571 .0438756
466.454 .0438006
467.335 .0437371
468.216 .0436841
469.096 .0436325
469.975 .0435850
470.853 .0435411
471.729 .0434925
472.605 .0434405
473.479 .0433874
474.353 .0433280
475.226 .0432637
476.097 .0431999
476.968 .0431377
477.838 .0430745
478.706 .0430151
479.574 .0429576
480.441 .0429059
481.306 .0428603
482.171 .0428176
483.035 .0427756
483.898 .0427393
484.760 .0427054
485.621 .0426698
486.481 .0426352
487.340 .0426052
488.198 .0425736
489.055 .0425454
489.912 .0425160
490.767 .0424815
491.622 .0424402
492.476 .0423935
493.329 .0423393
494.180 .0422799
495.032 .0422191
495.882 .0421566
496.731 .0420946
497.580 .0420388
498.427 .0419860
499.274 .0419340
500.120 .0418843
500.965 .0418331
501.809 .0417766
502.653 .0417140
503.495 .0416452
504.337 .0415693
505.178 .0414911
506.018 .0414135
506.858 .0413333
507.696 .0412526
508.534 .0411753
509.371 .0410979
510.208 .0410220
511.043 .0409479
511.878 .0408754
512.712 .0407989
513.545 .0407233
514.377 .0406516
515.209 .0405833
516.040 .0405218
516.870 .0404728
517.699 .0404375
518.528 .0404195
519.356 .0404219
520.183 .0404315
521.010 .0404531
521.836 .0404789
522.661 .0404977
523.485 .0404981
524.309 .0404806
525.132 .0404484
525.954 .0403985
526.776 .0403455
527.597 .0402953
528.417 .0402469
529.237 .0402146
530.056 .0401874
530.874 .0401642
531.692 .0401329
532.508 .0400973
533.325 .0400448
534.140 .0399786
534.955 .0399054
535.770 .0398271
536.583 .0397547
537.397 .0396999
538.209 .0396595
539.021 .0396297
539.832 .0396082
540.643 .0395920
541.453 .0395710
542.262 .0395525
543.071 .0395263
543.879 .0394981
544.687 .0394736
545.494 .0394558
546.300 .0394401
547.106 .0394251
547.911 .0394157
548.716 .0394029
549.520 .0393846
550.323 .0393585
551.126 .0393223
551.929 .0392820
552.731 .0392360
553.532 .0391864
554.332 .0391328
555.133 .0390840
555.932 .0390361
556.731 .0389881
557.530 .0389474
558.328 .0389115
559.125 .0388819
559.922 .0388590
560.719 .0388411
561.515 .0388257
562.310 .0388118
563.105 .0388005
563.899 .0387849
564.693 .0387700
565.487 .0387488
566.280 .0387208
567.072 .0386892
567.864 .0386531
568.655 .0386115
569.446 .0385673
570.236 .0385224
571.026 .0384765
571.816 .0384287
572.605 .0383799
573.393 .0383280
574.181 .0382790
574.969 .0382305
575.756 .0381813
576.543 .0381337
577.329 .0380883
578.115 .0380419
578.900 .0379960
579.685 .0379503
580.469 .0379032
581.253 .0378558
582.036 .0378085
582.820 .0377607
583.602 .0377161
584.384 .0376743
585.166 .0376343
585.947 .0375972
586.728 .0375637
587.509 .0375304
588.289 .0374988
589.069 .0374705
589.848 .0374437
590.627 .0374194
591.405 .0373977
592.183 .0373788
592.961 .0373622
593.738 .0373480
594.515 .0373342
595.291 .0373199
596.067 .0373061
596.843 .0372907
597.618 .0372736
598.393 .0372555
599.167 .0372361
599.941 .0372164
600.715 .0371979
601.488 .0371807
602.261 .0371652
603.034 .0371522
603.806 .0371416
604.578 .0371324
605.349 .0371241
606.121 .0371173
606.891 .0371116
607.662 .0371069
608.432 .0371029
609.201 .0370987
609.971 .0370948
610.740 .0370902
611.508 .0370848
612.277 .0370778
613.045 .0370690
613.812 .0370580
614.579 .0370447
615.346 .0370297
616.113 .0370135
616.879 .0369965
617.645 .0369795
618.411 .0369627
619.176 .0369458
619.941 .0369283
620.705 .0369108
621.470 .0368939
622.233 .0368774
622.997 .0368611
623.760 .0368460
624.523 .0368325
625.286 .0368210
626.048 .0368111
626.810 .0368019
627.572 .0367924
628.333 .0367817
629.095 .0367690
629.855 .0367531
630.616 .0367353
631.376 .0367165
632.136 .0366974
632.895 .0366786
633.655 .0366611
634.414 .0366447
635.172 .0366292
635.931 .0366140
636.689 .0365977
637.447 .0365801
638.204 .0365611
638.962 .0365408
639.718 .0365203
640.475 .0365008
641.231 .0364824
641.988 .0364655
642.743 .0364502
643.499 .0364351
644.254 .0364199
645.009 .0364041
645.764 .0363879
646.518 .0363713
647.272 .0363547
648.026 .0363384
648.780 .0363235
649.533 .0363111
650.286 .0363006
651.039 .0362916
651.792 .0362838
652.544 .0362770
653.296 .0362702
654.048 .0362637
654.799 .0362577
655.550 .0362522
656.301 .0362476
657.052 .0362428
657.802 .0362383
658.552 .0362331
659.302 .0362266
660.052 .0362182
660.801 .0362073
661.550 .0361943
662.299 .0361789
663.048 .0361619
663.796 .0361438
664.544 .0361255
665.292 .0361069
666.040 .0360882
666.787 .0360698
667.534 .0360516
668.281 .0360330
669.028 .0360141
669.774 .0359954
670.521 .0359761
671.266 .0359574
672.012 .0359395
672.758 .0359224
673.503 .0359067
674.248 .0358919
674.992 .0358781
675.737 .0358651
676.481 .0358527
677.225 .0358401
677.969 .0358270
678.712 .0358134
679.455 .0357987
680.199 .0357830
680.941 .0357666
681.684 .0357501
682.426 .0357330
683.168 .0357160
683.910 .0356988
684.652 .0356816
685.393 .0356648
686.134 .0356477
686.875 .0356308
687.616 .0356136
688.356 .0355963
689.097 .0355791
689.837 .0355617
690.576 .0355446
691.316 .0355280
692.055 .0355123
692.794 .0354974
693.533 .0354838
694.272 .0354713
695.010 .0354595
695.748 .0354483
696.486 .0354371
697.224 .0354260
697.962 .0354144
698.699 .0354025
699.436 .0353904
700.173 .0353780
700.909 .0353658
701.646 .0353537
702.382 .0353423
703.118 .0353311
703.853 .0353199
704.589 .0353085
705.324 .0352964
706.059 .0352840
706.794 .0352712
707.529 .0352584
708.263 .0352464
708.997 .0352353
709.731 .0352247
710.465 .0352151
711.198 .0352065
711.931 .0351979
712.664 .0351896
713.397 .0351806
714.130 .0351707
714.862 .0351600
715.594 .0351484
716.326 .0351366
717.058 .0351244
717.789 .0351126
718.520 .0351002
719.251 .0350876
719.982 .0350746
720.713 .0350602
721.443 .0350447
722.173 .0350280
722.903 .0350097
723.633 .0349906
724.362 .0349705
725.091 .0349500
725.820 .0349294
726.549 .0349089
727.278 .0348879
728.006 .0348669
728.734 .0348456
729.462 .0348242
730.190 .0348029
730.917 .0347821
731.644 .0347616
732.371 .0347420
733.098 .0347234
733.825 .0347056
734.551 .0346888
735.277 .0346730
736.003 .0346575
736.728 .0346432
737.454 .0346296
738.179 .0346169
738.904 .0346049
739.629 .0345937
740.353 .0345830
741.077 .0345723
741.801 .0345615
742.525 .0345502
743.249 .0345388
743.972 .0345273
744.695 .0345157
745.418 .0345041
746.141 .0344925
746.863 .0344811
747.585 .0344697
748.307 .0344579
749.029 .0344456
749.750 .0344326
750.472 .0344193
751.193 .0344059
751.913 .0343929
752.634 .0343804
753.354 .0343690
754.074 .0343583
754.794 .0343482
755.514 .0343384
756.233 .0343286
756.952 .0343184
757.671 .0343082
758.390 .0342977
759.108 .0342873
759.826 .0342775
760.544 .0342684
761.262 .0342598
761.979 .0342516
762.697 .0342432
763.414 .0342345
764.130 .0342252
764.847 .0342155
765.563 .0342051
766.279 .0341945
766.995 .0341842
767.710 .0341741
768.426 .0341646
769.141 .0341562
769.855 .0341484
770.570 .0341413
771.284 .0341344
771.998 .0341273
772.712 .0341202
773.426 .0341132
774.139 .0341062
774.852 .0340991
775.565 .0340923
776.277 .0340857
776.990 .0340794
777.702 .0340730
778.414 .0340665
779.125 .0340596
779.836 .0340517
780.547 .0340427
781.258 .0340324
781.969 .0340210
782.679 .0340086
783.389 .0339955
784.099 .0339817
784.808 .0339671
785.517 .0339526
786.226 .0339378
786.935 .0339233
787.643 .0339092
788.352 .0338956
789.060 .0338824
789.767 .0338701
790.475 .0338583
791.182 .0338469
791.889 .0338362
792.595 .0338259
793.301 .0338152
794.008 .0338046
794.713 .0337939
795.419 .0337831
796.124 .0337726
796.829 .0337624
797.534 .0337520
798.238 .0337418
798.942 .0337315
799.646 .0337205
800.350 .0337084
801.053 .0336951
801.756 .0336801
802.459 .0336634
803.162 .0336454
803.864 .0336261
804.566 .0336060
805.267 .0335857
805.969 .0335652
806.670 .0335445
807.371 .0335239
808.071 .0335037
808.772 .0334836
809.472 .0334637
810.171 .0334443
810.871 .0334256
811.570 .0334079
812.269 .0333917
812.967 .0333765
813.666 .0333631
814.364 .0333510
815.061 .0333400
815.759 .0333297
816.456 .0333198
817.153 .0333097
817.849 .0332990
818.545 .0332873
819.241 .0332745
819.937 .0332603
820.632 .0332453
821.327 .0332294
822.022 .0332125
822.717 .0331947
823.411 .0331764
824.105 .0331582
824.798 .0331400
825.491 .0331218
826.184 .0331044
826.877 .0330874
827.569 .0330715
828.261 .0330566
828.953 .0330426
829.645 .0330292
830.336 .0330167
831.027 .0330045
831.717 .0329926
832.407 .0329812
833.097 .0329705
833.787 .0329602
834.476 .0329507
835.165 .0329415
835.854 .0329325
836.542 .0329242
837.230 .0329160
837.918 .0329075
838.605 .0328990
839.292 .0328905
839.979 .0328823
840.665 .0328741
841.352 .0328669
842.037 .0328604
842.723 .0328547
843.408 .0328496
844.093 .0328450
844.777 .0328406
845.462 .0328360
846.145 .0328312
846.829 .0328256
847.512 .0328192
848.195 .0328123
848.878 .0328051
849.560 .0327974
850.242 .0327892
850.923 .0327806
851.605 .0327712
852.286 .0327614
852.966 .0327505
853.646 .0327386
854.326 .0327262
855.006 .0327136
855.685 .0327006
856.364 .0326870
857.043 .0326736
857.721 .0326603
858.399 .0326468
859.077 .0326329
859.754 .0326185
860.431 .0326037
861.107 .0325885
861.784 .0325729
862.459 .0325569
863.135 .0325410
863.810 .0325252
864.485 .0325096
865.160 .0324944
865.834 .0324793
866.508 .0324648
867.181 .0324509
867.854 .0324378
868.527 .0324249
869.199 .0324120
869.872 .0323989
870.543 .0323852
871.215 .0323708
871.886 .0323554
872.557 .0323392
873.227 .0323229
873.897 .0323063
874.567 .0322897
875.236 .0322733
875.905 .0322574
876.573 .0322419
877.242 .0322263
877.909 .0322102
878.577 .0321934
879.244 .0321755
879.911 .0321571
880.577 .0321377
881.243 .0321181
881.909 .0320988
882.575 .0320797
883.240 .0320607
883.904 .0320418
884.569 .0320227
885.232 .0320031
885.896 .0319828
886.559 .0319615
887.222 .0319390
887.885 .0319156
888.547 .0318913
889.208 .0318663
889.870 .0318412
890.531 .0318169
891.192 .0317928
891.852 .0317699
892.512 .0317478
893.171 .0317263
893.830 .0317054
894.489 .0316852
895.148 .0316653
895.806 .0316458
896.464 .0316273
897.121 .0316099
897.778 .0315936
898.434 .0315789
899.091 .0315655
899.747 .0315529
900.402 .0315412
901.057 .0315292
901.712 .0315163
902.366 .0315025
903.020 .0314876
903.674 .0314719
904.327 .0314560
904.980 .0314402
905.633 .0314247
906.285 .0314098
906.936 .0313954
907.588 .0313808
908.239 .0313664
908.889 .0313516
909.540 .0313359
910.190 .0313193
910.839 .0313023
911.488 .0312846
912.137 .0312671
912.785 .0312496
913.433 .0312326
914.081 .0312161
914.728 .0312001
915.375 .0311841
916.021 .0311684
916.668 .0311527
917.313 .0311368
917.959 .0311207
918.604 .0311045
919.248 .0310881
919.892 .0310723
920.536 .0310571
921.180 .0310433
921.823 .0310309
922.465 .0310193
923.108 .0310090
923.750 .0309998
924.391 .0309908
925.032 .0309814
925.673 .0309717
926.313 .0309616
926.953 .0309510
927.593 .0309399
928.232 .0309286
928.871 .0309170
929.510 .0309058
930.148 .0308938
930.786 .0308814
931.423 .0308684
932.060 .0308553
932.697 .0308417
933.333 .0308282
933.969 .0308147
934.604 .0308013
935.239 .0307881
935.874 .0307756
936.508 .0307636
937.142 .0307528
937.776 .0307429
938.409 .0307345
939.042 .0307273
939.674 .0307211
940.306 .0307152
940.938 .0307104
941.569 .0307059
942.200 .0307015
942.830 .0306961
943.460 .0306903
944.090 .0306840
944.720 .0306775
945.349 .0306706
945.977 .0306640
946.606 .0306574
947.233 .0306508
947.861 .0306430
948.488 .0306340
949.115 .0306233
949.741 .0306113
950.367 .0305975
950.993 .0305826
951.618 .0305672
952.243 .0305519
952.868 .0305366
953.492 .0305223
954.115 .0305083
954.739 .0304945
955.362 .0304804
955.984 .0304659
956.607 .0304508
957.229 .0304358
957.850 .0304212
958.471 .0304073
959.092 .0303947
959.713 .0303832
960.333 .0303723
960.952 .0303626
961.572 .0303534
962.191 .0303446
962.809 .0303357
963.428 .0303272
964.045 .0303185
964.663 .0303095
965.280 .0303003
965.897 .0302908
966.513 .0302811
967.129 .0302716
967.745 .0302614
968.361 .0302515
968.976 .0302416
969.590 .0302319
970.205 .0302218
970.818 .0302120
971.432 .0302012
972.045 .0301898
972.658 .0301768
973.271 .0301624
973.883 .0301457
974.495 .0301270
975.106 .0301065
975.717 .0300855
976.328 .0300639
976.938 .0300427
977.548 .0300214
978.158 .0300010
978.768 .0299800
979.377 .0299586
979.985 .0299362
980.594 .0299136
981.202 .0298905
981.809 .0298679
982.417 .0298463
983.024 .0298267
983.631 .0298094
984.237 .0297946
984.843 .0297813
985.449 .0297695
986.054 .0297578
986.659 .0297462
987.264 .0297340
987.868 .0297221
988.472 .0297106
989.076 .0296999
989.679 .0296908
990.282 .0296825
990.885 .0296749
991.487 .0296671
992.090 .0296584
992.691 .0296481
993.293 .0296363
993.894 .0296224
994.495 .0296072
995.095 .0295918
995.696 .0295769
996.296 .0295621
996.895 .0295481
997.494 .0295342
998.093 .0295199
998.692 .0295043
999.291 .0294876
999.889 .0294688
1000.487 .0294493
1001.084 .0294288
1001.681 .0294080
1002.278 .0293877
1002.875 .0293687
1003.471 .0293503
1004.067 .0293329
1004.663 .0293169
1005.258 .0293017
1005.854 .0292864
1006.449 .0292719
1007.043 .0292580
1007.638 .0292444
1008.232 .0292312
1008.826 .0292182
1009.419 .0292052
1010.012 .0291928
1010.605 .0291805
1011.198 .0291685
1011.791 .0291578
1012.383 .0291480
1012.975 .0291394
1013.566 .0291324
1014.158 .0291273
1014.749 .0291234
1015.340 .0291210
1015.931 .0291200
1016.521 .0291195
1017.111 .0291192
1017.701 .0291193
1018.291 .0291198
1018.880 .0291216
1019.470 .0291244
1020.059 .0291279
1020.647 .0291322
1021.236 .0291367
1021.824 .0291401
1022.412 .0291424
1023.000 .0291428
1023.588 .0291418
1024.175 .0291391
1024.762 .0291355
1025.349 .0291317
1025.936 .0291291
1026.523 .0291284
1027.109 .0291293
1027.695 .0291318
1028.281 .0291352
1028.867 .0291379
1029.452 .0291401
1030.038 .0291414
1030.623 .0291418
1031.208 .0291418
1031.792 .0291421
1032.377 .0291427
1032.961 .0291448
1033.546 .0291483
1034.130 .0291534
1034.714 .0291599
1035.297 .0291672
1035.881 .0291736
1036.464 .0291793
1037.047 .0291847
1037.630 .0291895
1038.213 .0291945
1038.796 .0292001
1039.378 .0292061
1039.961 .0292131
1040.543 .0292207
1041.125 .0292281
1041.707 .0292350
1042.289 .0292421
1042.871 .0292480
1043.452 .0292529
1044.034 .0292571
1044.615 .0292606
1045.196 .0292643
1045.777 .0292684
1046.358 .0292722
1046.939 .0292751
1047.520 .0292779
1048.101 .0292799
1048.681 .0292812
1049.262 .0292828
1049.842 .0292855
1050.422 .0292893
1051.002 .0292950
1051.582 .0293027
1052.162 .0293118
1052.742 .0293218
1053.322 .0293312
1053.902 .0293391
1054.482 .0293450
1055.061 .0293469
1055.641 .0293460
1056.220 .0293431
1056.800 .0293404
1057.379 .0293380
1057.958 .0293373
1058.538 .0293395
1059.117 .0293445
1059.696 .0293510
1060.275 .0293585
1060.854 .0293656
1061.433 .0293731
1062.012 .0293791
1062.592 .0293845
1063.171 .0293892
1063.750 .0293947
1064.329 .0293996
1064.908 .0294048
1065.487 .0294093
1066.066 .0294138
1066.645 .0294149
1067.224 .0294141
1067.803 .0294101
1068.382 .0294031
1068.961 .0293935
1069.540 .0293822
1070.119 .0293687
1070.698 .0293562
1071.278 .0293431
1071.857 .0293319
1072.436 .0293216
1073.016 .0293142
1073.595 .0293079
1074.175 .0293044
1074.754 .0293040
1075.334 .0293051
1075.913 .0293070
1076.493 .0293104
1077.073 .0293127
1077.653 .0293141
1078.233 .0293137
1078.813 .0293126
1079.393 .0293110
1079.974 .0293105
1080.554 .0293105
1081.135 .0293120
1081.716 .0293155
1082.296 .0293204
1082.877 .0293252
1083.458 .0293293
1084.040 .0293318
1084.621 .0293309
1085.202 .0293279
1085.784 .0293236
1086.366 .0293194
1086.948 .0293161
1087.530 .0293150
1088.112 .0293168
1088.695 .0293198
1089.277 .0293237
1089.860 .0293289
1090.443 .0293340
1091.026 .0293391
1091.610 .0293411
1092.193 .0293416
1092.777 .0293403
1093.361 .0293386
1093.946 .0293341
1094.530 .0293283
1095.115 .0293221
1095.700 .0293141
1096.285 .0293044
1096.871 .0292942
1097.456 .0292848
1098.042 .0292762
1098.628 .0292665
1099.215 .0292551
1099.802 .0292402
1100.389 .0292233
1100.976 .0292014
1101.564 .0291770
1102.152 .0291510
1102.740 .0291255
1103.329 .0291020
1103.917 .0290823
1104.507 .0290681
1105.096 .0290589
1105.686 .0290541
1106.276 .0290527
1106.867 .0290532
1107.457 .0290528
1108.049 .0290514
1108.640 .0290501
1109.232 .0290481
1109.825 .0290471
1110.417 .0290452
1111.010 .0290443
1111.604 .0290443
1112.198 .0290456
1112.792 .0290486
1113.387 .0290535
1113.982 .0290644
1114.577 .0290806
1115.173 .0291023
1115.769 .0291295
1116.366 .0291590
1116.963 .0291901
1117.561 .0292191
1118.159 .0292458
1118.758 .0292694
1119.357 .0292896
1119.957 .0293096
1120.557 .0293299
1121.157 .0293524
1121.758 .0293789
1122.360 .0294080
1122.962 .0294359
1123.564 .0294614
1124.167 .0294800
1124.771 .0294895
1125.375 .0294896
1125.980 .0294818
1126.585 .0294639
1127.191 .0294421
1127.797 .0294201
1128.404 .0294005
1129.012 .0293872
1129.620 .0293833
1130.229 .0293851
1130.838 .0293941
1131.448 .0294092
1132.058 .0294260
1132.669 .0294405
1133.281 .0294586
1133.894 .0294763
1134.507 .0294991
1135.120 .0295282
1135.735 .0295658
1136.350 .0296112
1136.965 .0296716
1137.582 .0297399
1138.199 .0298108
1138.816 .0298890
1139.435 .0299761
1140.054 .0300604
1140.674 .0301512
1141.294 .0302306
1141.916 .0303210
1142.538 .0305041
1143.160 .0304711
1143.784 .0307022
1144.408 .0304135
1145.033 .0308948
