Measurement Sequence started on: 14-45-04-498
Integration time: 36
Scans to Average: 2 
>>>>>Begin Spectral Data<<<<<
433.946 .0459512
434.870 .0418874
435.793 .0418433
436.715 .0412431
437.635 .0407068
438.555 .0408648
439.473 .0404539
440.389 .0401878
441.305 .0399430
442.219 .0397357
443.132 .0395602
444.044 .0394010
444.954 .0392920
445.863 .0392265
446.771 .0391793
447.678 .0391553
448.584 .0391514
449.488 .0391499
450.391 .0391551
451.293 .0391529
452.194 .0391381
453.094 .0391173
453.992 .0390872
454.890 .0390472
455.786 .0390086
456.681 .0389667
457.575 .0389228
458.468 .0388735
459.360 .0388204
460.250 .0387576
461.140 .0386812
462.028 .0385998
462.915 .0385065
463.801 .0384060
464.687 .0383026
465.571 .0381994
466.454 .0381041
467.335 .0380189
468.216 .0379463
469.096 .0378853
469.975 .0378375
470.853 .0377974
471.729 .0377597
472.605 .0377228
473.479 .0376864
474.353 .0376482
475.226 .0376100
476.097 .0375742
476.968 .0375401
477.838 .0375097
478.706 .0374840
479.574 .0374618
480.441 .0374437
481.306 .0374271
482.171 .0374078
483.035 .0373805
483.898 .0373503
484.760 .0373141
485.621 .0372742
486.481 .0372312
487.340 .0371921
488.198 .0371553
489.055 .0371231
489.912 .0370947
490.767 .0370705
491.622 .0370466
492.476 .0370232
493.329 .0369950
494.180 .0369673
495.032 .0369394
495.882 .0369146
496.731 .0368922
497.580 .0368790
498.427 .0368680
499.274 .0368570
500.120 .0368438
500.965 .0368296
501.809 .0368049
502.653 .0367730
503.495 .0367329
504.337 .0366869
505.178 .0366341
506.018 .0365796
506.858 .0365204
507.696 .0364638
508.534 .0364037
509.371 .0363403
510.208 .0362741
511.043 .0362120
511.878 .0361497
512.712 .0360909
513.545 .0360371
514.377 .0359894
515.209 .0359428
516.040 .0358995
516.870 .0358564
517.699 .0358126
518.528 .0357633
519.356 .0357148
520.183 .0356651
521.010 .0356221
521.836 .0355813
522.661 .0355425
523.485 .0355050
524.309 .0354569
525.132 .0353928
525.954 .0353084
526.776 .0352075
527.597 .0350996
528.417 .0349837
529.237 .0348772
530.056 .0347841
530.874 .0347113
531.692 .0346591
532.508 .0346250
533.325 .0346101
534.140 .0346026
534.955 .0345972
535.770 .0345935
536.583 .0345836
537.397 .0345730
538.209 .0345657
539.021 .0345623
539.832 .0345624
540.643 .0345662
541.453 .0345722
542.262 .0345833
543.071 .0345944
543.879 .0346041
544.687 .0346081
545.494 .0346077
546.300 .0346023
547.106 .0345822
547.911 .0345570
548.716 .0345308
549.520 .0344979
550.323 .0344654
551.126 .0344318
551.929 .0343995
552.731 .0343652
553.532 .0343317
554.332 .0342926
555.133 .0342478
555.932 .0342001
556.731 .0341490
557.530 .0340958
558.328 .0340465
559.125 .0340009
559.922 .0339615
560.719 .0339298
561.515 .0339010
562.310 .0338691
563.105 .0338381
563.899 .0338026
564.693 .0337611
565.487 .0337131
566.280 .0336630
567.072 .0336095
567.864 .0335542
568.655 .0334980
569.446 .0334379
570.236 .0333747
571.026 .0333095
571.816 .0332428
572.605 .0331742
573.393 .0331077
574.181 .0330439
574.969 .0329842
575.756 .0329310
576.543 .0328821
577.329 .0328397
578.115 .0328035
578.900 .0327717
579.685 .0327425
580.469 .0327151
581.253 .0326921
582.036 .0326707
582.820 .0326518
583.602 .0326350
584.384 .0326213
585.166 .0326079
585.947 .0325946
586.728 .0325810
587.509 .0325664
588.289 .0325495
589.069 .0325320
589.848 .0325131
590.627 .0324922
591.405 .0324687
592.183 .0324422
592.961 .0324131
593.738 .0323818
594.515 .0323467
595.291 .0323094
596.067 .0322713
596.843 .0322316
597.618 .0321906
598.393 .0321496
599.167 .0321104
599.941 .0320717
600.715 .0320335
601.488 .0319963
602.261 .0319586
603.034 .0319203
603.806 .0318809
604.578 .0318409
605.349 .0318020
606.121 .0317630
606.891 .0317257
607.662 .0316908
608.432 .0316587
609.201 .0316285
609.971 .0316005
610.740 .0315743
611.508 .0315489
612.277 .0315228
613.045 .0314962
613.812 .0314699
614.579 .0314440
615.346 .0314195
616.113 .0313965
616.879 .0313751
617.645 .0313559
618.411 .0313372
619.176 .0313195
619.941 .0313020
620.705 .0312843
621.470 .0312659
622.233 .0312472
622.997 .0312284
623.760 .0312095
624.523 .0311917
625.286 .0311754
626.048 .0311601
626.810 .0311454
627.572 .0311314
628.333 .0311172
629.095 .0311032
629.855 .0310899
630.616 .0310773
631.376 .0310657
632.136 .0310558
632.895 .0310463
633.655 .0310375
634.414 .0310289
635.172 .0310205
635.931 .0310117
636.689 .0310020
637.447 .0309911
638.204 .0309790
638.962 .0309657
639.718 .0309513
640.475 .0309351
641.231 .0309175
641.988 .0308976
642.743 .0308753
643.499 .0308497
644.254 .0308215
645.009 .0307911
645.764 .0307595
646.518 .0307272
647.272 .0306947
648.026 .0306628
648.780 .0306314
649.533 .0306011
650.286 .0305712
651.039 .0305412
651.792 .0305112
652.544 .0304805
653.296 .0304495
654.048 .0304180
654.799 .0303870
655.550 .0303572
656.301 .0303288
657.052 .0303019
657.802 .0302765
658.552 .0302526
659.302 .0302299
660.052 .0302081
660.801 .0301861
661.550 .0301641
662.299 .0301414
663.048 .0301175
663.796 .0300935
664.544 .0300688
665.292 .0300444
666.040 .0300208
666.787 .0299989
667.534 .0299783
668.281 .0299586
669.028 .0299403
669.774 .0299226
670.521 .0299051
671.266 .0298877
672.012 .0298701
672.758 .0298531
673.503 .0298368
674.248 .0298215
674.992 .0298076
675.737 .0297957
676.481 .0297855
677.225 .0297766
677.969 .0297691
678.712 .0297624
679.455 .0297563
680.199 .0297507
680.941 .0297455
681.684 .0297405
682.426 .0297360
683.168 .0297321
683.910 .0297286
684.652 .0297255
685.393 .0297227
686.134 .0297199
686.875 .0297175
687.616 .0297152
688.356 .0297131
689.097 .0297112
689.837 .0297098
690.576 .0297083
691.316 .0297066
692.055 .0297046
692.794 .0297023
693.533 .0296996
694.272 .0296966
695.010 .0296937
695.748 .0296902
696.486 .0296864
697.224 .0296823
697.962 .0296769
698.699 .0296706
699.436 .0296626
700.173 .0296532
700.909 .0296422
701.646 .0296301
702.382 .0296172
703.118 .0296036
703.853 .0295901
704.589 .0295760
705.324 .0295614
706.059 .0295467
706.794 .0295315
707.529 .0295159
708.263 .0295002
708.997 .0294850
709.731 .0294698
710.465 .0294550
711.198 .0294402
711.931 .0294253
712.664 .0294101
713.397 .0293942
714.130 .0293771
714.862 .0293591
715.594 .0293401
716.326 .0293202
717.058 .0292999
717.789 .0292801
718.520 .0292602
719.251 .0292406
719.982 .0292208
720.713 .0292010
721.443 .0291809
722.173 .0291603
722.903 .0291397
723.633 .0291195
724.362 .0290997
725.091 .0290802
725.820 .0290614
726.549 .0290436
727.278 .0290263
728.006 .0290098
728.734 .0289940
729.462 .0289791
730.190 .0289652
730.917 .0289528
731.644 .0289416
732.371 .0289321
733.098 .0289237
733.825 .0289163
734.551 .0289095
735.277 .0289031
736.003 .0288969
736.728 .0288910
737.454 .0288858
738.179 .0288813
738.904 .0288772
739.629 .0288742
740.353 .0288717
741.077 .0288693
741.801 .0288665
742.525 .0288631
743.249 .0288589
743.972 .0288537
744.695 .0288477
745.418 .0288410
746.141 .0288338
746.863 .0288266
747.585 .0288191
748.307 .0288117
749.029 .0288043
749.750 .0287971
750.472 .0287903
751.193 .0287838
751.913 .0287781
752.634 .0287737
753.354 .0287707
754.074 .0287689
754.794 .0287680
755.514 .0287672
756.233 .0287662
756.952 .0287649
757.671 .0287631
758.390 .0287610
759.108 .0287589
759.826 .0287574
760.544 .0287566
761.262 .0287568
761.979 .0287577
762.697 .0287592
763.414 .0287613
764.130 .0287633
764.847 .0287650
765.563 .0287662
766.279 .0287671
766.995 .0287673
767.710 .0287672
768.426 .0287667
769.141 .0287657
769.855 .0287642
770.570 .0287619
771.284 .0287593
771.998 .0287559
772.712 .0287521
773.426 .0287480
774.139 .0287437
774.852 .0287391
775.565 .0287335
776.277 .0287272
776.990 .0287201
777.702 .0287118
778.414 .0287025
779.125 .0286921
779.836 .0286813
780.547 .0286703
781.258 .0286593
781.969 .0286489
782.679 .0286395
783.389 .0286306
784.099 .0286219
784.808 .0286131
785.517 .0286039
786.226 .0285935
786.935 .0285824
787.643 .0285705
788.352 .0285580
789.060 .0285451
789.767 .0285321
790.475 .0285191
791.182 .0285064
791.889 .0284937
792.595 .0284806
793.301 .0284669
794.008 .0284525
794.713 .0284366
795.419 .0284198
796.124 .0284022
796.829 .0283842
797.534 .0283662
798.238 .0283491
798.942 .0283332
799.646 .0283186
800.350 .0283049
801.053 .0282921
801.756 .0282794
802.459 .0282670
803.162 .0282540
803.864 .0282409
804.566 .0282280
805.267 .0282153
805.969 .0282029
806.670 .0281911
807.371 .0281798
808.071 .0281690
808.772 .0281582
809.472 .0281470
810.171 .0281351
810.871 .0281226
811.570 .0281098
812.269 .0280968
812.967 .0280840
813.666 .0280720
814.364 .0280605
815.061 .0280501
815.759 .0280407
816.456 .0280318
817.153 .0280239
817.849 .0280161
818.545 .0280089
819.241 .0280023
819.937 .0279962
820.632 .0279909
821.327 .0279864
822.022 .0279824
822.717 .0279787
823.411 .0279749
824.105 .0279712
824.798 .0279665
825.491 .0279613
826.184 .0279552
826.877 .0279485
827.569 .0279412
828.261 .0279338
828.953 .0279259
829.645 .0279182
830.336 .0279104
831.027 .0279026
831.717 .0278954
832.407 .0278886
833.097 .0278824
833.787 .0278764
834.476 .0278707
835.165 .0278657
835.854 .0278607
836.542 .0278564
837.230 .0278527
837.918 .0278497
838.605 .0278477
839.292 .0278466
839.979 .0278466
840.665 .0278480
841.352 .0278508
842.037 .0278546
842.723 .0278590
843.408 .0278632
844.093 .0278675
844.777 .0278709
845.462 .0278736
846.145 .0278751
846.829 .0278755
847.512 .0278755
848.195 .0278748
848.878 .0278737
849.560 .0278724
850.242 .0278706
850.923 .0278684
851.605 .0278649
852.286 .0278603
852.966 .0278539
853.646 .0278464
854.326 .0278380
855.006 .0278290
855.685 .0278198
856.364 .0278108
857.043 .0278027
857.721 .0277953
858.399 .0277885
859.077 .0277816
859.754 .0277749
860.431 .0277678
861.107 .0277601
861.784 .0277520
862.459 .0277437
863.135 .0277361
863.810 .0277287
864.485 .0277216
865.160 .0277148
865.834 .0277079
866.508 .0277004
867.181 .0276914
867.854 .0276809
868.527 .0276688
869.199 .0276549
869.872 .0276395
870.543 .0276232
871.215 .0276063
871.886 .0275887
872.557 .0275709
873.227 .0275525
873.897 .0275338
874.567 .0275142
875.236 .0274943
875.905 .0274743
876.573 .0274545
877.242 .0274349
877.909 .0274158
878.577 .0273976
879.244 .0273803
879.911 .0273633
880.577 .0273467
881.243 .0273302
881.909 .0273140
882.575 .0272975
883.240 .0272811
883.904 .0272652
884.569 .0272500
885.232 .0272351
885.896 .0272204
886.559 .0272060
887.222 .0271915
887.885 .0271768
888.547 .0271617
889.208 .0271461
889.870 .0271303
890.531 .0271142
891.192 .0270981
891.852 .0270828
892.512 .0270678
893.171 .0270532
893.830 .0270393
894.489 .0270254
895.148 .0270113
895.806 .0269970
896.464 .0269828
897.121 .0269684
897.778 .0269539
898.434 .0269396
899.091 .0269255
899.747 .0269119
900.402 .0268989
901.057 .0268863
901.712 .0268745
902.366 .0268631
903.020 .0268517
903.674 .0268406
904.327 .0268300
904.980 .0268195
905.633 .0268092
906.285 .0267992
906.936 .0267896
907.588 .0267801
908.239 .0267709
908.889 .0267618
909.540 .0267527
910.190 .0267433
910.839 .0267335
911.488 .0267232
912.137 .0267123
912.785 .0267008
913.433 .0266887
914.081 .0266763
914.728 .0266642
915.375 .0266519
916.021 .0266399
916.668 .0266285
917.313 .0266177
917.959 .0266072
918.604 .0265971
919.248 .0265872
919.892 .0265769
920.536 .0265666
921.180 .0265558
921.823 .0265442
922.465 .0265324
923.108 .0265199
923.750 .0265070
924.391 .0264939
925.032 .0264807
925.673 .0264674
926.313 .0264544
926.953 .0264417
927.593 .0264290
928.232 .0264164
928.871 .0264036
929.510 .0263908
930.148 .0263776
930.786 .0263645
931.423 .0263512
932.060 .0263384
932.697 .0263266
933.333 .0263155
933.969 .0263051
934.604 .0262955
935.239 .0262864
935.874 .0262778
936.508 .0262691
937.142 .0262605
937.776 .0262514
938.409 .0262423
939.042 .0262326
939.674 .0262230
940.306 .0262134
940.938 .0262042
941.569 .0261956
942.200 .0261874
942.830 .0261796
943.460 .0261719
944.090 .0261642
944.720 .0261564
945.349 .0261481
945.977 .0261395
946.606 .0261305
947.233 .0261218
947.861 .0261132
948.488 .0261049
949.115 .0260969
949.741 .0260896
950.367 .0260826
950.993 .0260757
951.618 .0260692
952.243 .0260627
952.868 .0260562
953.492 .0260496
954.115 .0260431
954.739 .0260369
955.362 .0260310
955.984 .0260258
956.607 .0260213
957.229 .0260180
957.850 .0260154
958.471 .0260135
959.092 .0260117
959.713 .0260097
960.333 .0260068
960.952 .0260031
961.572 .0259983
962.191 .0259927
962.809 .0259863
963.428 .0259798
964.045 .0259732
964.663 .0259672
965.280 .0259615
965.897 .0259565
966.513 .0259523
967.129 .0259483
967.745 .0259438
968.361 .0259389
968.976 .0259336
969.590 .0259278
970.205 .0259216
970.818 .0259157
971.432 .0259104
972.045 .0259059
972.658 .0259023
973.271 .0258990
973.883 .0258955
974.495 .0258912
975.106 .0258853
975.717 .0258780
976.328 .0258693
976.938 .0258596
977.548 .0258493
978.158 .0258393
978.768 .0258296
979.377 .0258202
979.985 .0258115
980.594 .0258028
981.202 .0257940
981.809 .0257845
982.417 .0257742
983.024 .0257635
983.631 .0257525
984.237 .0257416
984.843 .0257308
985.449 .0257199
986.054 .0257087
986.659 .0256975
987.264 .0256861
987.868 .0256739
988.472 .0256613
989.076 .0256483
989.679 .0256356
990.282 .0256229
990.885 .0256104
991.487 .0255981
992.090 .0255866
992.691 .0255751
993.293 .0255641
993.894 .0255531
994.495 .0255429
995.095 .0255337
995.696 .0255261
996.296 .0255192
996.895 .0255130
997.494 .0255080
998.093 .0255030
998.692 .0254975
999.291 .0254919
999.889 .0254845
1000.487 .0254763
1001.084 .0254671
1001.681 .0254574
1002.278 .0254468
1002.875 .0254364
1003.471 .0254256
1004.067 .0254148
1004.663 .0254041
1005.258 .0253931
1005.854 .0253805
1006.449 .0253680
1007.043 .0253546
1007.638 .0253396
1008.232 .0253242
1008.826 .0253096
1009.419 .0252953
1010.012 .0252823
1010.605 .0252699
1011.198 .0252587
1011.791 .0252480
1012.383 .0252377
1012.975 .0252269
1013.566 .0252163
1014.158 .0252057
1014.749 .0251948
1015.340 .0251844
1015.931 .0251754
1016.521 .0251677
1017.111 .0251616
1017.701 .0251565
1018.291 .0251523
1018.880 .0251473
1019.470 .0251413
1020.059 .0251340
1020.647 .0251256
1021.236 .0251160
1021.824 .0251055
1022.412 .0250948
1023.000 .0250844
1023.588 .0250746
1024.175 .0250658
1024.762 .0250578
1025.349 .0250503
1025.936 .0250433
1026.523 .0250362
1027.109 .0250292
1027.695 .0250232
1028.281 .0250189
1028.867 .0250159
1029.452 .0250148
1030.038 .0250154
1030.623 .0250168
1031.208 .0250195
1031.792 .0250231
1032.377 .0250268
1032.961 .0250307
1033.546 .0250349
1034.130 .0250387
1034.714 .0250415
1035.297 .0250438
1035.881 .0250449
1036.464 .0250444
1037.047 .0250428
1037.630 .0250388
1038.213 .0250331
1038.796 .0250269
1039.378 .0250211
1039.961 .0250158
1040.543 .0250115
1041.125 .0250080
1041.707 .0250049
1042.289 .0250016
1042.871 .0249972
1043.452 .0249906
1044.034 .0249824
1044.615 .0249737
1045.196 .0249643
1045.777 .0249549
1046.358 .0249474
1046.939 .0249418
1047.520 .0249385
1048.101 .0249362
1048.681 .0249341
1049.262 .0249314
1049.842 .0249274
1050.422 .0249220
1051.002 .0249145
1051.582 .0249061
1052.162 .0248972
1052.742 .0248895
1053.322 .0248840
1053.902 .0248808
1054.482 .0248800
1055.061 .0248821
1055.641 .0248871
1056.220 .0248933
1056.800 .0248997
1057.379 .0249067
1057.958 .0249136
1058.538 .0249206
1059.117 .0249267
1059.696 .0249320
1060.275 .0249384
1060.854 .0249457
1061.433 .0249534
1062.012 .0249623
1062.592 .0249721
1063.171 .0249826
1063.750 .0249937
1064.329 .0250055
1064.908 .0250163
1065.487 .0250253
1066.066 .0250328
1066.645 .0250377
1067.224 .0250402
1067.803 .0250405
1068.382 .0250383
1068.961 .0250360
1069.540 .0250342
1070.119 .0250327
1070.698 .0250332
1071.278 .0250360
1071.857 .0250408
1072.436 .0250459
1073.016 .0250504
1073.595 .0250537
1074.175 .0250550
1074.754 .0250550
1075.334 .0250531
1075.913 .0250493
1076.493 .0250455
1077.073 .0250417
1077.653 .0250392
1078.233 .0250389
1078.813 .0250406
1079.393 .0250445
1079.974 .0250499
1080.554 .0250564
1081.135 .0250625
1081.716 .0250675
1082.296 .0250727
1082.877 .0250765
1083.458 .0250798
1084.040 .0250830
1084.621 .0250859
1085.202 .0250910
1085.784 .0250993
1086.366 .0251104
1086.948 .0251245
1087.530 .0251423
1088.112 .0251631
1088.695 .0251850
1089.277 .0252090
1089.860 .0252341
1090.443 .0252589
1091.026 .0252842
1091.610 .0253086
1092.193 .0253313
1092.777 .0253531
1093.361 .0253732
1093.946 .0253904
1094.530 .0254057
1095.115 .0254180
1095.700 .0254272
1096.285 .0254351
1096.871 .0254411
1097.456 .0254440
1098.042 .0254452
1098.628 .0254454
1099.215 .0254420
1099.802 .0254354
1100.389 .0254274
1100.976 .0254170
1101.564 .0254072
1102.152 .0253979
1102.740 .0253887
1103.329 .0253810
1103.917 .0253747
1104.507 .0253682
1105.096 .0253624
1105.686 .0253578
1106.276 .0253532
1106.867 .0253496
1107.457 .0253495
1108.049 .0253500
1108.640 .0253510
1109.232 .0253530
1109.825 .0253563
1110.417 .0253588
1111.010 .0253610
1111.604 .0253622
1112.198 .0253656
1112.792 .0253727
1113.387 .0253823
1113.982 .0253946
1114.577 .0254129
1115.173 .0254353
1115.769 .0254590
1116.366 .0254822
1116.963 .0255042
1117.561 .0255227
1118.159 .0255390
1118.758 .0255528
1119.357 .0255649
1119.957 .0255782
1120.557 .0255947
1121.157 .0256128
1121.758 .0256333
1122.360 .0256559
1122.962 .0256789
1123.564 .0257009
1124.167 .0257216
1124.771 .0257364
1125.375 .0257460
1125.980 .0257508
1126.585 .0257499
1127.191 .0257437
1127.797 .0257371
1128.404 .0257295
1129.012 .0257212
1129.620 .0257155
1130.229 .0257114
1130.838 .0257068
1131.448 .0257021
1132.058 .0256953
1132.669 .0256839
1133.281 .0256697
1133.894 .0256555
1134.507 .0256442
1135.120 .0256429
1135.735 .0256529
1136.350 .0256758
1136.965 .0257123
1137.582 .0257610
1138.199 .0258158
1138.816 .0258764
1139.435 .0259394
1140.054 .0260073
1140.674 .0260819
1141.294 .0261589
1141.916 .0262303
1142.538 .0262352
1143.160 .0264390
1143.784 .0266564
1144.408 .0266260
1145.033 .0263869
