Measurement Sequence started on: 14-45-04-498
Integration time: 36
Scans to Average: 2 
>>>>>Begin Spectral Data<<<<<
433.946 .0300567
434.870 .0516429
435.793 .0494005
436.715 .0482182
437.635 .0468305
438.555 .0455574
439.473 .0455007
440.389 .0447859
441.305 .0442346
442.219 .0437848
443.132 .0434150
444.044 .0431116
444.954 .0428225
445.863 .0425773
446.771 .0423576
447.678 .0421526
448.584 .0419907
449.488 .0418608
450.391 .0417410
451.293 .0416360
452.194 .0415468
453.094 .0414701
453.992 .0414003
454.890 .0413422
455.786 .0412831
456.681 .0412230
457.575 .0411706
458.468 .0411162
459.360 .0410704
460.250 .0410236
461.140 .0409751
462.028 .0409281
462.915 .0408814
463.801 .0408303
464.687 .0407761
465.571 .0407214
466.454 .0406610
467.335 .0405946
468.216 .0405258
469.096 .0404545
469.975 .0403905
470.853 .0403257
471.729 .0402608
472.605 .0401914
473.479 .0401211
474.353 .0400426
475.226 .0399626
476.097 .0398826
476.968 .0398033
477.838 .0397274
478.706 .0396602
479.574 .0395997
480.441 .0395509
481.306 .0395118
482.171 .0394797
483.035 .0394449
483.898 .0394103
484.760 .0393702
485.621 .0393323
486.481 .0392939
487.340 .0392616
488.198 .0392355
489.055 .0392153
489.912 .0391981
490.767 .0391839
491.622 .0391684
492.476 .0391474
493.329 .0391210
494.180 .0390892
495.032 .0390544
495.882 .0390221
496.731 .0389946
497.580 .0389774
498.427 .0389670
499.274 .0389568
500.120 .0389403
500.965 .0389208
501.809 .0388947
502.653 .0388585
503.495 .0388215
504.337 .0387853
505.178 .0387500
506.018 .0387174
506.858 .0386871
507.696 .0386534
508.534 .0386171
509.371 .0385680
510.208 .0385043
511.043 .0384305
511.878 .0383532
512.712 .0382788
513.545 .0382188
514.377 .0381816
515.209 .0381623
516.040 .0381593
516.870 .0381686
517.699 .0381793
518.528 .0381848
519.356 .0381814
520.183 .0381690
521.010 .0381537
521.836 .0381376
522.661 .0381248
523.485 .0381172
524.309 .0381089
525.132 .0380973
525.954 .0380700
526.776 .0380163
527.597 .0379345
528.417 .0378181
529.237 .0376769
530.056 .0375200
530.874 .0373594
531.692 .0372012
532.508 .0370586
533.325 .0369347
534.140 .0368236
534.955 .0367229
535.770 .0366317
536.583 .0365431
537.397 .0364603
538.209 .0363844
539.021 .0363079
539.832 .0362375
540.643 .0361789
541.453 .0361275
542.262 .0360859
543.071 .0360482
543.879 .0360067
544.687 .0359616
545.494 .0359176
546.300 .0358725
547.106 .0358258
547.911 .0357907
548.716 .0357673
549.520 .0357528
550.323 .0357486
551.126 .0357507
551.929 .0357580
552.731 .0357727
553.532 .0357859
554.332 .0357947
555.133 .0357997
555.932 .0358055
556.731 .0358071
557.530 .0358070
558.328 .0358010
559.125 .0357876
559.922 .0357697
560.719 .0357473
561.515 .0357177
562.310 .0356823
563.105 .0356465
563.899 .0356095
564.693 .0355745
565.487 .0355412
566.280 .0355078
567.072 .0354790
567.864 .0354537
568.655 .0354302
569.446 .0354073
570.236 .0353875
571.026 .0353672
571.816 .0353456
572.605 .0353226
573.393 .0352953
574.181 .0352689
574.969 .0352421
575.756 .0352161
576.543 .0351860
577.329 .0351550
578.115 .0351205
578.900 .0350828
579.685 .0350400
580.469 .0349939
581.253 .0349459
582.036 .0348966
582.820 .0348463
583.602 .0347981
584.384 .0347531
585.166 .0347137
585.947 .0346766
586.728 .0346435
587.509 .0346118
588.289 .0345828
589.069 .0345528
589.848 .0345242
590.627 .0344936
591.405 .0344612
592.183 .0344260
592.961 .0343897
593.738 .0343523
594.515 .0343149
595.291 .0342770
596.067 .0342401
596.843 .0342042
597.618 .0341701
598.393 .0341371
599.167 .0341062
599.941 .0340769
600.715 .0340493
601.488 .0340214
602.261 .0339944
603.034 .0339681
603.806 .0339440
604.578 .0339222
605.349 .0339031
606.121 .0338859
606.891 .0338709
607.662 .0338570
608.432 .0338442
609.201 .0338308
609.971 .0338163
610.740 .0337996
611.508 .0337798
612.277 .0337578
613.045 .0337345
613.812 .0337102
614.579 .0336872
615.346 .0336651
616.113 .0336444
616.879 .0336249
617.645 .0336075
618.411 .0335911
619.176 .0335752
619.941 .0335591
620.705 .0335415
621.470 .0335220
622.233 .0335009
622.997 .0334782
623.760 .0334550
624.523 .0334324
625.286 .0334106
626.048 .0333895
626.810 .0333703
627.572 .0333514
628.333 .0333336
629.095 .0333155
629.855 .0332964
630.616 .0332748
631.376 .0332515
632.136 .0332270
632.895 .0332013
633.655 .0331761
634.414 .0331519
635.172 .0331294
635.931 .0331086
636.689 .0330883
637.447 .0330690
638.204 .0330485
638.962 .0330267
639.718 .0330015
640.475 .0329736
641.231 .0329430
641.988 .0329093
642.743 .0328740
643.499 .0328377
644.254 .0328009
645.009 .0327636
645.764 .0327263
646.518 .0326900
647.272 .0326545
648.026 .0326194
648.780 .0325846
649.533 .0325515
650.286 .0325201
651.039 .0324911
651.792 .0324645
652.544 .0324414
653.296 .0324216
654.048 .0324045
654.799 .0323909
655.550 .0323799
656.301 .0323709
657.052 .0323630
657.802 .0323563
658.552 .0323504
659.302 .0323445
660.052 .0323389
660.801 .0323342
661.550 .0323303
662.299 .0323266
663.048 .0323226
663.796 .0323187
664.544 .0323137
665.292 .0323070
666.040 .0322976
666.787 .0322862
667.534 .0322731
668.281 .0322583
669.028 .0322427
669.774 .0322273
670.521 .0322128
671.266 .0321990
672.012 .0321860
672.758 .0321739
673.503 .0321613
674.248 .0321482
674.992 .0321338
675.737 .0321181
676.481 .0321018
677.225 .0320850
677.969 .0320684
678.712 .0320528
679.455 .0320377
680.199 .0320223
680.941 .0320072
681.684 .0319927
682.426 .0319783
683.168 .0319640
683.910 .0319503
684.652 .0319369
685.393 .0319246
686.134 .0319134
686.875 .0319028
687.616 .0318932
688.356 .0318841
689.097 .0318738
689.837 .0318627
690.576 .0318505
691.316 .0318373
692.055 .0318233
692.794 .0318093
693.533 .0317948
694.272 .0317793
695.010 .0317631
695.748 .0317457
696.486 .0317267
697.224 .0317061
697.962 .0316831
698.699 .0316585
699.436 .0316328
700.173 .0316063
700.909 .0315795
701.646 .0315533
702.382 .0315279
703.118 .0315034
703.853 .0314798
704.589 .0314573
705.324 .0314351
706.059 .0314137
706.794 .0313934
707.529 .0313743
708.263 .0313563
708.997 .0313396
709.731 .0313238
710.465 .0313095
711.198 .0312957
711.931 .0312825
712.664 .0312696
713.397 .0312570
714.130 .0312440
714.862 .0312308
715.594 .0312176
716.326 .0312045
717.058 .0311919
717.789 .0311806
718.520 .0311697
719.251 .0311590
719.982 .0311481
720.713 .0311369
721.443 .0311251
722.173 .0311124
722.903 .0310987
723.633 .0310846
724.362 .0310708
725.091 .0310574
725.820 .0310450
726.549 .0310343
727.278 .0310249
728.006 .0310164
728.734 .0310086
729.462 .0310004
730.190 .0309922
730.917 .0309840
731.644 .0309762
732.371 .0309687
733.098 .0309624
733.825 .0309575
734.551 .0309539
735.277 .0309518
736.003 .0309509
736.728 .0309502
737.454 .0309501
738.179 .0309497
738.904 .0309489
739.629 .0309479
740.353 .0309475
741.077 .0309469
741.801 .0309462
742.525 .0309453
743.249 .0309439
743.972 .0309413
744.695 .0309380
745.418 .0309326
746.141 .0309253
746.863 .0309164
747.585 .0309063
748.307 .0308948
749.029 .0308826
749.750 .0308693
750.472 .0308557
751.193 .0308417
751.913 .0308272
752.634 .0308117
753.354 .0307957
754.074 .0307792
754.794 .0307617
755.514 .0307438
756.233 .0307261
756.952 .0307088
757.671 .0306926
758.390 .0306777
759.108 .0306640
759.826 .0306514
760.544 .0306399
761.262 .0306291
761.979 .0306185
762.697 .0306073
763.414 .0305953
764.130 .0305828
764.847 .0305689
765.563 .0305545
766.279 .0305388
766.995 .0305225
767.710 .0305055
768.426 .0304871
769.141 .0304680
769.855 .0304481
770.570 .0304275
771.284 .0304061
771.998 .0303840
772.712 .0303622
773.426 .0303405
774.139 .0303195
774.852 .0302996
775.565 .0302810
776.277 .0302639
776.990 .0302477
777.702 .0302322
778.414 .0302184
779.125 .0302057
779.836 .0301944
780.547 .0301849
781.258 .0301768
781.969 .0301703
782.679 .0301649
783.389 .0301610
784.099 .0301577
784.808 .0301546
785.517 .0301516
786.226 .0301479
786.935 .0301440
787.643 .0301399
788.352 .0301352
789.060 .0301309
789.767 .0301270
790.475 .0301236
791.182 .0301203
791.889 .0301174
792.595 .0301149
793.301 .0301121
794.008 .0301083
794.713 .0301041
795.419 .0300990
796.124 .0300938
796.829 .0300881
797.534 .0300820
798.238 .0300762
798.942 .0300707
799.646 .0300659
800.350 .0300614
801.053 .0300581
801.756 .0300558
802.459 .0300538
803.162 .0300525
803.864 .0300517
804.566 .0300515
805.267 .0300514
805.969 .0300517
806.670 .0300518
807.371 .0300524
808.071 .0300534
808.772 .0300547
809.472 .0300564
810.171 .0300583
810.871 .0300597
811.570 .0300597
812.269 .0300589
812.967 .0300568
813.666 .0300535
814.364 .0300495
815.061 .0300447
815.759 .0300398
816.456 .0300347
817.153 .0300295
817.849 .0300240
818.545 .0300178
819.241 .0300098
819.937 .0299999
820.632 .0299881
821.327 .0299741
822.022 .0299592
822.717 .0299433
823.411 .0299280
824.105 .0299136
824.798 .0299003
825.491 .0298876
826.184 .0298755
826.877 .0298629
827.569 .0298490
828.261 .0298335
828.953 .0298166
829.645 .0297983
830.336 .0297799
831.027 .0297618
831.717 .0297449
832.407 .0297298
833.097 .0297167
833.787 .0297041
834.476 .0296924
835.165 .0296800
835.854 .0296665
836.542 .0296515
837.230 .0296350
837.918 .0296172
838.605 .0295988
839.292 .0295799
839.979 .0295610
840.665 .0295426
841.352 .0295249
842.037 .0295071
842.723 .0294896
843.408 .0294715
844.093 .0294527
844.777 .0294331
845.462 .0294126
846.145 .0293910
846.829 .0293683
847.512 .0293448
848.195 .0293205
848.878 .0292959
849.560 .0292712
850.242 .0292463
850.923 .0292217
851.605 .0291975
852.286 .0291731
852.966 .0291490
853.646 .0291255
854.326 .0291028
855.006 .0290810
855.685 .0290601
856.364 .0290400
857.043 .0290211
857.721 .0290034
858.399 .0289863
859.077 .0289690
859.754 .0289518
860.431 .0289343
861.107 .0289166
861.784 .0288990
862.459 .0288823
863.135 .0288666
863.810 .0288521
864.485 .0288386
865.160 .0288256
865.834 .0288131
866.508 .0288010
867.181 .0287890
867.854 .0287770
868.527 .0287653
869.199 .0287544
869.872 .0287449
870.543 .0287375
871.215 .0287316
871.886 .0287268
872.557 .0287233
873.227 .0287203
873.897 .0287169
874.567 .0287132
875.236 .0287087
875.905 .0287043
876.573 .0286999
877.242 .0286954
877.909 .0286907
878.577 .0286864
879.244 .0286820
879.911 .0286768
880.577 .0286705
881.243 .0286632
881.909 .0286545
882.575 .0286453
883.240 .0286354
883.904 .0286254
884.569 .0286163
885.232 .0286076
885.896 .0285992
886.559 .0285915
887.222 .0285838
887.885 .0285765
888.547 .0285694
889.208 .0285624
889.870 .0285566
890.531 .0285521
891.192 .0285499
891.852 .0285500
892.512 .0285530
893.171 .0285586
893.830 .0285659
894.489 .0285752
895.148 .0285851
895.806 .0285951
896.464 .0286055
897.121 .0286156
897.778 .0286257
898.434 .0286360
899.091 .0286468
899.747 .0286580
900.402 .0286696
901.057 .0286805
901.712 .0286903
902.366 .0286980
903.020 .0287035
903.674 .0287061
904.327 .0287070
904.980 .0287065
905.633 .0287049
906.285 .0287032
906.936 .0287017
907.588 .0286998
908.239 .0286978
908.889 .0286949
909.540 .0286905
910.190 .0286836
910.839 .0286742
911.488 .0286622
912.137 .0286479
912.785 .0286315
913.433 .0286139
914.081 .0285956
914.728 .0285771
915.375 .0285576
916.021 .0285381
916.668 .0285184
917.313 .0284983
917.959 .0284775
918.604 .0284561
919.248 .0284344
919.892 .0284125
920.536 .0283903
921.180 .0283681
921.823 .0283469
922.465 .0283263
923.108 .0283061
923.750 .0282863
924.391 .0282668
925.032 .0282472
925.673 .0282274
926.313 .0282080
926.953 .0281882
927.593 .0281680
928.232 .0281475
928.871 .0281266
929.510 .0281060
930.148 .0280849
930.786 .0280636
931.423 .0280424
932.060 .0280220
932.697 .0280014
933.333 .0279807
933.969 .0279609
934.604 .0279412
935.239 .0279210
935.874 .0279003
936.508 .0278789
937.142 .0278566
937.776 .0278326
938.409 .0278073
939.042 .0277801
939.674 .0277514
940.306 .0277210
940.938 .0276893
941.569 .0276572
942.200 .0276247
942.830 .0275913
943.460 .0275579
944.090 .0275243
944.720 .0274901
945.349 .0274558
945.977 .0274221
946.606 .0273891
947.233 .0273572
947.861 .0273264
948.488 .0272975
949.115 .0272703
949.741 .0272454
950.367 .0272217
950.993 .0271990
951.618 .0271774
952.243 .0271554
952.868 .0271330
953.492 .0271104
954.115 .0270875
954.739 .0270645
955.362 .0270416
955.984 .0270191
956.607 .0269973
957.229 .0269764
957.850 .0269570
958.471 .0269381
959.092 .0269198
959.713 .0269019
960.333 .0268839
960.952 .0268664
961.572 .0268496
962.191 .0268337
962.809 .0268192
963.428 .0268063
964.045 .0267946
964.663 .0267842
965.280 .0267749
965.897 .0267664
966.513 .0267586
967.129 .0267511
967.745 .0267437
968.361 .0267357
968.976 .0267276
969.590 .0267195
970.205 .0267113
970.818 .0267033
971.432 .0266956
972.045 .0266888
972.658 .0266832
973.271 .0266782
973.883 .0266739
974.495 .0266703
975.106 .0266672
975.717 .0266643
976.328 .0266614
976.938 .0266585
977.548 .0266561
978.158 .0266537
978.768 .0266515
979.377 .0266492
979.985 .0266472
980.594 .0266452
981.202 .0266432
981.809 .0266408
982.417 .0266378
983.024 .0266343
983.631 .0266308
984.237 .0266273
984.843 .0266237
985.449 .0266201
986.054 .0266166
986.659 .0266130
987.264 .0266096
987.868 .0266063
988.472 .0266039
989.076 .0266018
989.679 .0266011
990.282 .0266011
990.885 .0266019
991.487 .0266033
992.090 .0266054
992.691 .0266075
993.293 .0266100
993.894 .0266127
994.495 .0266160
995.095 .0266204
995.696 .0266261
996.296 .0266323
996.895 .0266399
997.494 .0266479
998.093 .0266559
998.692 .0266631
999.291 .0266702
999.889 .0266760
1000.487 .0266806
1001.084 .0266844
1001.681 .0266878
1002.278 .0266909
1002.875 .0266945
1003.471 .0266984
1004.067 .0267030
1004.663 .0267090
1005.258 .0267153
1005.854 .0267215
1006.449 .0267278
1007.043 .0267332
1007.638 .0267379
1008.232 .0267420
1008.826 .0267461
1009.419 .0267503
1010.012 .0267556
1010.605 .0267620
1011.198 .0267692
1011.791 .0267769
1012.383 .0267848
1012.975 .0267921
1013.566 .0267991
1014.158 .0268046
1014.749 .0268089
1015.340 .0268129
1015.931 .0268167
1016.521 .0268209
1017.111 .0268264
1017.701 .0268329
1018.291 .0268403
1018.880 .0268483
1019.470 .0268563
1020.059 .0268638
1020.647 .0268710
1021.236 .0268779
1021.824 .0268845
1022.412 .0268918
1023.000 .0268998
1023.588 .0269079
1024.175 .0269166
1024.762 .0269241
1025.349 .0269302
1025.936 .0269338
1026.523 .0269354
1027.109 .0269353
1027.695 .0269332
1028.281 .0269304
1028.867 .0269268
1029.452 .0269225
1030.038 .0269179
1030.623 .0269130
1031.208 .0269078
1031.792 .0269026
1032.377 .0268977
1032.961 .0268926
1033.546 .0268882
1034.130 .0268847
1034.714 .0268815
1035.297 .0268779
1035.881 .0268741
1036.464 .0268691
1037.047 .0268627
1037.630 .0268562
1038.213 .0268497
1038.796 .0268440
1039.378 .0268397
1039.961 .0268367
1040.543 .0268341
1041.125 .0268311
1041.707 .0268262
1042.289 .0268180
1042.871 .0268066
1043.452 .0267916
1044.034 .0267738
1044.615 .0267551
1045.196 .0267372
1045.777 .0267204
1046.358 .0267053
1046.939 .0266917
1047.520 .0266784
1048.101 .0266640
1048.681 .0266480
1049.262 .0266312
1049.842 .0266126
1050.422 .0265924
1051.002 .0265718
1051.582 .0265521
1052.162 .0265338
1052.742 .0265171
1053.322 .0265018
1053.902 .0264874
1054.482 .0264744
1055.061 .0264608
1055.641 .0264478
1056.220 .0264359
1056.800 .0264255
1057.379 .0264145
1057.958 .0264042
1058.538 .0263940
1059.117 .0263829
1059.696 .0263726
1060.275 .0263629
1060.854 .0263537
1061.433 .0263459
1062.012 .0263391
1062.592 .0263333
1063.171 .0263284
1063.750 .0263252
1064.329 .0263202
1064.908 .0263141
1065.487 .0263059
1066.066 .0262952
1066.645 .0262825
1067.224 .0262699
1067.803 .0262574
1068.382 .0262443
1068.961 .0262316
1069.540 .0262167
1070.119 .0261998
1070.698 .0261808
1071.278 .0261583
1071.857 .0261328
1072.436 .0261058
1073.016 .0260791
1073.595 .0260525
1074.175 .0260292
1074.754 .0260097
1075.334 .0259928
1075.913 .0259791
1076.493 .0259670
1077.073 .0259557
1077.653 .0259441
1078.233 .0259345
1078.813 .0259262
1079.393 .0259212
1079.974 .0259200
1080.554 .0259241
1081.135 .0259323
1081.716 .0259436
1082.296 .0259547
1082.877 .0259641
1083.458 .0259716
1084.040 .0259753
1084.621 .0259737
1085.202 .0259693
1085.784 .0259620
1086.366 .0259524
1086.948 .0259414
1087.530 .0259314
1088.112 .0259216
1088.695 .0259123
1089.277 .0259036
1089.860 .0258961
1090.443 .0258890
1091.026 .0258810
1091.610 .0258731
1092.193 .0258654
1092.777 .0258577
1093.361 .0258489
1093.946 .0258407
1094.530 .0258355
1095.115 .0258359
1095.700 .0258399
1096.285 .0258489
1096.871 .0258617
1097.456 .0258781
1098.042 .0258941
1098.628 .0259107
1099.215 .0259238
1099.802 .0259347
1100.389 .0259430
1100.976 .0259489
1101.564 .0259518
1102.152 .0259552
1102.740 .0259569
1103.329 .0259577
1103.917 .0259560
1104.507 .0259505
1105.096 .0259403
1105.686 .0259290
1106.276 .0259144
1106.867 .0259009
1107.457 .0258903
1108.049 .0258860
1108.640 .0258858
1109.232 .0258941
1109.825 .0259063
1110.417 .0259181
1111.010 .0259322
1111.604 .0259461
1112.198 .0259607
1112.792 .0259777
1113.387 .0259983
1113.982 .0260240
1114.577 .0260579
1115.173 .0260972
1115.769 .0261361
1116.366 .0261759
1116.963 .0262146
1117.561 .0262455
1118.159 .0262691
1118.758 .0262852
1119.357 .0262943
1119.957 .0262975
1120.557 .0263001
1121.157 .0262986
1121.758 .0262980
1122.360 .0262986
1122.962 .0263024
1123.564 .0263070
1124.167 .0263133
1124.771 .0263198
1125.375 .0263263
1125.980 .0263347
1126.585 .0263413
1127.191 .0263461
1127.797 .0263554
1128.404 .0263682
1129.012 .0263873
1129.620 .0264126
1130.229 .0264480
1130.838 .0264932
1131.448 .0265474
1132.058 .0266099
1132.669 .0266719
1133.281 .0267326
1133.894 .0267894
1134.507 .0268368
1135.120 .0268763
1135.735 .0269079
1136.350 .0269390
1136.965 .0269770
1137.582 .0270198
1138.199 .0270678
1138.816 .0271161
1139.435 .0271636
1140.054 .0272008
1140.674 .0272327
1141.294 .0272747
1141.916 .0273310
1142.538 .0271663
1143.160 .0271227
1143.784 .0274330
1144.408 .0279309
1145.033 .0281522
