Measurement Sequence started on: 14-45-04-498
Integration time: 36
Scans to Average: 2 
>>>>>Begin Spectral Data<<<<<
433.946 .0465863
434.870 .0441711
435.793 .0406887
436.715 .0408139
437.635 .0407120
438.555 .0415261
439.473 .0412752
440.389 .0411530
441.305 .0411298
442.219 .0410720
443.132 .0410085
444.044 .0409231
444.954 .0408638
445.863 .0408173
446.771 .0407684
447.678 .0407170
448.584 .0406518
449.488 .0405716
450.391 .0404791
451.293 .0403757
452.194 .0402764
453.094 .0401768
453.992 .0400792
454.890 .0399830
455.786 .0398946
456.681 .0398105
457.575 .0397280
458.468 .0396393
459.360 .0395519
460.250 .0394638
461.140 .0393745
462.028 .0392919
462.915 .0392099
463.801 .0391331
464.687 .0390557
465.571 .0389751
466.454 .0388958
467.335 .0388127
468.216 .0387300
469.096 .0386456
469.975 .0385614
470.853 .0384732
471.729 .0383779
472.605 .0382797
473.479 .0381822
474.353 .0380854
475.226 .0379907
476.097 .0378977
476.968 .0378118
477.838 .0377329
478.706 .0376622
479.574 .0376027
480.441 .0375548
481.306 .0375170
482.171 .0374876
483.035 .0374627
483.898 .0374430
484.760 .0374297
485.621 .0374228
486.481 .0374217
487.340 .0374283
488.198 .0374405
489.055 .0374573
489.912 .0374767
490.767 .0374980
491.622 .0375149
492.476 .0375275
493.329 .0375341
494.180 .0375320
495.032 .0375225
495.882 .0375081
496.731 .0374893
497.580 .0374702
498.427 .0374501
499.274 .0374297
500.120 .0374071
500.965 .0373849
501.809 .0373584
502.653 .0373271
503.495 .0372921
504.337 .0372541
505.178 .0372111
506.018 .0371654
506.858 .0371141
507.696 .0370614
508.534 .0370047
509.371 .0369440
510.208 .0368798
511.043 .0368182
511.878 .0367569
512.712 .0367025
513.545 .0366537
514.377 .0366159
515.209 .0365889
516.040 .0365744
516.870 .0365662
517.699 .0365627
518.528 .0365663
519.356 .0365743
520.183 .0365832
521.010 .0366012
521.836 .0366183
522.661 .0366394
523.485 .0366611
524.309 .0366709
525.132 .0366608
525.954 .0366329
526.776 .0365826
527.597 .0365086
528.417 .0364184
529.237 .0363213
530.056 .0362203
530.874 .0361292
531.692 .0360495
532.508 .0359698
533.325 .0358955
534.140 .0358174
534.955 .0357244
535.770 .0356209
536.583 .0355080
537.397 .0353867
538.209 .0352664
539.021 .0351499
539.832 .0350353
540.643 .0349231
541.453 .0348178
542.262 .0347135
543.071 .0346056
543.879 .0344977
544.687 .0343894
545.494 .0342843
546.300 .0341912
547.106 .0341098
547.911 .0340480
548.716 .0340080
549.520 .0339858
550.323 .0339815
551.126 .0339895
551.929 .0340085
552.731 .0340326
553.532 .0340577
554.332 .0340807
555.133 .0340992
555.932 .0341115
556.731 .0341186
557.530 .0341206
558.328 .0341197
559.125 .0341128
559.922 .0341057
560.719 .0340993
561.515 .0340895
562.310 .0340799
563.105 .0340723
563.899 .0340617
564.693 .0340492
565.487 .0340319
566.280 .0340113
567.072 .0339888
567.864 .0339645
568.655 .0339359
569.446 .0339033
570.236 .0338669
571.026 .0338240
571.816 .0337724
572.605 .0337158
573.393 .0336525
574.181 .0335855
574.969 .0335183
575.756 .0334513
576.543 .0333852
577.329 .0333222
578.115 .0332620
578.900 .0332049
579.685 .0331491
580.469 .0330964
581.253 .0330478
582.036 .0330039
582.820 .0329655
583.602 .0329330
584.384 .0329055
585.166 .0328833
585.947 .0328636
586.728 .0328465
587.509 .0328297
588.289 .0328124
589.069 .0327947
589.848 .0327754
590.627 .0327556
591.405 .0327346
592.183 .0327128
592.961 .0326919
593.738 .0326706
594.515 .0326485
595.291 .0326265
596.067 .0326044
596.843 .0325819
597.618 .0325589
598.393 .0325354
599.167 .0325122
599.941 .0324891
600.715 .0324659
601.488 .0324432
602.261 .0324207
603.034 .0323993
603.806 .0323778
604.578 .0323564
605.349 .0323358
606.121 .0323150
606.891 .0322943
607.662 .0322731
608.432 .0322517
609.201 .0322298
609.971 .0322065
610.740 .0321821
611.508 .0321559
612.277 .0321280
613.045 .0320985
613.812 .0320680
614.579 .0320368
615.346 .0320056
616.113 .0319750
616.879 .0319451
617.645 .0319166
618.411 .0318891
619.176 .0318623
619.941 .0318358
620.705 .0318092
621.470 .0317817
622.233 .0317531
622.997 .0317234
623.760 .0316929
624.523 .0316618
625.286 .0316306
626.048 .0315991
626.810 .0315673
627.572 .0315354
628.333 .0315036
629.095 .0314712
629.855 .0314387
630.616 .0314065
631.376 .0313745
632.136 .0313429
632.895 .0313126
633.655 .0312839
634.414 .0312568
635.172 .0312322
635.931 .0312100
636.689 .0311906
637.447 .0311744
638.204 .0311606
638.962 .0311488
639.718 .0311395
640.475 .0311311
641.231 .0311230
641.988 .0311142
642.743 .0311052
643.499 .0310937
644.254 .0310805
645.009 .0310662
645.764 .0310513
646.518 .0310368
647.272 .0310241
648.026 .0310125
648.780 .0310026
649.533 .0309938
650.286 .0309855
651.039 .0309761
651.792 .0309658
652.544 .0309532
653.296 .0309387
654.048 .0309229
654.799 .0309072
655.550 .0308910
656.301 .0308760
657.052 .0308619
657.802 .0308480
658.552 .0308336
659.302 .0308184
660.052 .0308008
660.801 .0307807
661.550 .0307584
662.299 .0307335
663.048 .0307064
663.796 .0306790
664.544 .0306514
665.292 .0306241
666.040 .0305976
666.787 .0305721
667.534 .0305473
668.281 .0305235
669.028 .0305004
669.774 .0304775
670.521 .0304554
671.266 .0304335
672.012 .0304116
672.758 .0303903
673.503 .0303698
674.248 .0303494
674.992 .0303299
675.737 .0303108
676.481 .0302920
677.225 .0302736
677.969 .0302557
678.712 .0302383
679.455 .0302206
680.199 .0302029
680.941 .0301842
681.684 .0301649
682.426 .0301454
683.168 .0301250
683.910 .0301047
684.652 .0300846
685.393 .0300647
686.134 .0300456
686.875 .0300277
687.616 .0300117
688.356 .0299973
689.097 .0299848
689.837 .0299734
690.576 .0299628
691.316 .0299531
692.055 .0299442
692.794 .0299356
693.533 .0299278
694.272 .0299210
695.010 .0299151
695.748 .0299106
696.486 .0299071
697.224 .0299047
697.962 .0299031
698.699 .0299019
699.436 .0299005
700.173 .0298986
700.909 .0298964
701.646 .0298941
702.382 .0298913
703.118 .0298884
703.853 .0298856
704.589 .0298832
705.324 .0298811
706.059 .0298798
706.794 .0298784
707.529 .0298774
708.263 .0298766
708.997 .0298761
709.731 .0298752
710.465 .0298744
711.198 .0298734
711.931 .0298722
712.664 .0298709
713.397 .0298694
714.130 .0298671
714.862 .0298648
715.594 .0298620
716.326 .0298583
717.058 .0298536
717.789 .0298481
718.520 .0298413
719.251 .0298331
719.982 .0298230
720.713 .0298110
721.443 .0297970
722.173 .0297813
722.903 .0297638
723.633 .0297449
724.362 .0297247
725.091 .0297032
725.820 .0296803
726.549 .0296564
727.278 .0296317
728.006 .0296066
728.734 .0295813
729.462 .0295562
730.190 .0295318
730.917 .0295087
731.644 .0294872
732.371 .0294678
733.098 .0294499
733.825 .0294336
734.551 .0294183
735.277 .0294035
736.003 .0293886
736.728 .0293735
737.454 .0293585
738.179 .0293435
738.904 .0293287
739.629 .0293141
740.353 .0293002
741.077 .0292873
741.801 .0292748
742.525 .0292622
743.249 .0292495
743.972 .0292367
744.695 .0292235
745.418 .0292102
746.141 .0291974
746.863 .0291852
747.585 .0291739
748.307 .0291636
749.029 .0291543
749.750 .0291454
750.472 .0291372
751.193 .0291292
751.913 .0291218
752.634 .0291146
753.354 .0291073
754.074 .0291002
754.794 .0290936
755.514 .0290869
756.233 .0290795
756.952 .0290716
757.671 .0290634
758.390 .0290543
759.108 .0290448
759.826 .0290350
760.544 .0290260
761.262 .0290180
761.979 .0290113
762.697 .0290061
763.414 .0290026
764.130 .0290002
764.847 .0289984
765.563 .0289967
766.279 .0289953
766.995 .0289935
767.710 .0289916
768.426 .0289900
769.141 .0289893
769.855 .0289894
770.570 .0289904
771.284 .0289922
771.998 .0289948
772.712 .0289977
773.426 .0290010
774.139 .0290038
774.852 .0290064
775.565 .0290085
776.277 .0290099
776.990 .0290109
777.702 .0290116
778.414 .0290119
779.125 .0290120
779.836 .0290120
780.547 .0290119
781.258 .0290116
781.969 .0290117
782.679 .0290122
783.389 .0290131
784.099 .0290142
784.808 .0290153
785.517 .0290164
786.226 .0290175
786.935 .0290181
787.643 .0290183
788.352 .0290182
789.060 .0290174
789.767 .0290161
790.475 .0290142
791.182 .0290117
791.889 .0290086
792.595 .0290046
793.301 .0289996
794.008 .0289931
794.713 .0289849
795.419 .0289753
796.124 .0289646
796.829 .0289531
797.534 .0289412
798.238 .0289293
798.942 .0289177
799.646 .0289065
800.350 .0288951
801.053 .0288841
801.756 .0288733
802.459 .0288620
803.162 .0288499
803.864 .0288370
804.566 .0288236
805.267 .0288094
805.969 .0287948
806.670 .0287800
807.371 .0287657
808.071 .0287518
808.772 .0287382
809.472 .0287245
810.171 .0287108
810.871 .0286973
811.570 .0286832
812.269 .0286687
812.967 .0286536
813.666 .0286380
814.364 .0286222
815.061 .0286062
815.759 .0285903
816.456 .0285743
817.153 .0285586
817.849 .0285426
818.545 .0285266
819.241 .0285103
819.937 .0284936
820.632 .0284766
821.327 .0284589
822.022 .0284404
822.717 .0284207
823.411 .0284000
824.105 .0283792
824.798 .0283584
825.491 .0283374
826.184 .0283167
826.877 .0282977
827.569 .0282801
828.261 .0282639
828.953 .0282487
829.645 .0282346
830.336 .0282212
831.027 .0282079
831.717 .0281944
832.407 .0281805
833.097 .0281665
833.787 .0281523
834.476 .0281379
835.165 .0281240
835.854 .0281112
836.542 .0280998
837.230 .0280901
837.918 .0280821
838.605 .0280751
839.292 .0280690
839.979 .0280642
840.665 .0280597
841.352 .0280554
842.037 .0280515
842.723 .0280475
843.408 .0280438
844.093 .0280407
844.777 .0280384
845.462 .0280376
846.145 .0280380
846.829 .0280394
847.512 .0280412
848.195 .0280435
848.878 .0280454
849.560 .0280465
850.242 .0280468
850.923 .0280456
851.605 .0280426
852.286 .0280382
852.966 .0280325
853.646 .0280262
854.326 .0280196
855.006 .0280130
855.685 .0280067
856.364 .0280010
857.043 .0279955
857.721 .0279903
858.399 .0279858
859.077 .0279810
859.754 .0279765
860.431 .0279720
861.107 .0279679
861.784 .0279644
862.459 .0279620
863.135 .0279611
863.810 .0279618
864.485 .0279640
865.160 .0279672
865.834 .0279713
866.508 .0279760
867.181 .0279803
867.854 .0279843
868.527 .0279873
869.199 .0279894
869.872 .0279901
870.543 .0279897
871.215 .0279877
871.886 .0279848
872.557 .0279809
873.227 .0279758
873.897 .0279699
874.567 .0279635
875.236 .0279568
875.905 .0279497
876.573 .0279422
877.242 .0279340
877.909 .0279247
878.577 .0279143
879.244 .0279021
879.911 .0278888
880.577 .0278746
881.243 .0278597
881.909 .0278443
882.575 .0278294
883.240 .0278151
883.904 .0278015
884.569 .0277888
885.232 .0277764
885.896 .0277641
886.559 .0277517
887.222 .0277392
887.885 .0277266
888.547 .0277139
889.208 .0277013
889.870 .0276893
890.531 .0276779
891.192 .0276670
891.852 .0276569
892.512 .0276472
893.171 .0276380
893.830 .0276284
894.489 .0276181
895.148 .0276071
895.806 .0275953
896.464 .0275825
897.121 .0275691
897.778 .0275557
898.434 .0275423
899.091 .0275291
899.747 .0275167
900.402 .0275045
901.057 .0274928
901.712 .0274811
902.366 .0274697
903.020 .0274578
903.674 .0274455
904.327 .0274326
904.980 .0274195
905.633 .0274062
906.285 .0273930
906.936 .0273801
907.588 .0273674
908.239 .0273546
908.889 .0273416
909.540 .0273278
910.190 .0273132
910.839 .0272976
911.488 .0272807
912.137 .0272623
912.785 .0272430
913.433 .0272225
914.081 .0272014
914.728 .0271803
915.375 .0271591
916.021 .0271377
916.668 .0271161
917.313 .0270939
917.959 .0270710
918.604 .0270476
919.248 .0270239
919.892 .0269995
920.536 .0269746
921.180 .0269496
921.823 .0269249
922.465 .0269012
923.108 .0268784
923.750 .0268568
924.391 .0268361
925.032 .0268162
925.673 .0267961
926.313 .0267758
926.953 .0267552
927.593 .0267341
928.232 .0267124
928.871 .0266904
929.510 .0266684
930.148 .0266465
930.786 .0266249
931.423 .0266038
932.060 .0265830
932.697 .0265625
933.333 .0265417
933.969 .0265210
934.604 .0264998
935.239 .0264783
935.874 .0264566
936.508 .0264355
937.142 .0264156
937.776 .0263974
938.409 .0263807
939.042 .0263662
939.674 .0263535
940.306 .0263419
940.938 .0263309
941.569 .0263202
942.200 .0263091
942.830 .0262976
943.460 .0262857
944.090 .0262737
944.720 .0262617
945.349 .0262506
945.977 .0262399
946.606 .0262298
947.233 .0262200
947.861 .0262099
948.488 .0261989
949.115 .0261872
949.741 .0261744
950.367 .0261612
950.993 .0261478
951.618 .0261350
952.243 .0261234
952.868 .0261133
953.492 .0261049
954.115 .0260983
954.739 .0260932
955.362 .0260892
955.984 .0260853
956.607 .0260817
957.229 .0260782
957.850 .0260758
958.471 .0260736
959.092 .0260722
959.713 .0260719
960.333 .0260724
960.952 .0260733
961.572 .0260745
962.191 .0260761
962.809 .0260773
963.428 .0260781
964.045 .0260780
964.663 .0260769
965.280 .0260750
965.897 .0260725
966.513 .0260700
967.129 .0260678
967.745 .0260663
968.361 .0260651
968.976 .0260649
969.590 .0260659
970.205 .0260676
970.818 .0260696
971.432 .0260715
972.045 .0260736
972.658 .0260755
973.271 .0260771
973.883 .0260787
974.495 .0260805
975.106 .0260828
975.717 .0260853
976.328 .0260883
976.938 .0260915
977.548 .0260955
978.158 .0260999
978.768 .0261043
979.377 .0261086
979.985 .0261121
980.594 .0261146
981.202 .0261163
981.809 .0261171
982.417 .0261165
983.024 .0261149
983.631 .0261129
984.237 .0261103
984.843 .0261077
985.449 .0261043
986.054 .0261005
986.659 .0260964
987.264 .0260916
987.868 .0260858
988.472 .0260796
989.076 .0260736
989.679 .0260682
990.282 .0260636
990.885 .0260601
991.487 .0260574
992.090 .0260561
992.691 .0260559
993.293 .0260567
993.894 .0260581
994.495 .0260600
995.095 .0260623
995.696 .0260647
996.296 .0260669
996.895 .0260684
997.494 .0260695
998.093 .0260704
998.692 .0260706
999.291 .0260698
999.889 .0260682
1000.487 .0260657
1001.084 .0260629
1001.681 .0260590
1002.278 .0260541
1002.875 .0260484
1003.471 .0260413
1004.067 .0260335
1004.663 .0260254
1005.258 .0260169
1005.854 .0260088
1006.449 .0260014
1007.043 .0259942
1007.638 .0259867
1008.232 .0259784
1008.826 .0259697
1009.419 .0259602
1010.012 .0259502
1010.605 .0259393
1011.198 .0259269
1011.791 .0259144
1012.383 .0259014
1012.975 .0258878
1013.566 .0258744
1014.158 .0258609
1014.749 .0258472
1015.340 .0258332
1015.931 .0258195
1016.521 .0258065
1017.111 .0257944
1017.701 .0257838
1018.291 .0257741
1018.880 .0257647
1019.470 .0257557
1020.059 .0257466
1020.647 .0257379
1021.236 .0257303
1021.824 .0257236
1022.412 .0257179
1023.000 .0257139
1023.588 .0257111
1024.175 .0257095
1024.762 .0257084
1025.349 .0257074
1025.936 .0257053
1026.523 .0257017
1027.109 .0256966
1027.695 .0256899
1028.281 .0256824
1028.867 .0256744
1029.452 .0256659
1030.038 .0256572
1030.623 .0256477
1031.208 .0256371
1031.792 .0256254
1032.377 .0256127
1032.961 .0255989
1033.546 .0255837
1034.130 .0255671
1034.714 .0255499
1035.297 .0255327
1035.881 .0255154
1036.464 .0254986
1037.047 .0254832
1037.630 .0254692
1038.213 .0254568
1038.796 .0254460
1039.378 .0254373
1039.961 .0254303
1040.543 .0254242
1041.125 .0254188
1041.707 .0254131
1042.289 .0254070
1042.871 .0254012
1043.452 .0253956
1044.034 .0253917
1044.615 .0253887
1045.196 .0253874
1045.777 .0253874
1046.358 .0253885
1046.939 .0253895
1047.520 .0253891
1048.101 .0253870
1048.681 .0253832
1049.262 .0253760
1049.842 .0253658
1050.422 .0253536
1051.002 .0253399
1051.582 .0253252
1052.162 .0253107
1052.742 .0252960
1053.322 .0252826
1053.902 .0252701
1054.482 .0252588
1055.061 .0252476
1055.641 .0252374
1056.220 .0252272
1056.800 .0252162
1057.379 .0252056
1057.958 .0251957
1058.538 .0251866
1059.117 .0251791
1059.696 .0251743
1060.275 .0251726
1060.854 .0251729
1061.433 .0251755
1062.012 .0251790
1062.592 .0251834
1063.171 .0251878
1063.750 .0251914
1064.329 .0251945
1064.908 .0251971
1065.487 .0251989
1066.066 .0251990
1066.645 .0251977
1067.224 .0251955
1067.803 .0251910
1068.382 .0251849
1068.961 .0251780
1069.540 .0251690
1070.119 .0251596
1070.698 .0251501
1071.278 .0251405
1071.857 .0251322
1072.436 .0251244
1073.016 .0251171
1073.595 .0251101
1074.175 .0251037
1074.754 .0250972
1075.334 .0250912
1075.913 .0250874
1076.493 .0250863
1077.073 .0250874
1077.653 .0250912
1078.233 .0250976
1078.813 .0251058
1079.393 .0251166
1079.974 .0251277
1080.554 .0251405
1081.135 .0251535
1081.716 .0251662
1082.296 .0251783
1082.877 .0251895
1083.458 .0252006
1084.040 .0252100
1084.621 .0252168
1085.202 .0252209
1085.784 .0252223
1086.366 .0252221
1086.948 .0252197
1087.530 .0252179
1088.112 .0252148
1088.695 .0252115
1089.277 .0252063
1089.860 .0251996
1090.443 .0251903
1091.026 .0251797
1091.610 .0251690
1092.193 .0251576
1092.777 .0251462
1093.361 .0251363
1093.946 .0251288
1094.530 .0251253
1095.115 .0251242
1095.700 .0251259
1096.285 .0251304
1096.871 .0251379
1097.456 .0251466
1098.042 .0251576
1098.628 .0251714
1099.215 .0251887
1099.802 .0252091
1100.389 .0252327
1100.976 .0252578
1101.564 .0252824
1102.152 .0253064
1102.740 .0253293
1103.329 .0253486
1103.917 .0253639
1104.507 .0253767
1105.096 .0253884
1105.686 .0253993
1106.276 .0254085
1106.867 .0254180
1107.457 .0254278
1108.049 .0254379
1108.640 .0254464
1109.232 .0254531
1109.825 .0254597
1110.417 .0254669
1111.010 .0254748
1111.604 .0254845
1112.198 .0254982
1112.792 .0255164
1113.387 .0255375
1113.982 .0255649
1114.577 .0255951
1115.173 .0256293
1115.769 .0256667
1116.366 .0257066
1116.963 .0257455
1117.561 .0257823
1118.159 .0258161
1118.758 .0258455
1119.357 .0258713
1119.957 .0258949
1120.557 .0259142
1121.157 .0259332
1121.758 .0259519
1122.360 .0259712
1122.962 .0259885
1123.564 .0260065
1124.167 .0260200
1124.771 .0260287
1125.375 .0260292
1125.980 .0260239
1126.585 .0260141
1127.191 .0260059
1127.797 .0260044
1128.404 .0260119
1129.012 .0260315
1129.620 .0260636
1130.229 .0261011
1130.838 .0261420
1131.448 .0261770
1132.058 .0262038
1132.669 .0262174
1133.281 .0262222
1133.894 .0262195
1134.507 .0262160
1135.120 .0262181
1135.735 .0262308
1136.350 .0262532
1136.965 .0262831
1137.582 .0263154
1138.199 .0263452
1138.816 .0263652
1139.435 .0263766
1140.054 .0263839
1140.674 .0263852
1141.294 .0263820
1141.916 .0263835
1142.538 .0263125
1143.160 .0265298
1143.784 .0264388
1144.408 .0263598
1145.033 .0264728
