Measurement Sequence started on: 14-45-04-498
Integration time: 36
Scans to Average: 2 
>>>>>Begin Spectral Data<<<<<
433.946 .0422553
434.870 .0460563
435.793 .0453104
436.715 .0421793
437.635 .0432198
438.555 .0443377
439.473 .0445177
440.389 .0446003
441.305 .0446934
442.219 .0448077
443.132 .0448293
444.044 .0447867
444.954 .0447162
445.863 .0446607
446.771 .0446047
447.678 .0445583
448.584 .0445141
449.488 .0444692
450.391 .0444055
451.293 .0443228
452.194 .0442153
453.094 .0440759
453.992 .0439155
454.890 .0437422
455.786 .0435567
456.681 .0433735
457.575 .0431937
458.468 .0430174
459.360 .0428453
460.250 .0426787
461.140 .0425073
462.028 .0423322
462.915 .0421517
463.801 .0419625
464.687 .0417616
465.571 .0415610
466.454 .0413606
467.335 .0411664
468.216 .0409884
469.096 .0408261
469.975 .0406821
470.853 .0405520
471.729 .0404316
472.605 .0403193
473.479 .0402128
474.353 .0401142
475.226 .0400210
476.097 .0399375
476.968 .0398611
477.838 .0397934
478.706 .0397332
479.574 .0396822
480.441 .0396389
481.306 .0396023
482.171 .0395722
483.035 .0395466
483.898 .0395260
484.760 .0395104
485.621 .0395038
486.481 .0395035
487.340 .0395070
488.198 .0395187
489.055 .0395312
489.912 .0395466
490.767 .0395617
491.622 .0395765
492.476 .0395881
493.329 .0395945
494.180 .0395945
495.032 .0395865
495.882 .0395712
496.731 .0395453
497.580 .0395097
498.427 .0394676
499.274 .0394167
500.120 .0393593
500.965 .0392958
501.809 .0392313
502.653 .0391620
503.495 .0390880
504.337 .0390059
505.178 .0389173
506.018 .0388240
506.858 .0387241
507.696 .0386230
508.534 .0385230
509.371 .0384248
510.208 .0383302
511.043 .0382356
511.878 .0381414
512.712 .0380453
513.545 .0379427
514.377 .0378328
515.209 .0377168
516.040 .0375957
516.870 .0374673
517.699 .0373380
518.528 .0372089
519.356 .0370854
520.183 .0369696
521.010 .0368715
521.836 .0367919
522.661 .0367313
523.485 .0366939
524.309 .0366738
525.132 .0366716
525.954 .0366816
526.776 .0366955
527.597 .0367138
528.417 .0367240
529.237 .0367389
530.056 .0367467
530.874 .0367585
531.692 .0367781
532.508 .0367996
533.325 .0368208
534.140 .0368348
534.955 .0368331
535.770 .0368068
536.583 .0367552
537.397 .0366794
538.209 .0365818
539.021 .0364793
539.832 .0363784
540.643 .0362929
541.453 .0362249
542.262 .0361821
543.071 .0361452
543.879 .0361167
544.687 .0360876
545.494 .0360505
546.300 .0360071
547.106 .0359606
547.911 .0359215
548.716 .0358914
549.520 .0358721
550.323 .0358662
551.126 .0358639
551.929 .0358720
552.731 .0358744
553.532 .0358717
554.332 .0358610
555.133 .0358486
555.932 .0358329
556.731 .0358235
557.530 .0358197
558.328 .0358250
559.125 .0358376
559.922 .0358602
560.719 .0358843
561.515 .0359065
562.310 .0359237
563.105 .0359383
563.899 .0359491
564.693 .0359581
565.487 .0359653
566.280 .0359759
567.072 .0359857
567.864 .0359925
568.655 .0359900
569.446 .0359780
570.236 .0359533
571.026 .0359168
571.816 .0358688
572.605 .0358093
573.393 .0357445
574.181 .0356781
574.969 .0356142
575.756 .0355536
576.543 .0354964
577.329 .0354414
578.115 .0353878
578.900 .0353341
579.685 .0352810
580.469 .0352297
581.253 .0351868
582.036 .0351491
582.820 .0351183
583.602 .0350945
584.384 .0350756
585.166 .0350596
585.947 .0350441
586.728 .0350247
587.509 .0350013
588.289 .0349724
589.069 .0349393
589.848 .0349027
590.627 .0348670
591.405 .0348322
592.183 .0347993
592.961 .0347691
593.738 .0347412
594.515 .0347129
595.291 .0346862
596.067 .0346595
596.843 .0346325
597.618 .0346068
598.393 .0345819
599.167 .0345594
599.941 .0345397
600.715 .0345239
601.488 .0345112
602.261 .0345015
603.034 .0344938
603.806 .0344862
604.578 .0344782
605.349 .0344688
606.121 .0344574
606.891 .0344452
607.662 .0344319
608.432 .0344180
609.201 .0344034
609.971 .0343879
610.740 .0343708
611.508 .0343516
612.277 .0343298
613.045 .0343061
613.812 .0342805
614.579 .0342542
615.346 .0342277
616.113 .0342038
616.879 .0341823
617.645 .0341630
618.411 .0341456
619.176 .0341297
619.941 .0341131
620.705 .0340945
621.470 .0340738
622.233 .0340517
622.997 .0340282
623.760 .0340051
624.523 .0339833
625.286 .0339633
626.048 .0339455
626.810 .0339287
627.572 .0339112
628.333 .0338933
629.095 .0338727
629.855 .0338491
630.616 .0338234
631.376 .0337971
632.136 .0337710
632.895 .0337460
633.655 .0337242
634.414 .0337041
635.172 .0336850
635.931 .0336664
636.689 .0336462
637.447 .0336243
638.204 .0336013
638.962 .0335765
639.718 .0335513
640.475 .0335274
641.231 .0335048
641.988 .0334836
642.743 .0334647
643.499 .0334473
644.254 .0334297
645.009 .0334122
645.764 .0333949
646.518 .0333770
647.272 .0333598
648.026 .0333433
648.780 .0333279
649.533 .0333146
650.286 .0333026
651.039 .0332908
651.792 .0332795
652.544 .0332685
653.296 .0332571
654.048 .0332448
654.799 .0332326
655.550 .0332202
656.301 .0332076
657.052 .0331944
657.802 .0331798
658.552 .0331636
659.302 .0331460
660.052 .0331264
660.801 .0331053
661.550 .0330833
662.299 .0330611
663.048 .0330387
663.796 .0330169
664.544 .0329956
665.292 .0329745
666.040 .0329533
666.787 .0329328
667.534 .0329118
668.281 .0328915
669.028 .0328728
669.774 .0328562
670.521 .0328421
671.266 .0328313
672.012 .0328233
672.758 .0328179
673.503 .0328140
674.248 .0328114
674.992 .0328086
675.737 .0328061
676.481 .0328037
677.225 .0328008
677.969 .0327978
678.712 .0327946
679.455 .0327905
680.199 .0327860
680.941 .0327805
681.684 .0327730
682.426 .0327636
683.168 .0327526
683.910 .0327392
684.652 .0327239
685.393 .0327080
686.134 .0326923
686.875 .0326764
687.616 .0326609
688.356 .0326458
689.097 .0326305
689.837 .0326154
690.576 .0325994
691.316 .0325824
692.055 .0325647
692.794 .0325459
693.533 .0325264
694.272 .0325070
695.010 .0324889
695.748 .0324721
696.486 .0324569
697.224 .0324433
697.962 .0324301
698.699 .0324171
699.436 .0324042
700.173 .0323912
700.909 .0323774
701.646 .0323634
702.382 .0323490
703.118 .0323348
703.853 .0323215
704.589 .0323087
705.324 .0322970
706.059 .0322863
706.794 .0322763
707.529 .0322664
708.263 .0322567
708.997 .0322471
709.731 .0322367
710.465 .0322263
711.198 .0322145
711.931 .0322013
712.664 .0321872
713.397 .0321725
714.130 .0321570
714.862 .0321418
715.594 .0321271
716.326 .0321128
717.058 .0320993
717.789 .0320859
718.520 .0320711
719.251 .0320554
719.982 .0320380
720.713 .0320184
721.443 .0319971
722.173 .0319756
722.903 .0319539
723.633 .0319344
724.362 .0319173
725.091 .0319021
725.820 .0318890
726.549 .0318777
727.278 .0318664
728.006 .0318550
728.734 .0318425
729.462 .0318291
730.190 .0318150
730.917 .0318006
731.644 .0317854
732.371 .0317703
733.098 .0317552
733.825 .0317396
734.551 .0317226
735.277 .0317047
736.003 .0316848
736.728 .0316643
737.454 .0316429
738.179 .0316215
738.904 .0316003
739.629 .0315798
740.353 .0315599
741.077 .0315413
741.801 .0315236
742.525 .0315066
743.249 .0314910
743.972 .0314764
744.695 .0314629
745.418 .0314509
746.141 .0314398
746.863 .0314296
747.585 .0314196
748.307 .0314091
749.029 .0313971
749.750 .0313840
750.472 .0313702
751.193 .0313549
751.913 .0313394
752.634 .0313236
753.354 .0313080
754.074 .0312928
754.794 .0312782
755.514 .0312643
756.233 .0312507
756.952 .0312374
757.671 .0312240
758.390 .0312107
759.108 .0311983
759.826 .0311864
760.544 .0311759
761.262 .0311668
761.979 .0311592
762.697 .0311531
763.414 .0311483
764.130 .0311446
764.847 .0311413
765.563 .0311378
766.279 .0311335
766.995 .0311279
767.710 .0311208
768.426 .0311122
769.141 .0311016
769.855 .0310896
770.570 .0310763
771.284 .0310621
771.998 .0310474
772.712 .0310325
773.426 .0310178
774.139 .0310031
774.852 .0309876
775.565 .0309716
776.277 .0309547
776.990 .0309377
777.702 .0309202
778.414 .0309032
779.125 .0308874
779.836 .0308734
780.547 .0308615
781.258 .0308518
781.969 .0308444
782.679 .0308385
783.389 .0308329
784.099 .0308269
784.808 .0308197
785.517 .0308116
786.226 .0308022
786.935 .0307920
787.643 .0307814
788.352 .0307706
789.060 .0307597
789.767 .0307488
790.475 .0307374
791.182 .0307246
791.889 .0307100
792.595 .0306933
793.301 .0306746
794.008 .0306541
794.713 .0306329
795.419 .0306121
796.124 .0305922
796.829 .0305739
797.534 .0305569
798.238 .0305410
798.942 .0305255
799.646 .0305100
800.350 .0304938
801.053 .0304762
801.756 .0304577
802.459 .0304381
803.162 .0304178
803.864 .0303975
804.566 .0303773
805.267 .0303575
805.969 .0303388
806.670 .0303201
807.371 .0303014
808.071 .0302831
808.772 .0302648
809.472 .0302461
810.171 .0302274
810.871 .0302090
811.570 .0301904
812.269 .0301721
812.967 .0301545
813.666 .0301372
814.364 .0301212
815.061 .0301063
815.759 .0300923
816.456 .0300795
817.153 .0300677
817.849 .0300559
818.545 .0300444
819.241 .0300332
819.937 .0300210
820.632 .0300075
821.327 .0299929
822.022 .0299773
822.717 .0299609
823.411 .0299449
824.105 .0299296
824.798 .0299153
825.491 .0299028
826.184 .0298914
826.877 .0298817
827.569 .0298733
828.261 .0298657
828.953 .0298579
829.645 .0298498
830.336 .0298415
831.027 .0298321
831.717 .0298237
832.407 .0298159
833.097 .0298089
833.787 .0298030
834.476 .0297980
835.165 .0297941
835.854 .0297908
836.542 .0297880
837.230 .0297844
837.918 .0297800
838.605 .0297752
839.292 .0297691
839.979 .0297628
840.665 .0297563
841.352 .0297502
842.037 .0297437
842.723 .0297374
843.408 .0297300
844.093 .0297218
844.777 .0297127
845.462 .0297020
846.145 .0296900
846.829 .0296764
847.512 .0296619
848.195 .0296467
848.878 .0296313
849.560 .0296160
850.242 .0296001
850.923 .0295846
851.605 .0295684
852.286 .0295518
852.966 .0295354
853.646 .0295190
854.326 .0295034
855.006 .0294886
855.685 .0294745
856.364 .0294616
857.043 .0294493
857.721 .0294374
858.399 .0294250
859.077 .0294118
859.754 .0293971
860.431 .0293804
861.107 .0293623
861.784 .0293431
862.459 .0293228
863.135 .0293026
863.810 .0292820
864.485 .0292616
865.160 .0292420
865.834 .0292227
866.508 .0292035
867.181 .0291844
867.854 .0291650
868.527 .0291451
869.199 .0291250
869.872 .0291045
870.543 .0290840
871.215 .0290639
871.886 .0290446
872.557 .0290254
873.227 .0290063
873.897 .0289868
874.567 .0289658
875.236 .0289433
875.905 .0289185
876.573 .0288912
877.242 .0288621
877.909 .0288321
878.577 .0288018
879.244 .0287720
879.911 .0287439
880.577 .0287178
881.243 .0286934
881.909 .0286707
882.575 .0286492
883.240 .0286287
883.904 .0286096
884.569 .0285917
885.232 .0285749
885.896 .0285603
886.559 .0285482
887.222 .0285379
887.885 .0285292
888.547 .0285220
889.208 .0285151
889.870 .0285083
890.531 .0285014
891.192 .0284945
891.852 .0284873
892.512 .0284812
893.171 .0284757
893.830 .0284713
894.489 .0284681
895.148 .0284655
895.806 .0284634
896.464 .0284617
897.121 .0284598
897.778 .0284573
898.434 .0284546
899.091 .0284524
899.747 .0284500
900.402 .0284485
901.057 .0284476
901.712 .0284465
902.366 .0284453
903.020 .0284444
903.674 .0284429
904.327 .0284411
904.980 .0284389
905.633 .0284358
906.285 .0284320
906.936 .0284276
907.588 .0284227
908.239 .0284176
908.889 .0284130
909.540 .0284085
910.190 .0284037
910.839 .0283996
911.488 .0283954
912.137 .0283911
912.785 .0283864
913.433 .0283809
914.081 .0283733
914.728 .0283642
915.375 .0283536
916.021 .0283420
916.668 .0283304
917.313 .0283193
917.959 .0283090
918.604 .0283001
919.248 .0282921
919.892 .0282845
920.536 .0282774
921.180 .0282700
921.823 .0282615
922.465 .0282519
923.108 .0282411
923.750 .0282298
924.391 .0282178
925.032 .0282064
925.673 .0281949
926.313 .0281835
926.953 .0281718
927.593 .0281585
928.232 .0281435
928.871 .0281271
929.510 .0281094
930.148 .0280901
930.786 .0280702
931.423 .0280504
932.060 .0280312
932.697 .0280126
933.333 .0279946
933.969 .0279770
934.604 .0279597
935.239 .0279424
935.874 .0279248
936.508 .0279077
937.142 .0278916
937.776 .0278760
938.409 .0278610
939.042 .0278462
939.674 .0278311
940.306 .0278145
940.938 .0277974
941.569 .0277788
942.200 .0277589
942.830 .0277382
943.460 .0277172
944.090 .0276959
944.720 .0276751
945.349 .0276543
945.977 .0276329
946.606 .0276106
947.233 .0275867
947.861 .0275606
948.488 .0275329
949.115 .0275037
949.741 .0274742
950.367 .0274448
950.993 .0274168
951.618 .0273898
952.243 .0273646
952.868 .0273408
953.492 .0273179
954.115 .0272953
954.739 .0272725
955.362 .0272493
955.984 .0272258
956.607 .0272022
957.229 .0271795
957.850 .0271581
958.471 .0271380
959.092 .0271188
959.713 .0271005
960.333 .0270824
960.952 .0270642
961.572 .0270451
962.191 .0270254
962.809 .0270051
963.428 .0269841
964.045 .0269632
964.663 .0269425
965.280 .0269230
965.897 .0269050
966.513 .0268883
967.129 .0268735
967.745 .0268595
968.361 .0268469
968.976 .0268350
969.590 .0268242
970.205 .0268149
970.818 .0268058
971.432 .0267976
972.045 .0267903
972.658 .0267834
973.271 .0267772
973.883 .0267708
974.495 .0267648
975.106 .0267588
975.717 .0267527
976.328 .0267459
976.938 .0267393
977.548 .0267331
978.158 .0267277
978.768 .0267225
979.377 .0267181
979.985 .0267139
980.594 .0267104
981.202 .0267081
981.809 .0267063
982.417 .0267048
983.024 .0267041
983.631 .0267034
984.237 .0267039
984.843 .0267045
985.449 .0267050
986.054 .0267053
986.659 .0267050
987.264 .0267040
987.868 .0267017
988.472 .0266989
989.076 .0266958
989.679 .0266922
990.282 .0266886
990.885 .0266843
991.487 .0266796
992.090 .0266751
992.691 .0266705
993.293 .0266662
993.894 .0266619
994.495 .0266577
995.095 .0266541
995.696 .0266519
996.296 .0266504
996.895 .0266505
997.494 .0266516
998.093 .0266545
998.692 .0266581
999.291 .0266633
999.889 .0266696
1000.487 .0266763
1001.084 .0266834
1001.681 .0266906
1002.278 .0266963
1002.875 .0267014
1003.471 .0267056
1004.067 .0267100
1004.663 .0267137
1005.258 .0267167
1005.854 .0267186
1006.449 .0267202
1007.043 .0267215
1007.638 .0267219
1008.232 .0267212
1008.826 .0267204
1009.419 .0267185
1010.012 .0267162
1010.605 .0267143
1011.198 .0267127
1011.791 .0267114
1012.383 .0267110
1012.975 .0267115
1013.566 .0267128
1014.158 .0267144
1014.749 .0267166
1015.340 .0267197
1015.931 .0267232
1016.521 .0267262
1017.111 .0267287
1017.701 .0267321
1018.291 .0267362
1018.880 .0267400
1019.470 .0267439
1020.059 .0267480
1020.647 .0267522
1021.236 .0267562
1021.824 .0267594
1022.412 .0267619
1023.000 .0267637
1023.588 .0267640
1024.175 .0267635
1024.762 .0267619
1025.349 .0267592
1025.936 .0267559
1026.523 .0267525
1027.109 .0267487
1027.695 .0267435
1028.281 .0267369
1028.867 .0267293
1029.452 .0267197
1030.038 .0267080
1030.623 .0266939
1031.208 .0266786
1031.792 .0266637
1032.377 .0266497
1032.961 .0266365
1033.546 .0266260
1034.130 .0266182
1034.714 .0266127
1035.297 .0266094
1035.881 .0266076
1036.464 .0266065
1037.047 .0266065
1037.630 .0266070
1038.213 .0266070
1038.796 .0266069
1039.378 .0266079
1039.961 .0266085
1040.543 .0266089
1041.125 .0266090
1041.707 .0266078
1042.289 .0266053
1042.871 .0266017
1043.452 .0265950
1044.034 .0265856
1044.615 .0265742
1045.196 .0265606
1045.777 .0265455
1046.358 .0265302
1046.939 .0265148
1047.520 .0264998
1048.101 .0264855
1048.681 .0264725
1049.262 .0264597
1049.842 .0264486
1050.422 .0264380
1051.002 .0264276
1051.582 .0264167
1052.162 .0264049
1052.742 .0263918
1053.322 .0263778
1053.902 .0263626
1054.482 .0263469
1055.061 .0263302
1055.641 .0263139
1056.220 .0262975
1056.800 .0262830
1057.379 .0262682
1057.958 .0262554
1058.538 .0262431
1059.117 .0262321
1059.696 .0262220
1060.275 .0262128
1060.854 .0262058
1061.433 .0262018
1062.012 .0262004
1062.592 .0262013
1063.171 .0262044
1063.750 .0262096
1064.329 .0262141
1064.908 .0262176
1065.487 .0262185
1066.066 .0262170
1066.645 .0262112
1067.224 .0262020
1067.803 .0261895
1068.382 .0261747
1068.961 .0261587
1069.540 .0261409
1070.119 .0261225
1070.698 .0261047
1071.278 .0260878
1071.857 .0260711
1072.436 .0260555
1073.016 .0260423
1073.595 .0260300
1074.175 .0260194
1074.754 .0260107
1075.334 .0260029
1075.913 .0259964
1076.493 .0259914
1077.073 .0259874
1077.653 .0259844
1078.233 .0259832
1078.813 .0259825
1079.393 .0259814
1079.974 .0259811
1080.554 .0259803
1081.135 .0259775
1081.716 .0259758
1082.296 .0259748
1082.877 .0259739
1083.458 .0259757
1084.040 .0259794
1084.621 .0259854
1085.202 .0259928
1085.784 .0260014
1086.366 .0260086
1086.948 .0260160
1087.530 .0260228
1088.112 .0260274
1088.695 .0260307
1089.277 .0260345
1089.860 .0260366
1090.443 .0260380
1091.026 .0260394
1091.610 .0260417
1092.193 .0260435
1092.777 .0260473
1093.361 .0260513
1093.946 .0260569
1094.530 .0260633
1095.115 .0260707
1095.700 .0260774
1096.285 .0260824
1096.871 .0260871
1097.456 .0260890
1098.042 .0260891
1098.628 .0260890
1099.215 .0260874
1099.802 .0260883
1100.389 .0260920
1100.976 .0260976
1101.564 .0261039
1102.152 .0261112
1102.740 .0261184
1103.329 .0261227
1103.917 .0261249
1104.507 .0261245
1105.096 .0261230
1105.686 .0261222
1106.276 .0261254
1106.867 .0261318
1107.457 .0261451
1108.049 .0261658
1108.640 .0261924
1109.232 .0262243
1109.825 .0262591
1110.417 .0262948
1111.010 .0263301
1111.604 .0263624
1112.198 .0263922
1112.792 .0264172
1113.387 .0264405
1113.982 .0264643
1114.577 .0264876
1115.173 .0265099
1115.769 .0265329
1116.366 .0265531
1116.963 .0265696
1117.561 .0265812
1118.159 .0265851
1118.758 .0265811
1119.357 .0265713
1119.957 .0265557
1120.557 .0265345
1121.157 .0265114
1121.758 .0264896
1122.360 .0264687
1122.962 .0264508
1123.564 .0264315
1124.167 .0264114
1124.771 .0263934
1125.375 .0263765
1125.980 .0263600
1126.585 .0263504
1127.191 .0263466
1127.797 .0263514
1128.404 .0263677
1129.012 .0263960
1129.620 .0264355
1130.229 .0264853
1130.838 .0265403
1131.448 .0265970
1132.058 .0266544
1132.669 .0267100
1133.281 .0267614
1133.894 .0268156
1134.507 .0268714
1135.120 .0269310
1135.735 .0269962
1136.350 .0270661
1136.965 .0271352
1137.582 .0272042
1138.199 .0272662
1138.816 .0273195
1139.435 .0273674
1140.054 .0274079
1140.674 .0274436
1141.294 .0274667
1141.916 .0274571
1142.538 .0275842
1143.160 .0276111
1143.784 .0276749
1144.408 .0273386
1145.033 .0266696
