Measurement Sequence started on: 14-45-04-498
Integration time: 36
Scans to Average: 2 
>>>>>Begin Spectral Data<<<<<
433.946 .0582779
434.870 .0505241
435.793 .0496641
436.715 .0506554
437.635 .0498939
438.555 .0499730
439.473 .0495441
440.389 .0493939
441.305 .0492604
442.219 .0490899
443.132 .0489411
444.044 .0488180
444.954 .0486895
445.863 .0485857
446.771 .0485272
447.678 .0484970
448.584 .0484855
449.488 .0484737
450.391 .0484486
451.293 .0484117
452.194 .0483553
453.094 .0482731
453.992 .0481759
454.890 .0480738
455.786 .0479741
456.681 .0478749
457.575 .0477890
458.468 .0477068
459.360 .0476253
460.250 .0475368
461.140 .0474357
462.028 .0473333
462.915 .0472314
463.801 .0471286
464.687 .0470266
465.571 .0469294
466.454 .0468350
467.335 .0467446
468.216 .0466594
469.096 .0465766
469.975 .0464973
470.853 .0464177
471.729 .0463388
472.605 .0462592
473.479 .0461826
474.353 .0461082
475.226 .0460336
476.097 .0459575
476.968 .0458776
477.838 .0457953
478.706 .0457152
479.574 .0456432
480.441 .0455813
481.306 .0455320
482.171 .0454919
483.035 .0454590
483.898 .0454324
484.760 .0454040
485.621 .0453736
486.481 .0453381
487.340 .0452997
488.198 .0452587
489.055 .0452187
489.912 .0451861
490.767 .0451595
491.622 .0451369
492.476 .0451148
493.329 .0450865
494.180 .0450513
495.032 .0450025
495.882 .0449387
496.731 .0448650
497.580 .0447874
498.427 .0447086
499.274 .0446363
500.120 .0445782
500.965 .0445352
501.809 .0444996
502.653 .0444697
503.495 .0444381
504.337 .0443974
505.178 .0443492
506.018 .0442895
506.858 .0442198
507.696 .0441470
508.534 .0440710
509.371 .0439998
510.208 .0439383
511.043 .0438849
511.878 .0438342
512.712 .0437838
513.545 .0437306
514.377 .0436659
515.209 .0435918
516.040 .0435174
516.870 .0434433
517.699 .0433740
518.528 .0433125
519.356 .0432628
520.183 .0432301
521.010 .0432102
521.836 .0431980
522.661 .0431888
523.485 .0431763
524.309 .0431557
525.132 .0431188
525.954 .0430716
526.776 .0430163
527.597 .0429585
528.417 .0428972
529.237 .0428340
530.056 .0427740
530.874 .0427116
531.692 .0426510
532.508 .0425870
533.325 .0425180
534.140 .0424431
534.955 .0423592
535.770 .0422694
536.583 .0421775
537.397 .0420955
538.209 .0420226
539.021 .0419623
539.832 .0419167
540.643 .0418737
541.453 .0418363
542.262 .0417955
543.071 .0417539
543.879 .0417099
544.687 .0416652
545.494 .0416210
546.300 .0415822
547.106 .0415520
547.911 .0415258
548.716 .0415101
549.520 .0415005
550.323 .0414910
551.126 .0414796
551.929 .0414632
552.731 .0414434
553.532 .0414178
554.332 .0413899
555.133 .0413574
555.932 .0413239
556.731 .0412894
557.530 .0412523
558.328 .0412183
559.125 .0411869
559.922 .0411624
560.719 .0411430
561.515 .0411279
562.310 .0411161
563.105 .0411069
563.899 .0411018
564.693 .0411007
565.487 .0411025
566.280 .0411045
567.072 .0411061
567.864 .0411088
568.655 .0411053
569.446 .0410980
570.236 .0410856
571.026 .0410661
571.816 .0410366
572.605 .0409990
573.393 .0409527
574.181 .0409013
574.969 .0408491
575.756 .0407959
576.543 .0407402
577.329 .0406861
578.115 .0406280
578.900 .0405699
579.685 .0405122
580.469 .0404566
581.253 .0404035
582.036 .0403557
582.820 .0403128
583.602 .0402743
584.384 .0402404
585.166 .0402099
585.947 .0401799
586.728 .0401505
587.509 .0401175
588.289 .0400829
589.069 .0400474
589.848 .0400131
590.627 .0399797
591.405 .0399493
592.183 .0399194
592.961 .0398898
593.738 .0398598
594.515 .0398287
595.291 .0397965
596.067 .0397640
596.843 .0397298
597.618 .0396947
598.393 .0396597
599.167 .0396260
599.941 .0395926
600.715 .0395611
601.488 .0395307
602.261 .0395009
603.034 .0394717
603.806 .0394427
604.578 .0394141
605.349 .0393871
606.121 .0393615
606.891 .0393368
607.662 .0393125
608.432 .0392896
609.201 .0392671
609.971 .0392448
610.740 .0392227
611.508 .0392004
612.277 .0391773
613.045 .0391542
613.812 .0391308
614.579 .0391069
615.346 .0390832
616.113 .0390595
616.879 .0390351
617.645 .0390105
618.411 .0389852
619.176 .0389595
619.941 .0389335
620.705 .0389075
621.470 .0388809
622.233 .0388537
622.997 .0388266
623.760 .0387993
624.523 .0387718
625.286 .0387446
626.048 .0387171
626.810 .0386895
627.572 .0386613
628.333 .0386327
629.095 .0386035
629.855 .0385738
630.616 .0385434
631.376 .0385124
632.136 .0384810
632.895 .0384491
633.655 .0384174
634.414 .0383857
635.172 .0383538
635.931 .0383224
636.689 .0382912
637.447 .0382607
638.204 .0382310
638.962 .0382021
639.718 .0381743
640.475 .0381480
641.231 .0381226
641.988 .0380975
642.743 .0380734
643.499 .0380494
644.254 .0380247
645.009 .0379994
645.764 .0379738
646.518 .0379475
647.272 .0379206
648.026 .0378934
648.780 .0378650
649.533 .0378361
650.286 .0378063
651.039 .0377758
651.792 .0377452
652.544 .0377152
653.296 .0376858
654.048 .0376576
654.799 .0376318
655.550 .0376076
656.301 .0375861
657.052 .0375675
657.802 .0375514
658.552 .0375371
659.302 .0375245
660.052 .0375141
660.801 .0375050
661.550 .0374984
662.299 .0374930
663.048 .0374885
663.796 .0374849
664.544 .0374812
665.292 .0374768
666.040 .0374717
666.787 .0374658
667.534 .0374584
668.281 .0374496
669.028 .0374397
669.774 .0374288
670.521 .0374169
671.266 .0374040
672.012 .0373904
672.758 .0373757
673.503 .0373603
674.248 .0373433
674.992 .0373251
675.737 .0373068
676.481 .0372877
677.225 .0372682
677.969 .0372481
678.712 .0372282
679.455 .0372082
680.199 .0371877
680.941 .0371669
681.684 .0371456
682.426 .0371232
683.168 .0370998
683.910 .0370749
684.652 .0370490
685.393 .0370222
686.134 .0369954
686.875 .0369689
687.616 .0369434
688.356 .0369189
689.097 .0368952
689.837 .0368721
690.576 .0368498
691.316 .0368271
692.055 .0368040
692.794 .0367811
693.533 .0367590
694.272 .0367371
695.010 .0367163
695.748 .0366967
696.486 .0366787
697.224 .0366618
697.962 .0366455
698.699 .0366292
699.436 .0366131
700.173 .0365970
700.909 .0365803
701.646 .0365637
702.382 .0365478
703.118 .0365319
703.853 .0365167
704.589 .0365015
705.324 .0364866
706.059 .0364713
706.794 .0364555
707.529 .0364394
708.263 .0364230
708.997 .0364065
709.731 .0363898
710.465 .0363732
711.198 .0363573
711.931 .0363407
712.664 .0363236
713.397 .0363060
714.130 .0362876
714.862 .0362683
715.594 .0362486
716.326 .0362290
717.058 .0362099
717.789 .0361915
718.520 .0361738
719.251 .0361564
719.982 .0361396
720.713 .0361230
721.443 .0361062
722.173 .0360890
722.903 .0360714
723.633 .0360533
724.362 .0360351
725.091 .0360171
725.820 .0359992
726.549 .0359818
727.278 .0359641
728.006 .0359465
728.734 .0359276
729.462 .0359079
730.190 .0358873
730.917 .0358656
731.644 .0358432
732.371 .0358202
733.098 .0357971
733.825 .0357742
734.551 .0357518
735.277 .0357302
736.003 .0357084
736.728 .0356872
737.454 .0356662
738.179 .0356456
738.904 .0356252
739.629 .0356052
740.353 .0355857
741.077 .0355672
741.801 .0355488
742.525 .0355302
743.249 .0355122
743.972 .0354945
744.695 .0354767
745.418 .0354587
746.141 .0354406
746.863 .0354223
747.585 .0354041
748.307 .0353857
749.029 .0353665
749.750 .0353469
750.472 .0353264
751.193 .0353041
751.913 .0352809
752.634 .0352559
753.354 .0352295
754.074 .0352026
754.794 .0351757
755.514 .0351488
756.233 .0351225
756.952 .0350975
757.671 .0350739
758.390 .0350515
759.108 .0350307
759.826 .0350109
760.544 .0349927
761.262 .0349763
761.979 .0349602
762.697 .0349453
763.414 .0349315
764.130 .0349189
764.847 .0349073
765.563 .0348971
766.279 .0348880
766.995 .0348798
767.710 .0348724
768.426 .0348652
769.141 .0348575
769.855 .0348494
770.570 .0348399
771.284 .0348285
771.998 .0348157
772.712 .0348015
773.426 .0347865
774.139 .0347713
774.852 .0347560
775.565 .0347410
776.277 .0347262
776.990 .0347117
777.702 .0346969
778.414 .0346815
779.125 .0346655
779.836 .0346483
780.547 .0346301
781.258 .0346111
781.969 .0345920
782.679 .0345734
783.389 .0345559
784.099 .0345393
784.808 .0345236
785.517 .0345092
786.226 .0344961
786.935 .0344839
787.643 .0344725
788.352 .0344619
789.060 .0344518
789.767 .0344416
790.475 .0344314
791.182 .0344205
791.889 .0344093
792.595 .0343976
793.301 .0343851
794.008 .0343717
794.713 .0343583
795.419 .0343446
796.124 .0343311
796.829 .0343175
797.534 .0343033
798.238 .0342880
798.942 .0342718
799.646 .0342541
800.350 .0342350
801.053 .0342148
801.756 .0341942
802.459 .0341730
803.162 .0341520
803.864 .0341312
804.566 .0341111
805.267 .0340914
805.969 .0340716
806.670 .0340509
807.371 .0340300
808.071 .0340083
808.772 .0339860
809.472 .0339636
810.171 .0339415
810.871 .0339199
811.570 .0338991
812.269 .0338790
812.967 .0338597
813.666 .0338408
814.364 .0338223
815.061 .0338040
815.759 .0337862
816.456 .0337683
817.153 .0337504
817.849 .0337325
818.545 .0337145
819.241 .0336961
819.937 .0336772
820.632 .0336573
821.327 .0336364
822.022 .0336145
822.717 .0335914
823.411 .0335681
824.105 .0335447
824.798 .0335215
825.491 .0334986
826.184 .0334760
826.877 .0334541
827.569 .0334324
828.261 .0334112
828.953 .0333904
829.645 .0333697
830.336 .0333493
831.027 .0333292
831.717 .0333100
832.407 .0332919
833.097 .0332747
833.787 .0332578
834.476 .0332416
835.165 .0332259
835.854 .0332104
836.542 .0331951
837.230 .0331800
837.918 .0331655
838.605 .0331511
839.292 .0331373
839.979 .0331238
840.665 .0331110
841.352 .0330994
842.037 .0330885
842.723 .0330784
843.408 .0330692
844.093 .0330609
844.777 .0330533
845.462 .0330463
846.145 .0330392
846.829 .0330316
847.512 .0330235
848.195 .0330150
848.878 .0330060
849.560 .0329965
850.242 .0329870
850.923 .0329771
851.605 .0329669
852.286 .0329559
852.966 .0329442
853.646 .0329318
854.326 .0329186
855.006 .0329046
855.685 .0328895
856.364 .0328737
857.043 .0328581
857.721 .0328429
858.399 .0328280
859.077 .0328134
859.754 .0327992
860.431 .0327848
861.107 .0327701
861.784 .0327549
862.459 .0327389
863.135 .0327225
863.810 .0327052
864.485 .0326870
865.160 .0326687
865.834 .0326508
866.508 .0326331
867.181 .0326160
867.854 .0325996
868.527 .0325831
869.199 .0325667
869.872 .0325506
870.543 .0325341
871.215 .0325174
871.886 .0325006
872.557 .0324833
873.227 .0324657
873.897 .0324476
874.567 .0324294
875.236 .0324110
875.905 .0323928
876.573 .0323743
877.242 .0323553
877.909 .0323363
878.577 .0323174
879.244 .0322982
879.911 .0322791
880.577 .0322599
881.243 .0322405
881.909 .0322214
882.575 .0322024
883.240 .0321837
883.904 .0321655
884.569 .0321477
885.232 .0321304
885.896 .0321130
886.559 .0320960
887.222 .0320790
887.885 .0320622
888.547 .0320455
889.208 .0320280
889.870 .0320098
890.531 .0319914
891.192 .0319725
891.852 .0319532
892.512 .0319338
893.171 .0319144
893.830 .0318949
894.489 .0318753
895.148 .0318560
895.806 .0318371
896.464 .0318185
897.121 .0318006
897.778 .0317828
898.434 .0317654
899.091 .0317478
899.747 .0317301
900.402 .0317125
901.057 .0316948
901.712 .0316767
902.366 .0316580
903.020 .0316387
903.674 .0316191
904.327 .0315991
904.980 .0315787
905.633 .0315582
906.285 .0315376
906.936 .0315171
907.588 .0314966
908.239 .0314767
908.889 .0314579
909.540 .0314398
910.190 .0314223
910.839 .0314057
911.488 .0313891
912.137 .0313726
912.785 .0313560
913.433 .0313397
914.081 .0313234
914.728 .0313075
915.375 .0312920
916.021 .0312764
916.668 .0312612
917.313 .0312463
917.959 .0312307
918.604 .0312150
919.248 .0311990
919.892 .0311821
920.536 .0311651
921.180 .0311486
921.823 .0311322
922.465 .0311162
923.108 .0311012
923.750 .0310863
924.391 .0310709
925.032 .0310557
925.673 .0310406
926.313 .0310251
926.953 .0310100
927.593 .0309949
928.232 .0309797
928.871 .0309653
929.510 .0309511
930.148 .0309366
930.786 .0309218
931.423 .0309069
932.060 .0308911
932.697 .0308746
933.333 .0308582
933.969 .0308413
934.604 .0308245
935.239 .0308082
935.874 .0307918
936.508 .0307754
937.142 .0307592
937.776 .0307434
938.409 .0307277
939.042 .0307128
939.674 .0306982
940.306 .0306844
940.938 .0306716
941.569 .0306595
942.200 .0306478
942.830 .0306362
943.460 .0306243
944.090 .0306115
944.720 .0305979
945.349 .0305837
945.977 .0305691
946.606 .0305547
947.233 .0305397
947.861 .0305247
948.488 .0305096
949.115 .0304944
949.741 .0304787
950.367 .0304633
950.993 .0304477
951.618 .0304324
952.243 .0304173
952.868 .0304025
953.492 .0303880
954.115 .0303741
954.739 .0303601
955.362 .0303463
955.984 .0303327
956.607 .0303196
957.229 .0303072
957.850 .0302959
958.471 .0302851
959.092 .0302744
959.713 .0302635
960.333 .0302518
960.952 .0302388
961.572 .0302243
962.191 .0302083
962.809 .0301916
963.428 .0301744
964.045 .0301573
964.663 .0301405
965.280 .0301242
965.897 .0301085
966.513 .0300931
967.129 .0300774
967.745 .0300613
968.361 .0300456
968.976 .0300296
969.590 .0300136
970.205 .0299981
970.818 .0299831
971.432 .0299688
972.045 .0299554
972.658 .0299423
973.271 .0299293
973.883 .0299161
974.495 .0299026
975.106 .0298886
975.717 .0298750
976.328 .0298613
976.938 .0298479
977.548 .0298353
978.158 .0298234
978.768 .0298113
979.377 .0297995
979.985 .0297873
980.594 .0297746
981.202 .0297606
981.809 .0297454
982.417 .0297293
983.024 .0297131
983.631 .0296970
984.237 .0296813
984.843 .0296659
985.449 .0296507
986.054 .0296352
986.659 .0296196
987.264 .0296036
987.868 .0295864
988.472 .0295688
989.076 .0295510
989.679 .0295330
990.282 .0295151
990.885 .0294973
991.487 .0294804
992.090 .0294641
992.691 .0294481
993.293 .0294316
993.894 .0294153
994.495 .0293996
995.095 .0293842
995.696 .0293692
996.296 .0293550
996.895 .0293413
997.494 .0293285
998.093 .0293164
998.692 .0293047
999.291 .0292932
999.889 .0292819
1000.487 .0292707
1001.084 .0292595
1001.681 .0292480
1002.278 .0292364
1002.875 .0292249
1003.471 .0292140
1004.067 .0292033
1004.663 .0291925
1005.258 .0291818
1005.854 .0291713
1006.449 .0291610
1007.043 .0291499
1007.638 .0291384
1008.232 .0291270
1008.826 .0291158
1009.419 .0291048
1010.012 .0290947
1010.605 .0290857
1011.198 .0290779
1011.791 .0290715
1012.383 .0290660
1012.975 .0290616
1013.566 .0290580
1014.158 .0290549
1014.749 .0290521
1015.340 .0290501
1015.931 .0290489
1016.521 .0290477
1017.111 .0290470
1017.701 .0290466
1018.291 .0290455
1018.880 .0290435
1019.470 .0290404
1020.059 .0290367
1020.647 .0290324
1021.236 .0290276
1021.824 .0290222
1022.412 .0290171
1023.000 .0290121
1023.588 .0290071
1024.175 .0290021
1024.762 .0289968
1025.349 .0289910
1025.936 .0289854
1026.523 .0289798
1027.109 .0289751
1027.695 .0289713
1028.281 .0289686
1028.867 .0289668
1029.452 .0289655
1030.038 .0289635
1030.623 .0289608
1031.208 .0289576
1031.792 .0289541
1032.377 .0289501
1032.961 .0289464
1033.546 .0289434
1034.130 .0289421
1034.714 .0289423
1035.297 .0289435
1035.881 .0289455
1036.464 .0289481
1037.047 .0289509
1037.630 .0289534
1038.213 .0289560
1038.796 .0289588
1039.378 .0289624
1039.961 .0289670
1040.543 .0289717
1041.125 .0289765
1041.707 .0289806
1042.289 .0289837
1042.871 .0289850
1043.452 .0289847
1044.034 .0289824
1044.615 .0289789
1045.196 .0289749
1045.777 .0289699
1046.358 .0289650
1046.939 .0289597
1047.520 .0289542
1048.101 .0289483
1048.681 .0289419
1049.262 .0289353
1049.842 .0289289
1050.422 .0289232
1051.002 .0289187
1051.582 .0289156
1052.162 .0289149
1052.742 .0289154
1053.322 .0289168
1053.902 .0289184
1054.482 .0289200
1055.061 .0289206
1055.641 .0289199
1056.220 .0289178
1056.800 .0289148
1057.379 .0289112
1057.958 .0289076
1058.538 .0289037
1059.117 .0289011
1059.696 .0288994
1060.275 .0288990
1060.854 .0288989
1061.433 .0289000
1062.012 .0289013
1062.592 .0289032
1063.171 .0289058
1063.750 .0289092
1064.329 .0289131
1064.908 .0289178
1065.487 .0289217
1066.066 .0289254
1066.645 .0289276
1067.224 .0289286
1067.803 .0289260
1068.382 .0289220
1068.961 .0289154
1069.540 .0289067
1070.119 .0288970
1070.698 .0288877
1071.278 .0288787
1071.857 .0288702
1072.436 .0288618
1073.016 .0288536
1073.595 .0288450
1074.175 .0288373
1074.754 .0288284
1075.334 .0288200
1075.913 .0288117
1076.493 .0288031
1077.073 .0287946
1077.653 .0287873
1078.233 .0287805
1078.813 .0287736
1079.393 .0287667
1079.974 .0287593
1080.554 .0287503
1081.135 .0287403
1081.716 .0287282
1082.296 .0287159
1082.877 .0287028
1083.458 .0286888
1084.040 .0286735
1084.621 .0286593
1085.202 .0286466
1085.784 .0286360
1086.366 .0286289
1086.948 .0286244
1087.530 .0286239
1088.112 .0286273
1088.695 .0286322
1089.277 .0286383
1089.860 .0286455
1090.443 .0286517
1091.026 .0286547
1091.610 .0286565
1092.193 .0286551
1092.777 .0286512
1093.361 .0286464
1093.946 .0286389
1094.530 .0286303
1095.115 .0286221
1095.700 .0286139
1096.285 .0286069
1096.871 .0286025
1097.456 .0286000
1098.042 .0285988
1098.628 .0285999
1099.215 .0286024
1099.802 .0286048
1100.389 .0286074
1100.976 .0286102
1101.564 .0286130
1102.152 .0286151
1102.740 .0286166
1103.329 .0286191
1103.917 .0286231
1104.507 .0286271
1105.096 .0286309
1105.686 .0286342
1106.276 .0286351
1106.867 .0286341
1107.457 .0286285
1108.049 .0286173
1108.640 .0286029
1109.232 .0285835
1109.825 .0285621
1110.417 .0285411
1111.010 .0285221
1111.604 .0285066
1112.198 .0284973
1112.792 .0284952
1113.387 .0284958
1113.982 .0285000
1114.577 .0285048
1115.173 .0285081
1115.769 .0285080
1116.366 .0285040
1116.963 .0284968
1117.561 .0284894
1118.159 .0284849
1118.758 .0284841
1119.357 .0284892
1119.957 .0285007
1120.557 .0285179
1121.157 .0285385
1121.758 .0285584
1122.360 .0285787
1122.962 .0285943
1123.564 .0286094
1124.167 .0286248
1124.771 .0286420
1125.375 .0286622
1125.980 .0286889
1126.585 .0287227
1127.191 .0287615
1127.797 .0288069
1128.404 .0288582
1129.012 .0289103
1129.620 .0289662
1130.229 .0290246
1130.838 .0290821
1131.448 .0291423
1132.058 .0292058
1132.669 .0292678
1133.281 .0293310
1133.894 .0293937
1134.507 .0294534
1135.120 .0295122
1135.735 .0295706
1136.350 .0296281
1136.965 .0296837
1137.582 .0297416
1138.199 .0297974
1138.816 .0298560
1139.435 .0299119
1140.054 .0299648
1140.674 .0300217
1141.294 .0300835
1141.916 .0301595
1142.538 .0300969
1143.160 .0301741
1143.784 .0304305
1144.408 .0305436
1145.033 .0308927
