Measurement Sequence started on: 14-45-04-498
Integration time: 36
Scans to Average: 2 
>>>>>Begin Spectral Data<<<<<
433.946 .0380598
434.870 .0506566
435.793 .0466278
436.715 .0438083
437.635 .0424042
438.555 .0433706
439.473 .0431585
440.389 .0426702
441.305 .0423895
442.219 .0422013
443.132 .0420365
444.044 .0418501
444.954 .0416735
445.863 .0415371
446.771 .0414117
447.678 .0413029
448.584 .0412248
449.488 .0411405
450.391 .0410434
451.293 .0409214
452.194 .0407739
453.094 .0406039
453.992 .0404285
454.890 .0402482
455.786 .0400777
456.681 .0399383
457.575 .0398324
458.468 .0397403
459.360 .0396630
460.250 .0395935
461.140 .0395294
462.028 .0394662
462.915 .0393986
463.801 .0393305
464.687 .0392684
465.571 .0392102
466.454 .0391637
467.335 .0391317
468.216 .0391183
469.096 .0391162
469.975 .0391301
470.853 .0391494
471.729 .0391673
472.605 .0391838
473.479 .0391973
474.353 .0392099
475.226 .0392191
476.097 .0392219
476.968 .0392214
477.838 .0392195
478.706 .0392144
479.574 .0392052
480.441 .0391954
481.306 .0391842
482.171 .0391701
483.035 .0391531
483.898 .0391402
484.760 .0391293
485.621 .0391251
486.481 .0391241
487.340 .0391253
488.198 .0391297
489.055 .0391323
489.912 .0391291
490.767 .0391201
491.622 .0391042
492.476 .0390820
493.329 .0390551
494.180 .0390259
495.032 .0389998
495.882 .0389793
496.731 .0389650
497.580 .0389534
498.427 .0389366
499.274 .0389125
500.120 .0388760
500.965 .0388275
501.809 .0387678
502.653 .0387014
503.495 .0386375
504.337 .0385803
505.178 .0385341
506.018 .0385018
506.858 .0384794
507.696 .0384646
508.534 .0384518
509.371 .0384347
510.208 .0384085
511.043 .0383792
511.878 .0383452
512.712 .0383151
513.545 .0382893
514.377 .0382705
515.209 .0382535
516.040 .0382366
516.870 .0382088
517.699 .0381617
518.528 .0380977
519.356 .0380183
520.183 .0379221
521.010 .0378280
521.836 .0377382
522.661 .0376566
523.485 .0375805
524.309 .0375075
525.132 .0374186
525.954 .0373178
526.776 .0371992
527.597 .0370671
528.417 .0369284
529.237 .0367988
530.056 .0366894
530.874 .0366105
531.692 .0365738
532.508 .0365700
533.325 .0365930
534.140 .0366316
534.955 .0366677
535.770 .0366965
536.583 .0367179
537.397 .0367315
538.209 .0367389
539.021 .0367436
539.832 .0367512
540.643 .0367556
541.453 .0367585
542.262 .0367580
543.071 .0367498
543.879 .0367262
544.687 .0366922
545.494 .0366476
546.300 .0366046
547.106 .0365633
547.911 .0365279
548.716 .0364995
549.520 .0364815
550.323 .0364651
551.126 .0364474
551.929 .0364303
552.731 .0364119
553.532 .0363849
554.332 .0363530
555.133 .0363107
555.932 .0362594
556.731 .0361994
557.530 .0361323
558.328 .0360605
559.125 .0359861
559.922 .0359080
560.719 .0358297
561.515 .0357511
562.310 .0356757
563.105 .0356012
563.899 .0355353
564.693 .0354764
565.487 .0354252
566.280 .0353837
567.072 .0353549
567.864 .0353399
568.655 .0353359
569.446 .0353399
570.236 .0353496
571.026 .0353609
571.816 .0353713
572.605 .0353781
573.393 .0353794
574.181 .0353747
574.969 .0353655
575.756 .0353493
576.543 .0353293
577.329 .0353060
578.115 .0352802
578.900 .0352527
579.685 .0352253
580.469 .0351978
581.253 .0351696
582.036 .0351448
582.820 .0351226
583.602 .0351029
584.384 .0350863
585.166 .0350715
585.947 .0350561
586.728 .0350417
587.509 .0350266
588.289 .0350113
589.069 .0349979
589.848 .0349865
590.627 .0349758
591.405 .0349665
592.183 .0349572
592.961 .0349453
593.738 .0349303
594.515 .0349100
595.291 .0348826
596.067 .0348497
596.843 .0348116
597.618 .0347710
598.393 .0347313
599.167 .0346936
599.941 .0346585
600.715 .0346256
601.488 .0345950
602.261 .0345645
603.034 .0345319
603.806 .0344976
604.578 .0344614
605.349 .0344253
606.121 .0343901
606.891 .0343576
607.662 .0343288
608.432 .0343043
609.201 .0342824
609.971 .0342614
610.740 .0342397
611.508 .0342158
612.277 .0341883
613.045 .0341585
613.812 .0341273
614.579 .0340957
615.346 .0340650
616.113 .0340376
616.879 .0340131
617.645 .0339917
618.411 .0339720
619.176 .0339542
619.941 .0339373
620.705 .0339213
621.470 .0339053
622.233 .0338899
622.997 .0338772
623.760 .0338664
624.523 .0338573
625.286 .0338503
626.048 .0338437
626.810 .0338370
627.572 .0338285
628.333 .0338178
629.095 .0338036
629.855 .0337863
630.616 .0337674
631.376 .0337466
632.136 .0337249
632.895 .0337026
633.655 .0336801
634.414 .0336581
635.172 .0336361
635.931 .0336139
636.689 .0335924
637.447 .0335720
638.204 .0335530
638.962 .0335354
639.718 .0335203
640.475 .0335080
641.231 .0334979
641.988 .0334889
642.743 .0334802
643.499 .0334703
644.254 .0334598
645.009 .0334474
645.764 .0334334
646.518 .0334184
647.272 .0334028
648.026 .0333872
648.780 .0333714
649.533 .0333561
650.286 .0333399
651.039 .0333230
651.792 .0333051
652.544 .0332855
653.296 .0332643
654.048 .0332432
654.799 .0332230
655.550 .0332046
656.301 .0331883
657.052 .0331740
657.802 .0331613
658.552 .0331500
659.302 .0331384
660.052 .0331256
660.801 .0331115
661.550 .0330965
662.299 .0330793
663.048 .0330611
663.796 .0330426
664.544 .0330240
665.292 .0330053
666.040 .0329861
666.787 .0329662
667.534 .0329459
668.281 .0329249
669.028 .0329027
669.774 .0328794
670.521 .0328562
671.266 .0328326
672.012 .0328094
672.758 .0327873
673.503 .0327668
674.248 .0327474
674.992 .0327292
675.737 .0327127
676.481 .0326976
677.225 .0326834
677.969 .0326697
678.712 .0326563
679.455 .0326427
680.199 .0326282
680.941 .0326130
681.684 .0325969
682.426 .0325804
683.168 .0325630
683.910 .0325455
684.652 .0325281
685.393 .0325116
686.134 .0324953
686.875 .0324797
687.616 .0324650
688.356 .0324504
689.097 .0324362
689.837 .0324223
690.576 .0324085
691.316 .0323953
692.055 .0323822
692.794 .0323698
693.533 .0323581
694.272 .0323478
695.010 .0323384
695.748 .0323308
696.486 .0323243
697.224 .0323184
697.962 .0323123
698.699 .0323059
699.436 .0322978
700.173 .0322881
700.909 .0322768
701.646 .0322642
702.382 .0322510
703.118 .0322377
703.853 .0322246
704.589 .0322128
705.324 .0322022
706.059 .0321926
706.794 .0321831
707.529 .0321744
708.263 .0321649
708.997 .0321550
709.731 .0321444
710.465 .0321330
711.198 .0321205
711.931 .0321079
712.664 .0320946
713.397 .0320808
714.130 .0320665
714.862 .0320520
715.594 .0320374
716.326 .0320240
717.058 .0320109
717.789 .0319985
718.520 .0319871
719.251 .0319770
719.982 .0319666
720.713 .0319563
721.443 .0319455
722.173 .0319340
722.903 .0319217
723.633 .0319092
724.362 .0318968
725.091 .0318855
725.820 .0318750
726.549 .0318651
727.278 .0318554
728.006 .0318454
728.734 .0318330
729.462 .0318181
730.190 .0318005
730.917 .0317799
731.644 .0317564
732.371 .0317315
733.098 .0317062
733.825 .0316810
734.551 .0316567
735.277 .0316335
736.003 .0316115
736.728 .0315907
737.454 .0315705
738.179 .0315511
738.904 .0315323
739.629 .0315143
740.353 .0314968
741.077 .0314805
741.801 .0314654
742.525 .0314511
743.249 .0314377
743.972 .0314253
744.695 .0314133
745.418 .0314010
746.141 .0313877
746.863 .0313738
747.585 .0313591
748.307 .0313436
749.029 .0313271
749.750 .0313097
750.472 .0312924
751.193 .0312754
751.913 .0312585
752.634 .0312427
753.354 .0312279
754.074 .0312135
754.794 .0311994
755.514 .0311851
756.233 .0311707
756.952 .0311561
757.671 .0311422
758.390 .0311288
759.108 .0311166
759.826 .0311062
760.544 .0310971
761.262 .0310893
761.979 .0310827
762.697 .0310755
763.414 .0310677
764.130 .0310587
764.847 .0310486
765.563 .0310378
766.279 .0310272
766.995 .0310176
767.710 .0310089
768.426 .0310014
769.141 .0309947
769.855 .0309877
770.570 .0309806
771.284 .0309729
771.998 .0309641
772.712 .0309552
773.426 .0309467
774.139 .0309391
774.852 .0309332
775.565 .0309287
776.277 .0309254
776.990 .0309233
777.702 .0309211
778.414 .0309185
779.125 .0309150
779.836 .0309106
780.547 .0309052
781.258 .0308990
781.969 .0308928
782.679 .0308867
783.389 .0308806
784.099 .0308747
784.808 .0308682
785.517 .0308612
786.226 .0308535
786.935 .0308450
787.643 .0308365
788.352 .0308280
789.060 .0308197
789.767 .0308117
790.475 .0308042
791.182 .0307973
791.889 .0307904
792.595 .0307838
793.301 .0307773
794.008 .0307702
794.713 .0307635
795.419 .0307569
796.124 .0307506
796.829 .0307452
797.534 .0307405
798.238 .0307356
798.942 .0307306
799.646 .0307251
800.350 .0307187
801.053 .0307113
801.756 .0307033
802.459 .0306941
803.162 .0306837
803.864 .0306728
804.566 .0306610
805.267 .0306486
805.969 .0306361
806.670 .0306225
807.371 .0306083
808.071 .0305933
808.772 .0305773
809.472 .0305596
810.171 .0305409
810.871 .0305216
811.570 .0305011
812.269 .0304802
812.967 .0304590
813.666 .0304381
814.364 .0304179
815.061 .0303989
815.759 .0303808
816.456 .0303642
817.153 .0303493
817.849 .0303353
818.545 .0303221
819.241 .0303095
819.937 .0302970
820.632 .0302839
821.327 .0302702
822.022 .0302560
822.717 .0302406
823.411 .0302248
824.105 .0302084
824.798 .0301911
825.491 .0301732
826.184 .0301542
826.877 .0301347
827.569 .0301145
828.261 .0300936
828.953 .0300716
829.645 .0300497
830.336 .0300279
831.027 .0300063
831.717 .0299848
832.407 .0299644
833.097 .0299447
833.787 .0299257
834.476 .0299072
835.165 .0298894
835.854 .0298729
836.542 .0298572
837.230 .0298418
837.918 .0298277
838.605 .0298141
839.292 .0298015
839.979 .0297898
840.665 .0297792
841.352 .0297693
842.037 .0297600
842.723 .0297512
843.408 .0297427
844.093 .0297341
844.777 .0297257
845.462 .0297170
846.145 .0297091
846.829 .0297013
847.512 .0296940
848.195 .0296872
848.878 .0296816
849.560 .0296763
850.242 .0296713
850.923 .0296656
851.605 .0296592
852.286 .0296514
852.966 .0296421
853.646 .0296315
854.326 .0296205
855.006 .0296096
855.685 .0295991
856.364 .0295883
857.043 .0295780
857.721 .0295675
858.399 .0295569
859.077 .0295458
859.754 .0295345
860.431 .0295226
861.107 .0295110
861.784 .0294992
862.459 .0294878
863.135 .0294763
863.810 .0294653
864.485 .0294538
865.160 .0294425
865.834 .0294313
866.508 .0294201
867.181 .0294100
867.854 .0294017
868.527 .0293944
869.199 .0293883
869.872 .0293824
870.543 .0293764
871.215 .0293694
871.886 .0293610
872.557 .0293501
873.227 .0293377
873.897 .0293241
874.567 .0293100
875.236 .0292958
875.905 .0292823
876.573 .0292699
877.242 .0292578
877.909 .0292459
878.577 .0292329
879.244 .0292189
879.911 .0292033
880.577 .0291866
881.243 .0291691
881.909 .0291514
882.575 .0291346
883.240 .0291195
883.904 .0291064
884.569 .0290957
885.232 .0290871
885.896 .0290805
886.559 .0290748
887.222 .0290699
887.885 .0290650
888.547 .0290602
889.208 .0290554
889.870 .0290515
890.531 .0290484
891.192 .0290472
891.852 .0290470
892.512 .0290474
893.171 .0290480
893.830 .0290484
894.489 .0290473
895.148 .0290444
895.806 .0290399
896.464 .0290344
897.121 .0290270
897.778 .0290191
898.434 .0290108
899.091 .0290020
899.747 .0289927
900.402 .0289824
901.057 .0289705
901.712 .0289574
902.366 .0289418
903.020 .0289240
903.674 .0289049
904.327 .0288848
904.980 .0288635
905.633 .0288421
906.285 .0288213
906.936 .0288015
907.588 .0287825
908.239 .0287652
908.889 .0287489
909.540 .0287340
910.190 .0287197
910.839 .0287051
911.488 .0286908
912.137 .0286762
912.785 .0286603
913.433 .0286438
914.081 .0286266
914.728 .0286087
915.375 .0285898
916.021 .0285712
916.668 .0285529
917.313 .0285351
917.959 .0285175
918.604 .0284999
919.248 .0284826
919.892 .0284654
920.536 .0284476
921.180 .0284294
921.823 .0284112
922.465 .0283931
923.108 .0283749
923.750 .0283570
924.391 .0283395
925.032 .0283231
925.673 .0283078
926.313 .0282941
926.953 .0282806
927.593 .0282674
928.232 .0282542
928.871 .0282398
929.510 .0282241
930.148 .0282068
930.786 .0281882
931.423 .0281688
932.060 .0281491
932.697 .0281290
933.333 .0281089
933.969 .0280893
934.604 .0280701
935.239 .0280510
935.874 .0280317
936.508 .0280120
937.142 .0279919
937.776 .0279718
938.409 .0279511
939.042 .0279299
939.674 .0279086
940.306 .0278871
940.938 .0278659
941.569 .0278445
942.200 .0278234
942.830 .0278028
943.460 .0277829
944.090 .0277632
944.720 .0277439
945.349 .0277246
945.977 .0277061
946.606 .0276878
947.233 .0276695
947.861 .0276508
948.488 .0276318
949.115 .0276128
949.741 .0275938
950.367 .0275748
950.993 .0275558
951.618 .0275373
952.243 .0275194
952.868 .0275010
953.492 .0274832
954.115 .0274650
954.739 .0274471
955.362 .0274292
955.984 .0274118
956.607 .0273945
957.229 .0273783
957.850 .0273635
958.471 .0273495
959.092 .0273367
959.713 .0273241
960.333 .0273117
960.952 .0272996
961.572 .0272882
962.191 .0272767
962.809 .0272658
963.428 .0272561
964.045 .0272470
964.663 .0272384
965.280 .0272304
965.897 .0272226
966.513 .0272152
967.129 .0272073
967.745 .0271991
968.361 .0271904
968.976 .0271823
969.590 .0271745
970.205 .0271680
970.818 .0271622
971.432 .0271577
972.045 .0271532
972.658 .0271485
973.271 .0271427
973.883 .0271353
974.495 .0271259
975.106 .0271154
975.717 .0271036
976.328 .0270915
976.938 .0270793
977.548 .0270692
978.158 .0270604
978.768 .0270536
979.377 .0270472
979.985 .0270412
980.594 .0270349
981.202 .0270282
981.809 .0270201
982.417 .0270121
983.024 .0270041
983.631 .0269973
984.237 .0269912
984.843 .0269863
985.449 .0269819
986.054 .0269782
986.659 .0269745
987.264 .0269702
987.868 .0269651
988.472 .0269600
989.076 .0269548
989.679 .0269508
990.282 .0269475
990.885 .0269448
991.487 .0269435
992.090 .0269427
992.691 .0269414
993.293 .0269400
993.894 .0269383
994.495 .0269369
995.095 .0269356
995.696 .0269358
996.296 .0269363
996.895 .0269380
997.494 .0269406
998.093 .0269427
998.692 .0269445
999.291 .0269460
999.889 .0269464
1000.487 .0269466
1001.084 .0269471
1001.681 .0269478
1002.278 .0269483
1002.875 .0269498
1003.471 .0269504
1004.067 .0269495
1004.663 .0269469
1005.258 .0269430
1005.854 .0269371
1006.449 .0269312
1007.043 .0269249
1007.638 .0269196
1008.232 .0269159
1008.826 .0269130
1009.419 .0269093
1010.012 .0269050
1010.605 .0268989
1011.198 .0268901
1011.791 .0268783
1012.383 .0268648
1012.975 .0268496
1013.566 .0268352
1014.158 .0268221
1014.749 .0268108
1015.340 .0268025
1015.931 .0267971
1016.521 .0267936
1017.111 .0267914
1017.701 .0267898
1018.291 .0267880
1018.880 .0267865
1019.470 .0267856
1020.059 .0267847
1020.647 .0267845
1021.236 .0267860
1021.824 .0267888
1022.412 .0267931
1023.000 .0267986
1023.588 .0268046
1024.175 .0268108
1024.762 .0268168
1025.349 .0268206
1025.936 .0268223
1026.523 .0268220
1027.109 .0268195
1027.695 .0268148
1028.281 .0268087
1028.867 .0268014
1029.452 .0267943
1030.038 .0267887
1030.623 .0267851
1031.208 .0267826
1031.792 .0267821
1032.377 .0267827
1032.961 .0267834
1033.546 .0267842
1034.130 .0267848
1034.714 .0267844
1035.297 .0267837
1035.881 .0267811
1036.464 .0267766
1037.047 .0267711
1037.630 .0267650
1038.213 .0267578
1038.796 .0267503
1039.378 .0267424
1039.961 .0267333
1040.543 .0267238
1041.125 .0267143
1041.707 .0267039
1042.289 .0266935
1042.871 .0266828
1043.452 .0266718
1044.034 .0266608
1044.615 .0266506
1045.196 .0266414
1045.777 .0266350
1046.358 .0266312
1046.939 .0266286
1047.520 .0266271
1048.101 .0266281
1048.681 .0266304
1049.262 .0266340
1049.842 .0266387
1050.422 .0266441
1051.002 .0266498
1051.582 .0266555
1052.162 .0266607
1052.742 .0266662
1053.322 .0266712
1053.902 .0266753
1054.482 .0266769
1055.061 .0266765
1055.641 .0266733
1056.220 .0266681
1056.800 .0266611
1057.379 .0266537
1057.958 .0266451
1058.538 .0266360
1059.117 .0266267
1059.696 .0266176
1060.275 .0266071
1060.854 .0265949
1061.433 .0265817
1062.012 .0265671
1062.592 .0265517
1063.171 .0265379
1063.750 .0265256
1064.329 .0265168
1064.908 .0265119
1065.487 .0265098
1066.066 .0265097
1066.645 .0265115
1067.224 .0265129
1067.803 .0265122
1068.382 .0265097
1068.961 .0265042
1069.540 .0264954
1070.119 .0264850
1070.698 .0264740
1071.278 .0264628
1071.857 .0264531
1072.436 .0264451
1073.016 .0264384
1073.595 .0264337
1074.175 .0264301
1074.754 .0264274
1075.334 .0264259
1075.913 .0264247
1076.493 .0264243
1077.073 .0264240
1077.653 .0264253
1078.233 .0264281
1078.813 .0264318
1079.393 .0264378
1079.974 .0264453
1080.554 .0264539
1081.135 .0264618
1081.716 .0264691
1082.296 .0264744
1082.877 .0264765
1083.458 .0264759
1084.040 .0264723
1084.621 .0264661
1085.202 .0264586
1085.784 .0264513
1086.366 .0264455
1086.948 .0264426
1087.530 .0264418
1088.112 .0264410
1088.695 .0264418
1089.277 .0264427
1089.860 .0264423
1090.443 .0264418
1091.026 .0264428
1091.610 .0264461
1092.193 .0264508
1092.777 .0264575
1093.361 .0264676
1093.946 .0264797
1094.530 .0264920
1095.115 .0265023
1095.700 .0265100
1096.285 .0265160
1096.871 .0265186
1097.456 .0265178
1098.042 .0265155
1098.628 .0265114
1099.215 .0265056
1099.802 .0264980
1100.389 .0264897
1100.976 .0264811
1101.564 .0264715
1102.152 .0264636
1102.740 .0264565
1103.329 .0264503
1103.917 .0264458
1104.507 .0264415
1105.096 .0264375
1105.686 .0264347
1106.276 .0264294
1106.867 .0264258
1107.457 .0264229
1108.049 .0264229
1108.640 .0264240
1109.232 .0264269
1109.825 .0264330
1110.417 .0264402
1111.010 .0264466
1111.604 .0264519
1112.198 .0264543
1112.792 .0264580
1113.387 .0264569
1113.982 .0264573
1114.577 .0264591
1115.173 .0264652
1115.769 .0264728
1116.366 .0264830
1116.963 .0264915
1117.561 .0265004
1118.159 .0265057
1118.758 .0265067
1119.357 .0265034
1119.957 .0264993
1120.557 .0264937
1121.157 .0264893
1121.758 .0264873
1122.360 .0264883
1122.962 .0264894
1123.564 .0264943
1124.167 .0264967
1124.771 .0264993
1125.375 .0265015
1125.980 .0265008
1126.585 .0264979
1127.191 .0264935
1127.797 .0264880
1128.404 .0264828
1129.012 .0264821
1129.620 .0264895
1130.229 .0265047
1130.838 .0265267
1131.448 .0265546
1132.058 .0265856
1132.669 .0266196
1133.281 .0266540
1133.894 .0266876
1134.507 .0267216
1135.120 .0267596
1135.735 .0268003
1136.350 .0268454
1136.965 .0268992
1137.582 .0269625
1138.199 .0270315
1138.816 .0270985
1139.435 .0271668
1140.054 .0272353
1140.674 .0273019
1141.294 .0273673
1141.916 .0274117
1142.538 .0274718
1143.160 .0275655
1143.784 .0276127
1144.408 .0276784
1145.033 .0272306
