Measurement Sequence started on: 14-45-04-498
Integration time: 36
Scans to Average: 2 
>>>>>Begin Spectral Data<<<<<
433.946 .0694676
434.870 .0650660
435.793 .0573755
436.715 .0568501
437.635 .0552678
438.555 .0565414
439.473 .0555990
440.389 .0550164
441.305 .0547414
442.219 .0545017
443.132 .0543153
444.044 .0541472
444.954 .0540017
445.863 .0538662
446.771 .0537553
447.678 .0536502
448.584 .0535410
449.488 .0534080
450.391 .0532521
451.293 .0530780
452.194 .0529007
453.094 .0527268
453.992 .0525610
454.890 .0523987
455.786 .0522519
456.681 .0521035
457.575 .0519616
458.468 .0518097
459.360 .0516607
460.250 .0515097
461.140 .0513625
462.028 .0512237
462.915 .0510959
463.801 .0509721
464.687 .0508507
465.571 .0507245
466.454 .0505953
467.335 .0504569
468.216 .0503129
469.096 .0501622
469.975 .0500157
470.853 .0498714
471.729 .0497377
472.605 .0496085
473.479 .0494932
474.353 .0493817
475.226 .0492751
476.097 .0491702
476.968 .0490667
477.838 .0489660
478.706 .0488700
479.574 .0487813
480.441 .0487041
481.306 .0486339
482.171 .0485758
483.035 .0485263
483.898 .0484869
484.760 .0484497
485.621 .0484192
486.481 .0483854
487.340 .0483537
488.198 .0483180
489.055 .0482794
489.912 .0482364
490.767 .0481903
491.622 .0481390
492.476 .0480841
493.329 .0480270
494.180 .0479676
495.032 .0479006
495.882 .0478344
496.731 .0477597
497.580 .0476798
498.427 .0475929
499.274 .0475023
500.120 .0474044
500.965 .0473083
501.809 .0472096
502.653 .0471129
503.495 .0470189
504.337 .0469290
505.178 .0468374
506.018 .0467483
506.858 .0466569
507.696 .0465649
508.534 .0464699
509.371 .0463778
510.208 .0462839
511.043 .0461938
511.878 .0461082
512.712 .0460316
513.545 .0459596
514.377 .0458965
515.209 .0458342
516.040 .0457770
516.870 .0457149
517.699 .0456496
518.528 .0455774
519.356 .0455080
520.183 .0454347
521.010 .0453651
521.836 .0452977
522.661 .0452421
523.485 .0451923
524.309 .0451503
525.132 .0451084
525.954 .0450638
526.776 .0450101
527.597 .0449529
528.417 .0448836
529.237 .0448154
530.056 .0447419
530.874 .0446715
531.692 .0446065
532.508 .0445484
533.325 .0444960
534.140 .0444516
534.955 .0444088
535.770 .0443674
536.583 .0443175
537.397 .0442660
538.209 .0442085
539.021 .0441490
539.832 .0440904
540.643 .0440265
541.453 .0439625
542.262 .0439039
543.071 .0438486
543.879 .0437974
544.687 .0437490
545.494 .0437052
546.300 .0436667
547.106 .0436326
547.911 .0436010
548.716 .0435692
549.520 .0435420
550.323 .0435156
551.126 .0434856
551.929 .0434522
552.731 .0434169
553.532 .0433760
554.332 .0433343
555.133 .0432874
555.932 .0432330
556.731 .0431747
557.530 .0431163
558.328 .0430561
559.125 .0429930
559.922 .0429293
560.719 .0428647
561.515 .0427987
562.310 .0427312
563.105 .0426583
563.899 .0425829
564.693 .0425055
565.487 .0424257
566.280 .0423444
567.072 .0422655
567.864 .0421912
568.655 .0421177
569.446 .0420503
570.236 .0419839
571.026 .0419161
571.816 .0418488
572.605 .0417816
573.393 .0417114
574.181 .0416397
574.969 .0415698
575.756 .0415019
576.543 .0414376
577.329 .0413798
578.115 .0413251
578.900 .0412745
579.685 .0412279
580.469 .0411832
581.253 .0411406
582.036 .0411017
582.820 .0410631
583.602 .0410263
584.384 .0409930
585.166 .0409614
585.947 .0409305
586.728 .0409001
587.509 .0408698
588.289 .0408371
589.069 .0408040
589.848 .0407695
590.627 .0407329
591.405 .0406976
592.183 .0406635
592.961 .0406296
593.738 .0405961
594.515 .0405636
595.291 .0405303
596.067 .0404963
596.843 .0404615
597.618 .0404254
598.393 .0403893
599.167 .0403553
599.941 .0403215
600.715 .0402889
601.488 .0402589
602.261 .0402296
603.034 .0402004
603.806 .0401723
604.578 .0401452
605.349 .0401181
606.121 .0400927
606.891 .0400680
607.662 .0400427
608.432 .0400169
609.201 .0399905
609.971 .0399623
610.740 .0399331
611.508 .0399027
612.277 .0398715
613.045 .0398409
613.812 .0398117
614.579 .0397831
615.346 .0397561
616.113 .0397305
616.879 .0397056
617.645 .0396797
618.411 .0396528
619.176 .0396240
619.941 .0395936
620.705 .0395617
621.470 .0395294
622.233 .0394964
622.997 .0394645
623.760 .0394331
624.523 .0394033
625.286 .0393736
626.048 .0393447
626.810 .0393156
627.572 .0392862
628.333 .0392560
629.095 .0392249
629.855 .0391925
630.616 .0391606
631.376 .0391282
632.136 .0390958
632.895 .0390638
633.655 .0390334
634.414 .0390030
635.172 .0389737
635.931 .0389444
636.689 .0389154
637.447 .0388856
638.204 .0388558
638.962 .0388250
639.718 .0387938
640.475 .0387623
641.231 .0387301
641.988 .0386977
642.743 .0386660
643.499 .0386337
644.254 .0386017
645.009 .0385701
645.764 .0385393
646.518 .0385086
647.272 .0384794
648.026 .0384511
648.780 .0384238
649.533 .0383976
650.286 .0383722
651.039 .0383472
651.792 .0383227
652.544 .0382985
653.296 .0382742
654.048 .0382501
654.799 .0382264
655.550 .0382022
656.301 .0381782
657.052 .0381540
657.802 .0381300
658.552 .0381060
659.302 .0380819
660.052 .0380574
660.801 .0380327
661.550 .0380084
662.299 .0379842
663.048 .0379597
663.796 .0379355
664.544 .0379111
665.292 .0378866
666.040 .0378613
666.787 .0378359
667.534 .0378107
668.281 .0377857
669.028 .0377613
669.774 .0377375
670.521 .0377148
671.266 .0376931
672.012 .0376728
672.758 .0376538
673.503 .0376356
674.248 .0376176
674.992 .0375991
675.737 .0375803
676.481 .0375605
677.225 .0375397
677.969 .0375180
678.712 .0374959
679.455 .0374737
680.199 .0374517
680.941 .0374301
681.684 .0374096
682.426 .0373901
683.168 .0373710
683.910 .0373513
684.652 .0373306
685.393 .0373087
686.134 .0372858
686.875 .0372621
687.616 .0372385
688.356 .0372148
689.097 .0371925
689.837 .0371713
690.576 .0371515
691.316 .0371333
692.055 .0371163
692.794 .0370998
693.533 .0370836
694.272 .0370675
695.010 .0370518
695.748 .0370361
696.486 .0370217
697.224 .0370080
697.962 .0369953
698.699 .0369834
699.436 .0369716
700.173 .0369592
700.909 .0369458
701.646 .0369310
702.382 .0369147
703.118 .0368973
703.853 .0368793
704.589 .0368609
705.324 .0368430
706.059 .0368259
706.794 .0368089
707.529 .0367920
708.263 .0367751
708.997 .0367576
709.731 .0367385
710.465 .0367185
711.198 .0366971
711.931 .0366751
712.664 .0366531
713.397 .0366318
714.130 .0366110
714.862 .0365916
715.594 .0365728
716.326 .0365542
717.058 .0365360
717.789 .0365175
718.520 .0364979
719.251 .0364771
719.982 .0364551
720.713 .0364318
721.443 .0364075
722.173 .0363830
722.903 .0363582
723.633 .0363335
724.362 .0363084
725.091 .0362830
725.820 .0362578
726.549 .0362330
727.278 .0362080
728.006 .0361834
728.734 .0361591
729.462 .0361351
730.190 .0361115
730.917 .0360886
731.644 .0360673
732.371 .0360478
733.098 .0360301
733.825 .0360142
734.551 .0360004
735.277 .0359883
736.003 .0359774
736.728 .0359676
737.454 .0359587
738.179 .0359500
738.904 .0359416
739.629 .0359333
740.353 .0359258
741.077 .0359188
741.801 .0359122
742.525 .0359055
743.249 .0358984
743.972 .0358898
744.695 .0358794
745.418 .0358669
746.141 .0358526
746.863 .0358358
747.585 .0358178
748.307 .0357986
749.029 .0357792
749.750 .0357594
750.472 .0357399
751.193 .0357201
751.913 .0356999
752.634 .0356787
753.354 .0356561
754.074 .0356324
754.794 .0356082
755.514 .0355833
756.233 .0355586
756.952 .0355345
757.671 .0355118
758.390 .0354900
759.108 .0354700
759.826 .0354512
760.544 .0354337
761.262 .0354173
761.979 .0354016
762.697 .0353863
763.414 .0353715
764.130 .0353571
764.847 .0353428
765.563 .0353282
766.279 .0353137
766.995 .0352989
767.710 .0352843
768.426 .0352697
769.141 .0352551
769.855 .0352402
770.570 .0352251
771.284 .0352096
771.998 .0351933
772.712 .0351766
773.426 .0351595
774.139 .0351423
774.852 .0351252
775.565 .0351085
776.277 .0350926
776.990 .0350777
777.702 .0350640
778.414 .0350506
779.125 .0350378
779.836 .0350252
780.547 .0350127
781.258 .0350004
781.969 .0349882
782.679 .0349765
783.389 .0349658
784.099 .0349561
784.808 .0349474
785.517 .0349396
786.226 .0349327
786.935 .0349261
787.643 .0349191
788.352 .0349115
789.060 .0349028
789.767 .0348936
790.475 .0348838
791.182 .0348733
791.889 .0348626
792.595 .0348522
793.301 .0348413
794.008 .0348302
794.713 .0348185
795.419 .0348061
796.124 .0347929
796.829 .0347792
797.534 .0347651
798.238 .0347507
798.942 .0347368
799.646 .0347232
800.350 .0347099
801.053 .0346968
801.756 .0346833
802.459 .0346689
803.162 .0346538
803.864 .0346374
804.566 .0346197
805.267 .0346003
805.969 .0345805
806.670 .0345599
807.371 .0345390
808.071 .0345184
808.772 .0344980
809.472 .0344777
810.171 .0344575
810.871 .0344370
811.570 .0344163
812.269 .0343957
812.967 .0343752
813.666 .0343550
814.364 .0343363
815.061 .0343188
815.759 .0343032
816.456 .0342892
817.153 .0342773
817.849 .0342663
818.545 .0342563
819.241 .0342464
819.937 .0342363
820.632 .0342256
821.327 .0342136
822.022 .0342000
822.717 .0341855
823.411 .0341696
824.105 .0341527
824.798 .0341348
825.491 .0341165
826.184 .0340967
826.877 .0340767
827.569 .0340558
828.261 .0340342
828.953 .0340117
829.645 .0339885
830.336 .0339646
831.027 .0339407
831.717 .0339167
832.407 .0338931
833.097 .0338703
833.787 .0338480
834.476 .0338259
835.165 .0338046
835.854 .0337838
836.542 .0337636
837.230 .0337435
837.918 .0337240
838.605 .0337048
839.292 .0336863
839.979 .0336688
840.665 .0336521
841.352 .0336364
842.037 .0336215
842.723 .0336074
843.408 .0335941
844.093 .0335812
844.777 .0335690
845.462 .0335575
846.145 .0335466
846.829 .0335362
847.512 .0335264
848.195 .0335171
848.878 .0335086
849.560 .0335003
850.242 .0334919
850.923 .0334836
851.605 .0334750
852.286 .0334666
852.966 .0334580
853.646 .0334491
854.326 .0334396
855.006 .0334290
855.685 .0334175
856.364 .0334046
857.043 .0333903
857.721 .0333754
858.399 .0333600
859.077 .0333446
859.754 .0333297
860.431 .0333156
861.107 .0333030
861.784 .0332915
862.459 .0332807
863.135 .0332699
863.810 .0332586
864.485 .0332470
865.160 .0332355
865.834 .0332243
866.508 .0332136
867.181 .0332036
867.854 .0331950
868.527 .0331874
869.199 .0331799
869.872 .0331724
870.543 .0331642
871.215 .0331547
871.886 .0331437
872.557 .0331308
873.227 .0331168
873.897 .0331021
874.567 .0330880
875.236 .0330743
875.905 .0330614
876.573 .0330492
877.242 .0330376
877.909 .0330262
878.577 .0330148
879.244 .0330022
879.911 .0329887
880.577 .0329749
881.243 .0329604
881.909 .0329450
882.575 .0329299
883.240 .0329147
883.904 .0328998
884.569 .0328842
885.232 .0328681
885.896 .0328504
886.559 .0328313
887.222 .0328103
887.885 .0327872
888.547 .0327625
889.208 .0327364
889.870 .0327092
890.531 .0326823
891.192 .0326556
891.852 .0326297
892.512 .0326050
893.171 .0325819
893.830 .0325602
894.489 .0325396
895.148 .0325202
895.806 .0325021
896.464 .0324854
897.121 .0324705
897.778 .0324572
898.434 .0324457
899.091 .0324355
899.747 .0324263
900.402 .0324175
901.057 .0324090
901.712 .0323996
902.366 .0323894
903.020 .0323780
903.674 .0323655
904.327 .0323517
904.980 .0323371
905.633 .0323224
906.285 .0323077
906.936 .0322926
907.588 .0322770
908.239 .0322609
908.889 .0322440
909.540 .0322262
910.190 .0322077
910.839 .0321888
911.488 .0321703
912.137 .0321524
912.785 .0321355
913.433 .0321201
914.081 .0321063
914.728 .0320935
915.375 .0320811
916.021 .0320685
916.668 .0320552
917.313 .0320413
917.959 .0320266
918.604 .0320116
919.248 .0319967
919.892 .0319822
920.536 .0319687
921.180 .0319561
921.823 .0319449
922.465 .0319344
923.108 .0319238
923.750 .0319132
924.391 .0319019
925.032 .0318901
925.673 .0318773
926.313 .0318642
926.953 .0318507
927.593 .0318366
928.232 .0318219
928.871 .0318068
929.510 .0317910
930.148 .0317743
930.786 .0317561
931.423 .0317368
932.060 .0317167
932.697 .0316961
933.333 .0316750
933.969 .0316540
934.604 .0316332
935.239 .0316124
935.874 .0315913
936.508 .0315708
937.142 .0315511
937.776 .0315318
938.409 .0315132
939.042 .0314948
939.674 .0314767
940.306 .0314587
940.938 .0314407
941.569 .0314229
942.200 .0314057
942.830 .0313885
943.460 .0313712
944.090 .0313539
944.720 .0313369
945.349 .0313199
945.977 .0313028
946.606 .0312858
947.233 .0312685
947.861 .0312504
948.488 .0312314
949.115 .0312117
949.741 .0311919
950.367 .0311715
950.993 .0311507
951.618 .0311302
952.243 .0311103
952.868 .0310903
953.492 .0310709
954.115 .0310516
954.739 .0310328
955.362 .0310137
955.984 .0309943
956.607 .0309747
957.229 .0309553
957.850 .0309363
958.471 .0309179
959.092 .0309006
959.713 .0308849
960.333 .0308698
960.952 .0308562
961.572 .0308436
962.191 .0308320
962.809 .0308213
963.428 .0308111
964.045 .0308004
964.663 .0307896
965.280 .0307779
965.897 .0307657
966.513 .0307528
967.129 .0307400
967.745 .0307268
968.361 .0307138
968.976 .0307013
969.590 .0306888
970.205 .0306763
970.818 .0306642
971.432 .0306514
972.045 .0306377
972.658 .0306222
973.271 .0306053
973.883 .0305870
974.495 .0305675
975.106 .0305467
975.717 .0305257
976.328 .0305047
976.938 .0304843
977.548 .0304643
978.158 .0304449
978.768 .0304263
979.377 .0304076
979.985 .0303887
980.594 .0303691
981.202 .0303494
981.809 .0303293
982.417 .0303094
983.024 .0302905
983.631 .0302722
984.237 .0302551
984.843 .0302397
985.449 .0302251
986.054 .0302117
986.659 .0301991
987.264 .0301873
987.868 .0301759
988.472 .0301650
989.076 .0301540
989.679 .0301437
990.282 .0301343
990.885 .0301260
991.487 .0301187
992.090 .0301134
992.691 .0301104
993.293 .0301092
993.894 .0301101
994.495 .0301117
995.095 .0301134
995.696 .0301145
996.296 .0301143
996.895 .0301126
997.494 .0301095
998.093 .0301059
998.692 .0301021
999.291 .0300986
999.889 .0300954
1000.487 .0300923
1001.084 .0300894
1001.681 .0300854
1002.278 .0300796
1002.875 .0300719
1003.471 .0300630
1004.067 .0300531
1004.663 .0300429
1005.258 .0300330
1005.854 .0300242
1006.449 .0300167
1007.043 .0300099
1007.638 .0300037
1008.232 .0299977
1008.826 .0299913
1009.419 .0299841
1010.012 .0299759
1010.605 .0299671
1011.198 .0299572
1011.791 .0299470
1012.383 .0299363
1012.975 .0299251
1013.566 .0299133
1014.158 .0299013
1014.749 .0298896
1015.340 .0298794
1015.931 .0298706
1016.521 .0298644
1017.111 .0298611
1017.701 .0298607
1018.291 .0298626
1018.880 .0298667
1019.470 .0298724
1020.059 .0298797
1020.647 .0298877
1021.236 .0298966
1021.824 .0299063
1022.412 .0299177
1023.000 .0299299
1023.588 .0299430
1024.175 .0299559
1024.762 .0299687
1025.349 .0299800
1025.936 .0299909
1026.523 .0299996
1027.109 .0300074
1027.695 .0300140
1028.281 .0300200
1028.867 .0300256
1029.452 .0300314
1030.038 .0300370
1030.623 .0300431
1031.208 .0300493
1031.792 .0300557
1032.377 .0300619
1032.961 .0300689
1033.546 .0300762
1034.130 .0300843
1034.714 .0300931
1035.297 .0301024
1035.881 .0301110
1036.464 .0301203
1037.047 .0301287
1037.630 .0301360
1038.213 .0301428
1038.796 .0301493
1039.378 .0301550
1039.961 .0301601
1040.543 .0301650
1041.125 .0301690
1041.707 .0301716
1042.289 .0301726
1042.871 .0301711
1043.452 .0301672
1044.034 .0301616
1044.615 .0301531
1045.196 .0301435
1045.777 .0301344
1046.358 .0301251
1046.939 .0301163
1047.520 .0301098
1048.101 .0301050
1048.681 .0301015
1049.262 .0300993
1049.842 .0300986
1050.422 .0300978
1051.002 .0300984
1051.582 .0300991
1052.162 .0301003
1052.742 .0301032
1053.322 .0301070
1053.902 .0301118
1054.482 .0301193
1055.061 .0301288
1055.641 .0301388
1056.220 .0301496
1056.800 .0301613
1057.379 .0301712
1057.958 .0301796
1058.538 .0301856
1059.117 .0301896
1059.696 .0301917
1060.275 .0301914
1060.854 .0301886
1061.433 .0301850
1062.012 .0301811
1062.592 .0301762
1063.171 .0301713
1063.750 .0301673
1064.329 .0301628
1064.908 .0301584
1065.487 .0301533
1066.066 .0301471
1066.645 .0301401
1067.224 .0301324
1067.803 .0301234
1068.382 .0301137
1068.961 .0301044
1069.540 .0300967
1070.119 .0300922
1070.698 .0300910
1071.278 .0300926
1071.857 .0300965
1072.436 .0301030
1073.016 .0301107
1073.595 .0301177
1074.175 .0301247
1074.754 .0301299
1075.334 .0301336
1075.913 .0301352
1076.493 .0301337
1077.073 .0301295
1077.653 .0301231
1078.233 .0301143
1078.813 .0301017
1079.393 .0300845
1079.974 .0300634
1080.554 .0300389
1081.135 .0300131
1081.716 .0299855
1082.296 .0299568
1082.877 .0299294
1083.458 .0299037
1084.040 .0298782
1084.621 .0298540
1085.202 .0298306
1085.784 .0298090
1086.366 .0297892
1086.948 .0297711
1087.530 .0297551
1088.112 .0297417
1088.695 .0297336
1089.277 .0297296
1089.860 .0297283
1090.443 .0297286
1091.026 .0297275
1091.610 .0297274
1092.193 .0297259
1092.777 .0297229
1093.361 .0297198
1093.946 .0297182
1094.530 .0297190
1095.115 .0297209
1095.700 .0297251
1096.285 .0297309
1096.871 .0297374
1097.456 .0297421
1098.042 .0297425
1098.628 .0297377
1099.215 .0297287
1099.802 .0297183
1100.389 .0297064
1100.976 .0296956
1101.564 .0296859
1102.152 .0296774
1102.740 .0296702
1103.329 .0296626
1103.917 .0296545
1104.507 .0296445
1105.096 .0296343
1105.686 .0296236
1106.276 .0296137
1106.867 .0296076
1107.457 .0296059
1108.049 .0296100
1108.640 .0296182
1109.232 .0296298
1109.825 .0296428
1110.417 .0296564
1111.010 .0296688
1111.604 .0296782
1112.198 .0296865
1112.792 .0296926
1113.387 .0296980
1113.982 .0297015
1114.577 .0297064
1115.173 .0297133
1115.769 .0297212
1116.366 .0297312
1116.963 .0297428
1117.561 .0297573
1118.159 .0297754
1118.758 .0297952
1119.357 .0298152
1119.957 .0298364
1120.557 .0298592
1121.157 .0298818
1121.758 .0299082
1122.360 .0299380
1122.962 .0299718
1123.564 .0300107
1124.167 .0300548
1124.771 .0300984
1125.375 .0301403
1125.980 .0301808
1126.585 .0302128
1127.191 .0302357
1127.797 .0302526
1128.404 .0302622
1129.012 .0302702
1129.620 .0302799
1130.229 .0302921
1130.838 .0303076
1131.448 .0303309
1132.058 .0303578
1132.669 .0303880
1133.281 .0304256
1133.894 .0304678
1134.507 .0305151
1135.120 .0305718
1135.735 .0306349
1136.350 .0307041
1136.965 .0307827
1137.582 .0308685
1138.199 .0309590
1138.816 .0310557
1139.435 .0311566
1140.054 .0312626
1140.674 .0313674
1141.294 .0314687
1141.916 .0315853
1142.538 .0317054
1143.160 .0318872
1143.784 .0318109
1144.408 .0318393
1145.033 .0324830
