Measurement Sequence started on: 14-45-04-498
Integration time: 36
Scans to Average: 2 
>>>>>Begin Spectral Data<<<<<
433.946 .0491012
434.870 .0500226
435.793 .0443939
436.715 .0422839
437.635 .0424223
438.555 .0423903
439.473 .0415432
440.389 .0408181
441.305 .0403487
442.219 .0399935
443.132 .0396991
444.044 .0394799
444.954 .0393553
445.863 .0392876
446.771 .0392664
447.678 .0392600
448.584 .0392651
449.488 .0392709
450.391 .0392729
451.293 .0392740
452.194 .0392735
453.094 .0392681
453.992 .0392596
454.890 .0392503
455.786 .0392417
456.681 .0392287
457.575 .0392093
458.468 .0391885
459.360 .0391675
460.250 .0391393
461.140 .0391031
462.028 .0390612
462.915 .0390140
463.801 .0389599
464.687 .0388969
465.571 .0388301
466.454 .0387627
467.335 .0386978
468.216 .0386368
469.096 .0385816
469.975 .0385326
470.853 .0384849
471.729 .0384380
472.605 .0383914
473.479 .0383401
474.353 .0382839
475.226 .0382215
476.097 .0381525
476.968 .0380756
477.838 .0379921
478.706 .0379036
479.574 .0378160
480.441 .0377315
481.306 .0376521
482.171 .0375773
483.035 .0375118
483.898 .0374555
484.760 .0374053
485.621 .0373624
486.481 .0373259
487.340 .0372936
488.198 .0372669
489.055 .0372430
489.912 .0372257
490.767 .0372143
491.622 .0372104
492.476 .0372116
493.329 .0372172
494.180 .0372245
495.032 .0372322
495.882 .0372367
496.731 .0372380
497.580 .0372315
498.427 .0372177
499.274 .0371956
500.120 .0371661
500.965 .0371300
501.809 .0370885
502.653 .0370433
503.495 .0369975
504.337 .0369470
505.178 .0368948
506.018 .0368423
506.858 .0367885
507.696 .0367367
508.534 .0366870
509.371 .0366364
510.208 .0365889
511.043 .0365474
511.878 .0365102
512.712 .0364780
513.545 .0364517
514.377 .0364348
515.209 .0364270
516.040 .0364320
516.870 .0364422
517.699 .0364608
518.528 .0364900
519.356 .0365225
520.183 .0365554
521.010 .0365946
521.836 .0366306
522.661 .0366652
523.485 .0366946
524.309 .0367143
525.132 .0367207
525.954 .0367195
526.776 .0366999
527.597 .0366666
528.417 .0366163
529.237 .0365472
530.056 .0364585
530.874 .0363597
531.692 .0362475
532.508 .0361208
533.325 .0359935
534.140 .0358624
534.955 .0357291
535.770 .0356026
536.583 .0354757
537.397 .0353564
538.209 .0352509
539.021 .0351521
539.832 .0350560
540.643 .0349677
541.453 .0348873
542.262 .0348077
543.071 .0347358
543.879 .0346645
544.687 .0345956
545.494 .0345326
546.300 .0344774
547.106 .0344256
547.911 .0343881
548.716 .0343659
549.520 .0343505
550.323 .0343430
551.126 .0343402
551.929 .0343357
552.731 .0343299
553.532 .0343210
554.332 .0343077
555.133 .0342911
555.932 .0342742
556.731 .0342529
557.530 .0342334
558.328 .0342177
559.125 .0341996
559.922 .0341783
560.719 .0341515
561.515 .0341150
562.310 .0340670
563.105 .0340121
563.899 .0339497
564.693 .0338840
565.487 .0338176
566.280 .0337495
567.072 .0336841
567.864 .0336222
568.655 .0335633
569.446 .0335078
570.236 .0334525
571.026 .0333977
571.816 .0333405
572.605 .0332857
573.393 .0332331
574.181 .0331840
574.969 .0331403
575.756 .0331001
576.543 .0330655
577.329 .0330343
578.115 .0330049
578.900 .0329769
579.685 .0329486
580.469 .0329198
581.253 .0328898
582.036 .0328597
582.820 .0328304
583.602 .0328041
584.384 .0327806
585.166 .0327584
585.947 .0327368
586.728 .0327149
587.509 .0326921
588.289 .0326667
589.069 .0326407
589.848 .0326133
590.627 .0325865
591.405 .0325599
592.183 .0325336
592.961 .0325102
593.738 .0324895
594.515 .0324704
595.291 .0324533
596.067 .0324380
596.843 .0324240
597.618 .0324098
598.393 .0323956
599.167 .0323821
599.941 .0323686
600.715 .0323546
601.488 .0323400
602.261 .0323245
603.034 .0323086
603.806 .0322920
604.578 .0322745
605.349 .0322566
606.121 .0322378
606.891 .0322174
607.662 .0321946
608.432 .0321702
609.201 .0321439
609.971 .0321149
610.740 .0320844
611.508 .0320525
612.277 .0320189
613.045 .0319857
613.812 .0319531
614.579 .0319216
615.346 .0318921
616.113 .0318638
616.879 .0318365
617.645 .0318100
618.411 .0317837
619.176 .0317559
619.941 .0317268
620.705 .0316971
621.470 .0316658
622.233 .0316328
622.997 .0316001
623.760 .0315671
624.523 .0315354
625.286 .0315048
626.048 .0314748
626.810 .0314451
627.572 .0314153
628.333 .0313848
629.095 .0313533
629.855 .0313206
630.616 .0312883
631.376 .0312561
632.136 .0312262
632.895 .0311984
633.655 .0311739
634.414 .0311527
635.172 .0311350
635.931 .0311194
636.689 .0311054
637.447 .0310921
638.204 .0310796
638.962 .0310670
639.718 .0310550
640.475 .0310436
641.231 .0310323
641.988 .0310218
642.743 .0310124
643.499 .0310029
644.254 .0309935
645.009 .0309836
645.764 .0309737
646.518 .0309636
647.272 .0309535
648.026 .0309431
648.780 .0309328
649.533 .0309234
650.286 .0309137
651.039 .0309036
651.792 .0308930
652.544 .0308818
653.296 .0308698
654.048 .0308573
654.799 .0308441
655.550 .0308303
656.301 .0308164
657.052 .0308022
657.802 .0307876
658.552 .0307718
659.302 .0307542
660.052 .0307349
660.801 .0307141
661.550 .0306916
662.299 .0306677
663.048 .0306439
663.796 .0306205
664.544 .0305975
665.292 .0305748
666.040 .0305524
666.787 .0305299
667.534 .0305070
668.281 .0304831
669.028 .0304581
669.774 .0304331
670.521 .0304083
671.266 .0303842
672.012 .0303615
672.758 .0303406
673.503 .0303208
674.248 .0303021
674.992 .0302838
675.737 .0302653
676.481 .0302463
677.225 .0302270
677.969 .0302074
678.712 .0301883
679.455 .0301701
680.199 .0301532
680.941 .0301377
681.684 .0301235
682.426 .0301100
683.168 .0300969
683.910 .0300840
684.652 .0300707
685.393 .0300565
686.134 .0300419
686.875 .0300270
687.616 .0300119
688.356 .0299969
689.097 .0299818
689.837 .0299669
690.576 .0299525
691.316 .0299384
692.055 .0299250
692.794 .0299128
693.533 .0299018
694.272 .0298916
695.010 .0298824
695.748 .0298737
696.486 .0298653
697.224 .0298566
697.962 .0298480
698.699 .0298388
699.436 .0298295
700.173 .0298202
700.909 .0298115
701.646 .0298044
702.382 .0297987
703.118 .0297938
703.853 .0297899
704.589 .0297862
705.324 .0297823
706.059 .0297780
706.794 .0297737
707.529 .0297693
708.263 .0297649
708.997 .0297612
709.731 .0297580
710.465 .0297556
711.198 .0297543
711.931 .0297530
712.664 .0297518
713.397 .0297502
714.130 .0297467
714.862 .0297420
715.594 .0297370
716.326 .0297314
717.058 .0297255
717.789 .0297196
718.520 .0297134
719.251 .0297069
719.982 .0297000
720.713 .0296923
721.443 .0296835
722.173 .0296741
722.903 .0296634
723.633 .0296515
724.362 .0296393
725.091 .0296266
725.820 .0296132
726.549 .0296001
727.278 .0295864
728.006 .0295715
728.734 .0295555
729.462 .0295383
730.190 .0295204
730.917 .0295018
731.644 .0294829
732.371 .0294643
733.098 .0294467
733.825 .0294305
734.551 .0294156
735.277 .0294023
736.003 .0293906
736.728 .0293797
737.454 .0293695
738.179 .0293594
738.904 .0293491
739.629 .0293384
740.353 .0293276
741.077 .0293167
741.801 .0293053
742.525 .0292936
743.249 .0292820
743.972 .0292698
744.695 .0292570
745.418 .0292431
746.141 .0292286
746.863 .0292138
747.585 .0291987
748.307 .0291830
749.029 .0291676
749.750 .0291523
750.472 .0291373
751.193 .0291223
751.913 .0291078
752.634 .0290935
753.354 .0290794
754.074 .0290662
754.794 .0290539
755.514 .0290425
756.233 .0290327
756.952 .0290238
757.671 .0290164
758.390 .0290092
759.108 .0290020
759.826 .0289948
760.544 .0289876
761.262 .0289808
761.979 .0289745
762.697 .0289693
763.414 .0289655
764.130 .0289634
764.847 .0289628
765.563 .0289634
766.279 .0289647
766.995 .0289663
767.710 .0289673
768.426 .0289676
769.141 .0289673
769.855 .0289666
770.570 .0289657
771.284 .0289650
771.998 .0289642
772.712 .0289638
773.426 .0289632
774.139 .0289628
774.852 .0289619
775.565 .0289605
776.277 .0289586
776.990 .0289566
777.702 .0289541
778.414 .0289518
779.125 .0289497
779.836 .0289474
780.547 .0289454
781.258 .0289433
781.969 .0289410
782.679 .0289397
783.389 .0289391
784.099 .0289392
784.808 .0289399
785.517 .0289415
786.226 .0289432
786.935 .0289450
787.643 .0289467
788.352 .0289476
789.060 .0289473
789.767 .0289461
790.475 .0289434
791.182 .0289398
791.889 .0289361
792.595 .0289323
793.301 .0289283
794.008 .0289239
794.713 .0289187
795.419 .0289125
796.124 .0289052
796.829 .0288968
797.534 .0288869
798.238 .0288759
798.942 .0288648
799.646 .0288537
800.350 .0288433
801.053 .0288337
801.756 .0288253
802.459 .0288175
803.162 .0288102
803.864 .0288031
804.566 .0287955
805.267 .0287875
805.969 .0287789
806.670 .0287693
807.371 .0287589
808.071 .0287486
808.772 .0287379
809.472 .0287266
810.171 .0287151
810.871 .0287030
811.570 .0286900
812.269 .0286761
812.967 .0286609
813.666 .0286443
814.364 .0286267
815.061 .0286081
815.759 .0285883
816.456 .0285682
817.153 .0285479
817.849 .0285274
818.545 .0285070
819.241 .0284866
819.937 .0284659
820.632 .0284453
821.327 .0284246
822.022 .0284037
822.717 .0283827
823.411 .0283618
824.105 .0283407
824.798 .0283199
825.491 .0282993
826.184 .0282790
826.877 .0282594
827.569 .0282405
828.261 .0282215
828.953 .0282029
829.645 .0281844
830.336 .0281656
831.027 .0281470
831.717 .0281291
832.407 .0281114
833.097 .0280947
833.787 .0280791
834.476 .0280645
835.165 .0280510
835.854 .0280388
836.542 .0280273
837.230 .0280169
837.918 .0280070
838.605 .0279978
839.292 .0279892
839.979 .0279822
840.665 .0279764
841.352 .0279721
842.037 .0279691
842.723 .0279666
843.408 .0279640
844.093 .0279612
844.777 .0279579
845.462 .0279540
846.145 .0279495
846.829 .0279450
847.512 .0279406
848.195 .0279373
848.878 .0279345
849.560 .0279323
850.242 .0279303
850.923 .0279277
851.605 .0279239
852.286 .0279185
852.966 .0279117
853.646 .0279040
854.326 .0278964
855.006 .0278896
855.685 .0278835
856.364 .0278787
857.043 .0278753
857.721 .0278727
858.399 .0278702
859.077 .0278672
859.754 .0278633
860.431 .0278588
861.107 .0278536
861.784 .0278482
862.459 .0278436
863.135 .0278405
863.810 .0278393
864.485 .0278394
865.160 .0278411
865.834 .0278432
866.508 .0278451
867.181 .0278467
867.854 .0278474
868.527 .0278468
869.199 .0278451
869.872 .0278423
870.543 .0278393
871.215 .0278356
871.886 .0278315
872.557 .0278269
873.227 .0278219
873.897 .0278159
874.567 .0278083
875.236 .0277994
875.905 .0277895
876.573 .0277785
877.242 .0277670
877.909 .0277553
878.577 .0277442
879.244 .0277337
879.911 .0277240
880.577 .0277153
881.243 .0277076
881.909 .0277002
882.575 .0276933
883.240 .0276868
883.904 .0276806
884.569 .0276741
885.232 .0276672
885.896 .0276598
886.559 .0276520
887.222 .0276438
887.885 .0276350
888.547 .0276258
889.208 .0276163
889.870 .0276059
890.531 .0275952
891.192 .0275839
891.852 .0275721
892.512 .0275597
893.171 .0275469
893.830 .0275335
894.489 .0275196
895.148 .0275054
895.806 .0274916
896.464 .0274787
897.121 .0274668
897.778 .0274554
898.434 .0274450
899.091 .0274352
899.747 .0274257
900.402 .0274159
901.057 .0274057
901.712 .0273947
902.366 .0273830
903.020 .0273704
903.674 .0273573
904.327 .0273443
904.980 .0273316
905.633 .0273191
906.285 .0273066
906.936 .0272939
907.588 .0272804
908.239 .0272664
908.889 .0272517
909.540 .0272364
910.190 .0272205
910.839 .0272043
911.488 .0271880
912.137 .0271720
912.785 .0271555
913.433 .0271390
914.081 .0271219
914.728 .0271041
915.375 .0270850
916.021 .0270650
916.668 .0270440
917.313 .0270228
917.959 .0270017
918.604 .0269808
919.248 .0269603
919.892 .0269405
920.536 .0269203
921.180 .0269004
921.823 .0268801
922.465 .0268594
923.108 .0268382
923.750 .0268172
924.391 .0267959
925.032 .0267751
925.673 .0267547
926.313 .0267343
926.953 .0267138
927.593 .0266931
928.232 .0266712
928.871 .0266481
929.510 .0266244
930.148 .0265997
930.786 .0265741
931.423 .0265485
932.060 .0265231
932.697 .0264982
933.333 .0264743
933.969 .0264512
934.604 .0264290
935.239 .0264079
935.874 .0263873
936.508 .0263670
937.142 .0263479
937.776 .0263294
938.409 .0263114
939.042 .0262942
939.674 .0262779
940.306 .0262622
940.938 .0262473
941.569 .0262331
942.200 .0262197
942.830 .0262067
943.460 .0261937
944.090 .0261803
944.720 .0261668
945.349 .0261524
945.977 .0261374
946.606 .0261220
947.233 .0261065
947.861 .0260907
948.488 .0260757
949.115 .0260614
949.741 .0260483
950.367 .0260363
950.993 .0260253
951.618 .0260152
952.243 .0260063
952.868 .0259981
953.492 .0259904
954.115 .0259839
954.739 .0259782
955.362 .0259733
955.984 .0259693
956.607 .0259658
957.229 .0259632
957.850 .0259612
958.471 .0259593
959.092 .0259573
959.713 .0259554
960.333 .0259531
960.952 .0259507
961.572 .0259487
962.191 .0259465
962.809 .0259448
963.428 .0259437
964.045 .0259429
964.663 .0259426
965.280 .0259425
965.897 .0259422
966.513 .0259421
967.129 .0259419
967.745 .0259409
968.361 .0259393
968.976 .0259378
969.590 .0259361
970.205 .0259342
970.818 .0259328
971.432 .0259315
972.045 .0259307
972.658 .0259309
973.271 .0259310
973.883 .0259307
974.495 .0259302
975.106 .0259287
975.717 .0259265
976.328 .0259237
976.938 .0259208
977.548 .0259184
978.158 .0259176
978.768 .0259182
979.377 .0259196
979.985 .0259219
980.594 .0259249
981.202 .0259275
981.809 .0259292
982.417 .0259296
983.024 .0259288
983.631 .0259268
984.237 .0259241
984.843 .0259209
985.449 .0259174
986.054 .0259138
986.659 .0259111
987.264 .0259084
987.868 .0259061
988.472 .0259048
989.076 .0259043
989.679 .0259046
990.282 .0259060
990.885 .0259078
991.487 .0259100
992.090 .0259125
992.691 .0259152
993.293 .0259172
993.894 .0259192
994.495 .0259212
995.095 .0259225
995.696 .0259231
996.296 .0259229
996.895 .0259213
997.494 .0259185
998.093 .0259145
998.692 .0259091
999.291 .0259027
999.889 .0258957
1000.487 .0258878
1001.084 .0258797
1001.681 .0258715
1002.278 .0258634
1002.875 .0258550
1003.471 .0258466
1004.067 .0258382
1004.663 .0258306
1005.258 .0258235
1005.854 .0258170
1006.449 .0258115
1007.043 .0258065
1007.638 .0258014
1008.232 .0257965
1008.826 .0257913
1009.419 .0257852
1010.012 .0257789
1010.605 .0257723
1011.198 .0257652
1011.791 .0257584
1012.383 .0257521
1012.975 .0257463
1013.566 .0257414
1014.158 .0257366
1014.749 .0257312
1015.340 .0257264
1015.931 .0257222
1016.521 .0257179
1017.111 .0257139
1017.701 .0257102
1018.291 .0257071
1018.880 .0257038
1019.470 .0256997
1020.059 .0256947
1020.647 .0256883
1021.236 .0256807
1021.824 .0256713
1022.412 .0256604
1023.000 .0256493
1023.588 .0256384
1024.175 .0256286
1024.762 .0256197
1025.349 .0256119
1025.936 .0256051
1026.523 .0255988
1027.109 .0255929
1027.695 .0255869
1028.281 .0255802
1028.867 .0255740
1029.452 .0255684
1030.038 .0255637
1030.623 .0255603
1031.208 .0255588
1031.792 .0255591
1032.377 .0255603
1032.961 .0255612
1033.546 .0255608
1034.130 .0255582
1034.714 .0255530
1035.297 .0255448
1035.881 .0255336
1036.464 .0255202
1037.047 .0255056
1037.630 .0254895
1038.213 .0254737
1038.796 .0254581
1039.378 .0254429
1039.961 .0254285
1040.543 .0254144
1041.125 .0253997
1041.707 .0253843
1042.289 .0253681
1042.871 .0253507
1043.452 .0253326
1044.034 .0253149
1044.615 .0252972
1045.196 .0252802
1045.777 .0252655
1046.358 .0252535
1046.939 .0252445
1047.520 .0252386
1048.101 .0252350
1048.681 .0252336
1049.262 .0252336
1049.842 .0252331
1050.422 .0252318
1051.002 .0252299
1051.582 .0252278
1052.162 .0252251
1052.742 .0252236
1053.322 .0252235
1053.902 .0252247
1054.482 .0252274
1055.061 .0252308
1055.641 .0252336
1056.220 .0252346
1056.800 .0252330
1057.379 .0252286
1057.958 .0252213
1058.538 .0252115
1059.117 .0251997
1059.696 .0251882
1060.275 .0251775
1060.854 .0251675
1061.433 .0251574
1062.012 .0251476
1062.592 .0251380
1063.171 .0251276
1063.750 .0251167
1064.329 .0251050
1064.908 .0250930
1065.487 .0250815
1066.066 .0250712
1066.645 .0250623
1067.224 .0250552
1067.803 .0250500
1068.382 .0250457
1068.961 .0250424
1069.540 .0250393
1070.119 .0250371
1070.698 .0250361
1071.278 .0250373
1071.857 .0250408
1072.436 .0250457
1073.016 .0250532
1073.595 .0250623
1074.175 .0250738
1074.754 .0250864
1075.334 .0250982
1075.913 .0251096
1076.493 .0251195
1077.073 .0251283
1077.653 .0251345
1078.233 .0251392
1078.813 .0251443
1079.393 .0251490
1079.974 .0251538
1080.554 .0251590
1081.135 .0251639
1081.716 .0251683
1082.296 .0251711
1082.877 .0251713
1083.458 .0251685
1084.040 .0251640
1084.621 .0251579
1085.202 .0251517
1085.784 .0251470
1086.366 .0251430
1086.948 .0251395
1087.530 .0251385
1088.112 .0251380
1088.695 .0251371
1089.277 .0251372
1089.860 .0251377
1090.443 .0251374
1091.026 .0251370
1091.610 .0251363
1092.193 .0251355
1092.777 .0251369
1093.361 .0251396
1093.946 .0251412
1094.530 .0251446
1095.115 .0251475
1095.700 .0251489
1096.285 .0251511
1096.871 .0251527
1097.456 .0251534
1098.042 .0251544
1098.628 .0251559
1099.215 .0251562
1099.802 .0251562
1100.389 .0251569
1100.976 .0251558
1101.564 .0251548
1102.152 .0251528
1102.740 .0251485
1103.329 .0251443
1103.917 .0251408
1104.507 .0251369
1105.096 .0251343
1105.686 .0251349
1106.276 .0251383
1106.867 .0251466
1107.457 .0251600
1108.049 .0251758
1108.640 .0251951
1109.232 .0252156
1109.825 .0252346
1110.417 .0252500
1111.010 .0252649
1111.604 .0252773
1112.198 .0252906
1112.792 .0253059
1113.387 .0253241
1113.982 .0253465
1114.577 .0253731
1115.173 .0254015
1115.769 .0254295
1116.366 .0254560
1116.963 .0254803
1117.561 .0255005
1118.159 .0255197
1118.758 .0255359
1119.357 .0255525
1119.957 .0255704
1120.557 .0255911
1121.157 .0256131
1121.758 .0256367
1122.360 .0256629
1122.962 .0256893
1123.564 .0257129
1124.167 .0257355
1124.771 .0257557
1125.375 .0257754
1125.980 .0257933
1126.585 .0258105
1127.191 .0258248
1127.797 .0258426
1128.404 .0258639
1129.012 .0258870
1129.620 .0259160
1130.229 .0259505
1130.838 .0259897
1131.448 .0260354
1132.058 .0260855
1132.669 .0261368
1133.281 .0261876
1133.894 .0262409
1134.507 .0262893
1135.120 .0263377
1135.735 .0263876
1136.350 .0264366
1136.965 .0264879
1137.582 .0265426
1138.199 .0265929
1138.816 .0266436
1139.435 .0266930
1140.054 .0267349
1140.674 .0267730
1141.294 .0268048
1141.916 .0268111
1142.538 .0268739
1143.160 .0268031
1143.784 .0269621
1144.408 .0268978
1145.033 .0264038
