Measurement Sequence started on: 14-45-04-498
Integration time: 36
Scans to Average: 2 
>>>>>Begin Spectral Data<<<<<
433.946 .0608405
434.870 .0635401
435.793 .0538656
436.715 .0513925
437.635 .0507227
438.555 .0521052
439.473 .0512515
440.389 .0505903
441.305 .0503379
442.219 .0501820
443.132 .0500647
444.044 .0499558
444.954 .0498832
445.863 .0498468
446.771 .0498098
447.678 .0497677
448.584 .0497322
449.488 .0496753
450.391 .0495852
451.293 .0494771
452.194 .0493521
453.094 .0492157
453.992 .0490908
454.890 .0489596
455.786 .0488383
456.681 .0487145
457.575 .0485957
458.468 .0484705
459.360 .0483578
460.250 .0482379
461.140 .0481215
462.028 .0480190
462.915 .0479285
463.801 .0478403
464.687 .0477634
465.571 .0476930
466.454 .0476285
467.335 .0475688
468.216 .0475114
469.096 .0474449
469.975 .0473863
470.853 .0473203
471.729 .0472519
472.605 .0471775
473.479 .0471036
474.353 .0470220
475.226 .0469360
476.097 .0468482
476.968 .0467571
477.838 .0466610
478.706 .0465700
479.574 .0464829
480.441 .0464092
481.306 .0463442
482.171 .0462843
483.035 .0462313
483.898 .0461876
484.760 .0461460
485.621 .0461094
486.481 .0460740
487.340 .0460422
488.198 .0460127
489.055 .0459819
489.912 .0459544
490.767 .0459289
491.622 .0459076
492.476 .0458865
493.329 .0458644
494.180 .0458444
495.032 .0458210
495.882 .0458003
496.731 .0457851
497.580 .0457694
498.427 .0457558
499.274 .0457392
500.120 .0457178
500.965 .0456928
501.809 .0456624
502.653 .0456196
503.495 .0455697
504.337 .0455092
505.178 .0454384
506.018 .0453611
506.858 .0452834
507.696 .0452062
508.534 .0451237
509.371 .0450416
510.208 .0449526
511.043 .0448617
511.878 .0447712
512.712 .0446776
513.545 .0445952
514.377 .0445249
515.209 .0444692
516.040 .0444331
516.870 .0444220
517.699 .0444360
518.528 .0444719
519.356 .0445255
520.183 .0445798
521.010 .0446419
521.836 .0447048
522.661 .0447584
523.485 .0448023
524.309 .0448309
525.132 .0448385
525.954 .0448230
526.776 .0447886
527.597 .0447289
528.417 .0446509
529.237 .0445606
530.056 .0444562
530.874 .0443523
531.692 .0442525
532.508 .0441580
533.325 .0440714
534.140 .0439981
534.955 .0439221
535.770 .0438418
536.583 .0437655
537.397 .0436936
538.209 .0436340
539.021 .0435796
539.832 .0435262
540.643 .0434834
541.453 .0434424
542.262 .0433951
543.071 .0433333
543.879 .0432653
544.687 .0431778
545.494 .0430827
546.300 .0429833
547.106 .0428870
547.911 .0428026
548.716 .0427293
549.520 .0426566
550.323 .0425956
551.126 .0425397
551.929 .0424838
552.731 .0424327
553.532 .0423991
554.332 .0423653
555.133 .0423438
555.932 .0423300
556.731 .0423242
557.530 .0423261
558.328 .0423357
559.125 .0423399
559.922 .0423451
560.719 .0423519
561.515 .0423519
562.310 .0423510
563.105 .0423550
563.899 .0423577
564.693 .0423526
565.487 .0423418
566.280 .0423238
567.072 .0422918
567.864 .0422508
568.655 .0421991
569.446 .0421421
570.236 .0420830
571.026 .0420207
571.816 .0419601
572.605 .0419036
573.393 .0418531
574.181 .0418029
574.969 .0417510
575.756 .0416979
576.543 .0416437
577.329 .0415893
578.115 .0415381
578.900 .0414936
579.685 .0414554
580.469 .0414274
581.253 .0414082
582.036 .0413945
582.820 .0413832
583.602 .0413749
584.384 .0413647
585.166 .0413510
585.947 .0413338
586.728 .0413114
587.509 .0412874
588.289 .0412644
589.069 .0412437
589.848 .0412238
590.627 .0412041
591.405 .0411837
592.183 .0411622
592.961 .0411401
593.738 .0411145
594.515 .0410869
595.291 .0410580
596.067 .0410267
596.843 .0409927
597.618 .0409572
598.393 .0409221
599.167 .0408886
599.941 .0408571
600.715 .0408254
601.488 .0407951
602.261 .0407654
603.034 .0407368
603.806 .0407084
604.578 .0406812
605.349 .0406530
606.121 .0406243
606.891 .0405962
607.662 .0405677
608.432 .0405403
609.201 .0405172
609.971 .0404967
610.740 .0404801
611.508 .0404664
612.277 .0404549
613.045 .0404444
613.812 .0404369
614.579 .0404282
615.346 .0404189
616.113 .0404090
616.879 .0403985
617.645 .0403875
618.411 .0403778
619.176 .0403690
619.941 .0403611
620.705 .0403548
621.470 .0403476
622.233 .0403373
622.997 .0403262
623.760 .0403125
624.523 .0402962
625.286 .0402774
626.048 .0402578
626.810 .0402353
627.572 .0402119
628.333 .0401877
629.095 .0401622
629.855 .0401360
630.616 .0401085
631.376 .0400809
632.136 .0400539
632.895 .0400279
633.655 .0400032
634.414 .0399804
635.172 .0399599
635.931 .0399389
636.689 .0399169
637.447 .0398938
638.204 .0398699
638.962 .0398448
639.718 .0398198
640.475 .0397963
641.231 .0397749
641.988 .0397549
642.743 .0397363
643.499 .0397195
644.254 .0397023
645.009 .0396830
645.764 .0396610
646.518 .0396363
647.272 .0396095
648.026 .0395813
648.780 .0395532
649.533 .0395259
650.286 .0395006
651.039 .0394757
651.792 .0394505
652.544 .0394258
653.296 .0393999
654.048 .0393722
654.799 .0393434
655.550 .0393141
656.301 .0392840
657.052 .0392543
657.802 .0392257
658.552 .0391976
659.302 .0391705
660.052 .0391435
660.801 .0391156
661.550 .0390877
662.299 .0390601
663.048 .0390325
663.796 .0390065
664.544 .0389824
665.292 .0389598
666.040 .0389390
666.787 .0389201
667.534 .0389028
668.281 .0388868
669.028 .0388724
669.774 .0388584
670.521 .0388450
671.266 .0388326
672.012 .0388212
672.758 .0388119
673.503 .0388041
674.248 .0387978
674.992 .0387928
675.737 .0387877
676.481 .0387826
677.225 .0387767
677.969 .0387696
678.712 .0387611
679.455 .0387511
680.199 .0387400
680.941 .0387283
681.684 .0387160
682.426 .0387031
683.168 .0386899
683.910 .0386767
684.652 .0386626
685.393 .0386476
686.134 .0386326
686.875 .0386175
687.616 .0386019
688.356 .0385864
689.097 .0385700
689.837 .0385525
690.576 .0385338
691.316 .0385136
692.055 .0384922
692.794 .0384698
693.533 .0384472
694.272 .0384242
695.010 .0384022
695.748 .0383814
696.486 .0383612
697.224 .0383420
697.962 .0383225
698.699 .0383025
699.436 .0382812
700.173 .0382587
700.909 .0382353
701.646 .0382112
702.382 .0381872
703.118 .0381631
703.853 .0381395
704.589 .0381168
705.324 .0380947
706.059 .0380733
706.794 .0380521
707.529 .0380314
708.263 .0380107
708.997 .0379900
709.731 .0379692
710.465 .0379490
711.198 .0379286
711.931 .0379086
712.664 .0378888
713.397 .0378692
714.130 .0378501
714.862 .0378318
715.594 .0378147
716.326 .0377990
717.058 .0377846
717.789 .0377714
718.520 .0377585
719.251 .0377466
719.982 .0377342
720.713 .0377216
721.443 .0377088
722.173 .0376956
722.903 .0376814
723.633 .0376671
724.362 .0376528
725.091 .0376382
725.820 .0376237
726.549 .0376099
727.278 .0375960
728.006 .0375823
728.734 .0375683
729.462 .0375538
730.190 .0375390
730.917 .0375237
731.644 .0375071
732.371 .0374900
733.098 .0374727
733.825 .0374555
734.551 .0374386
735.277 .0374232
736.003 .0374088
736.728 .0373953
737.454 .0373828
738.179 .0373709
738.904 .0373591
739.629 .0373476
740.353 .0373355
741.077 .0373237
741.801 .0373117
742.525 .0372992
743.249 .0372867
743.972 .0372746
744.695 .0372630
745.418 .0372510
746.141 .0372383
746.863 .0372253
747.585 .0372113
748.307 .0371965
749.029 .0371806
749.750 .0371637
750.472 .0371468
751.193 .0371291
751.913 .0371110
752.634 .0370930
753.354 .0370751
754.074 .0370575
754.794 .0370402
755.514 .0370225
756.233 .0370044
756.952 .0369854
757.671 .0369662
758.390 .0369470
759.108 .0369280
759.826 .0369095
760.544 .0368917
761.262 .0368750
761.979 .0368593
762.697 .0368437
763.414 .0368285
764.130 .0368124
764.847 .0367957
765.563 .0367779
766.279 .0367591
766.995 .0367400
767.710 .0367211
768.426 .0367031
769.141 .0366861
769.855 .0366699
770.570 .0366546
771.284 .0366397
771.998 .0366254
772.712 .0366109
773.426 .0365964
774.139 .0365822
774.852 .0365681
775.565 .0365544
776.277 .0365412
776.990 .0365284
777.702 .0365157
778.414 .0365037
779.125 .0364919
779.836 .0364800
780.547 .0364686
781.258 .0364574
781.969 .0364461
782.679 .0364351
783.389 .0364236
784.099 .0364112
784.808 .0363980
785.517 .0363840
786.226 .0363688
786.935 .0363536
787.643 .0363392
788.352 .0363260
789.060 .0363141
789.767 .0363042
790.475 .0362952
791.182 .0362871
791.889 .0362795
792.595 .0362719
793.301 .0362643
794.008 .0362565
794.713 .0362487
795.419 .0362410
796.124 .0362335
796.829 .0362263
797.534 .0362189
798.238 .0362112
798.942 .0362031
799.646 .0361941
800.350 .0361847
801.053 .0361750
801.756 .0361655
802.459 .0361553
803.162 .0361454
803.864 .0361354
804.566 .0361244
805.267 .0361120
805.969 .0360990
806.670 .0360851
807.371 .0360709
808.071 .0360572
808.772 .0360444
809.472 .0360324
810.171 .0360219
810.871 .0360117
811.570 .0360019
812.269 .0359918
812.967 .0359809
813.666 .0359682
814.364 .0359547
815.061 .0359399
815.759 .0359242
816.456 .0359081
817.153 .0358920
817.849 .0358753
818.545 .0358575
819.241 .0358388
819.937 .0358194
820.632 .0357995
821.327 .0357792
822.022 .0357586
822.717 .0357388
823.411 .0357195
824.105 .0357015
824.798 .0356845
825.491 .0356688
826.184 .0356531
826.877 .0356373
827.569 .0356209
828.261 .0356041
828.953 .0355862
829.645 .0355676
830.336 .0355487
831.027 .0355295
831.717 .0355096
832.407 .0354888
833.097 .0354671
833.787 .0354450
834.476 .0354212
835.165 .0353959
835.854 .0353688
836.542 .0353413
837.230 .0353130
837.918 .0352847
838.605 .0352573
839.292 .0352313
839.979 .0352070
840.665 .0351848
841.352 .0351644
842.037 .0351458
842.723 .0351290
843.408 .0351139
844.093 .0351004
844.777 .0350887
845.462 .0350774
846.145 .0350672
846.829 .0350577
847.512 .0350484
848.195 .0350386
848.878 .0350287
849.560 .0350185
850.242 .0350077
850.923 .0349958
851.605 .0349825
852.286 .0349677
852.966 .0349517
853.646 .0349343
854.326 .0349160
855.006 .0348971
855.685 .0348770
856.364 .0348562
857.043 .0348355
857.721 .0348142
858.399 .0347923
859.077 .0347696
859.754 .0347460
860.431 .0347214
861.107 .0346969
861.784 .0346727
862.459 .0346492
863.135 .0346278
863.810 .0346082
864.485 .0345903
865.160 .0345741
865.834 .0345597
866.508 .0345471
867.181 .0345358
867.854 .0345255
868.527 .0345162
869.199 .0345081
869.872 .0345015
870.543 .0344971
871.215 .0344943
871.886 .0344939
872.557 .0344948
873.227 .0344966
873.897 .0344986
874.567 .0345005
875.236 .0345024
875.905 .0345032
876.573 .0345037
877.242 .0345025
877.909 .0344993
878.577 .0344956
879.244 .0344906
879.911 .0344848
880.577 .0344779
881.243 .0344700
881.909 .0344607
882.575 .0344503
883.240 .0344387
883.904 .0344260
884.569 .0344126
885.232 .0343988
885.896 .0343843
886.559 .0343697
887.222 .0343565
887.885 .0343447
888.547 .0343344
889.208 .0343258
889.870 .0343178
890.531 .0343110
891.192 .0343044
891.852 .0342986
892.512 .0342933
893.171 .0342887
893.830 .0342846
894.489 .0342802
895.148 .0342757
895.806 .0342712
896.464 .0342669
897.121 .0342619
897.778 .0342566
898.434 .0342499
899.091 .0342416
899.747 .0342317
900.402 .0342202
901.057 .0342071
901.712 .0341921
902.366 .0341750
903.020 .0341564
903.674 .0341364
904.327 .0341164
904.980 .0340961
905.633 .0340772
906.285 .0340598
906.936 .0340436
907.588 .0340283
908.239 .0340136
908.889 .0339990
909.540 .0339837
910.190 .0339667
910.839 .0339480
911.488 .0339280
912.137 .0339065
912.785 .0338840
913.433 .0338613
914.081 .0338384
914.728 .0338157
915.375 .0337920
916.021 .0337674
916.668 .0337412
917.313 .0337128
917.959 .0336827
918.604 .0336506
919.248 .0336177
919.892 .0335840
920.536 .0335505
921.180 .0335183
921.823 .0334871
922.465 .0334572
923.108 .0334285
923.750 .0334006
924.391 .0333730
925.032 .0333455
925.673 .0333181
926.313 .0332906
926.953 .0332635
927.593 .0332363
928.232 .0332091
928.871 .0331816
929.510 .0331539
930.148 .0331255
930.786 .0330971
931.423 .0330682
932.060 .0330390
932.697 .0330094
933.333 .0329800
933.969 .0329501
934.604 .0329204
935.239 .0328904
935.874 .0328606
936.508 .0328306
937.142 .0328009
937.776 .0327722
938.409 .0327447
939.042 .0327182
939.674 .0326927
940.306 .0326682
940.938 .0326442
941.569 .0326208
942.200 .0325979
942.830 .0325754
943.460 .0325533
944.090 .0325318
944.720 .0325109
945.349 .0324910
945.977 .0324726
946.606 .0324557
947.233 .0324397
947.861 .0324251
948.488 .0324110
949.115 .0323974
949.741 .0323844
950.367 .0323719
950.993 .0323589
951.618 .0323461
952.243 .0323329
952.868 .0323198
953.492 .0323065
954.115 .0322940
954.739 .0322814
955.362 .0322694
955.984 .0322573
956.607 .0322445
957.229 .0322314
957.850 .0322180
958.471 .0322036
959.092 .0321883
959.713 .0321724
960.333 .0321562
960.952 .0321405
961.572 .0321269
962.191 .0321149
962.809 .0321056
963.428 .0320989
964.045 .0320950
964.663 .0320930
965.280 .0320929
965.897 .0320936
966.513 .0320950
967.129 .0320967
967.745 .0320978
968.361 .0320985
968.976 .0320990
969.590 .0320991
970.205 .0320992
970.818 .0320991
971.432 .0320991
972.045 .0320979
972.658 .0320965
973.271 .0320935
973.883 .0320891
974.495 .0320829
975.106 .0320749
975.717 .0320663
976.328 .0320575
976.938 .0320494
977.548 .0320431
978.158 .0320396
978.768 .0320391
979.377 .0320402
979.985 .0320435
980.594 .0320469
981.202 .0320502
981.809 .0320530
982.417 .0320553
983.024 .0320573
983.631 .0320595
984.237 .0320619
984.843 .0320635
985.449 .0320649
986.054 .0320650
986.659 .0320641
987.264 .0320621
987.868 .0320588
988.472 .0320551
989.076 .0320509
989.679 .0320474
990.282 .0320440
990.885 .0320410
991.487 .0320385
992.090 .0320350
992.691 .0320309
993.293 .0320259
993.894 .0320210
994.495 .0320156
995.095 .0320111
995.696 .0320080
996.296 .0320063
996.895 .0320055
997.494 .0320051
998.093 .0320043
998.692 .0320019
999.291 .0319972
999.889 .0319900
1000.487 .0319806
1001.084 .0319702
1001.681 .0319575
1002.278 .0319441
1002.875 .0319306
1003.471 .0319174
1004.067 .0319036
1004.663 .0318896
1005.258 .0318753
1005.854 .0318610
1006.449 .0318462
1007.043 .0318314
1007.638 .0318172
1008.232 .0318042
1008.826 .0317925
1009.419 .0317821
1010.012 .0317736
1010.605 .0317671
1011.198 .0317622
1011.791 .0317596
1012.383 .0317579
1012.975 .0317568
1013.566 .0317549
1014.158 .0317512
1014.749 .0317459
1015.340 .0317386
1015.931 .0317284
1016.521 .0317156
1017.111 .0317010
1017.701 .0316850
1018.291 .0316677
1018.880 .0316501
1019.470 .0316325
1020.059 .0316151
1020.647 .0315980
1021.236 .0315805
1021.824 .0315628
1022.412 .0315459
1023.000 .0315287
1023.588 .0315118
1024.175 .0314950
1024.762 .0314780
1025.349 .0314616
1025.936 .0314465
1026.523 .0314324
1027.109 .0314187
1027.695 .0314054
1028.281 .0313918
1028.867 .0313769
1029.452 .0313613
1030.038 .0313437
1030.623 .0313244
1031.208 .0313043
1031.792 .0312832
1032.377 .0312618
1032.961 .0312422
1033.546 .0312245
1034.130 .0312096
1034.714 .0311976
1035.297 .0311880
1035.881 .0311802
1036.464 .0311742
1037.047 .0311694
1037.630 .0311651
1038.213 .0311617
1038.796 .0311592
1039.378 .0311569
1039.961 .0311554
1040.543 .0311534
1041.125 .0311510
1041.707 .0311480
1042.289 .0311436
1042.871 .0311378
1043.452 .0311295
1044.034 .0311193
1044.615 .0311071
1045.196 .0310938
1045.777 .0310785
1046.358 .0310616
1046.939 .0310449
1047.520 .0310272
1048.101 .0310094
1048.681 .0309918
1049.262 .0309746
1049.842 .0309590
1050.422 .0309448
1051.002 .0309310
1051.582 .0309178
1052.162 .0309049
1052.742 .0308912
1053.322 .0308767
1053.902 .0308620
1054.482 .0308477
1055.061 .0308325
1055.641 .0308188
1056.220 .0308065
1056.800 .0307955
1057.379 .0307859
1057.958 .0307771
1058.538 .0307688
1059.117 .0307615
1059.696 .0307540
1060.275 .0307479
1060.854 .0307429
1061.433 .0307405
1062.012 .0307412
1062.592 .0307446
1063.171 .0307521
1063.750 .0307632
1064.329 .0307754
1064.908 .0307895
1065.487 .0308015
1066.066 .0308126
1066.645 .0308211
1067.224 .0308279
1067.803 .0308321
1068.382 .0308332
1068.961 .0308340
1069.540 .0308326
1070.119 .0308296
1070.698 .0308262
1071.278 .0308200
1071.857 .0308121
1072.436 .0308023
1073.016 .0307908
1073.595 .0307786
1074.175 .0307679
1074.754 .0307586
1075.334 .0307504
1075.913 .0307442
1076.493 .0307388
1077.073 .0307334
1077.653 .0307284
1078.233 .0307235
1078.813 .0307173
1079.393 .0307119
1079.974 .0307085
1080.554 .0307063
1081.135 .0307074
1081.716 .0307124
1082.296 .0307214
1082.877 .0307331
1083.458 .0307447
1084.040 .0307545
1084.621 .0307618
1085.202 .0307696
1085.784 .0307750
1086.366 .0307797
1086.948 .0307867
1087.530 .0307963
1088.112 .0308110
1088.695 .0308295
1089.277 .0308529
1089.860 .0308791
1090.443 .0309076
1091.026 .0309362
1091.610 .0309617
1092.193 .0309866
1092.777 .0310086
1093.361 .0310285
1093.946 .0310448
1094.530 .0310582
1095.115 .0310683
1095.700 .0310755
1096.285 .0310833
1096.871 .0310913
1097.456 .0311008
1098.042 .0311114
1098.628 .0311230
1099.215 .0311330
1099.802 .0311413
1100.389 .0311470
1100.976 .0311466
1101.564 .0311413
1102.152 .0311301
1102.740 .0311151
1103.329 .0310977
1103.917 .0310834
1104.507 .0310707
1105.096 .0310602
1105.686 .0310541
1106.276 .0310465
1106.867 .0310375
1107.457 .0310275
1108.049 .0310137
1108.640 .0309954
1109.232 .0309745
1109.825 .0309539
1110.417 .0309340
1111.010 .0309206
1111.604 .0309151
1112.198 .0309213
1112.792 .0309416
1113.387 .0309781
1113.982 .0310273
1114.577 .0310912
1115.173 .0311663
1115.769 .0312431
1116.366 .0313177
1116.963 .0313849
1117.561 .0314427
1118.159 .0314906
1118.758 .0315309
1119.357 .0315668
1119.957 .0315980
1120.557 .0316339
1121.157 .0316718
1121.758 .0317148
1122.360 .0317609
1122.962 .0318031
1123.564 .0318378
1124.167 .0318630
1124.771 .0318749
1125.375 .0318717
1125.980 .0318620
1126.585 .0318516
1127.191 .0318431
1127.797 .0318430
1128.404 .0318528
1129.012 .0318776
1129.620 .0319183
1130.229 .0319682
1130.838 .0320157
1131.448 .0320624
1132.058 .0321018
1132.669 .0321279
1133.281 .0321453
1133.894 .0321560
1134.507 .0321668
1135.120 .0321827
1135.735 .0322093
1136.350 .0322490
1136.965 .0322991
1137.582 .0323622
1138.199 .0324297
1138.816 .0324949
1139.435 .0325562
1140.054 .0326025
1140.674 .0326374
1141.294 .0326545
1141.916 .0326304
1142.538 .0327500
1143.160 .0326766
1143.784 .0326685
1144.408 .0324952
1145.033 .0317324
