Measurement Sequence started on: 14-45-04-498
Integration time: 36
Scans to Average: 2 
>>>>>Begin Spectral Data<<<<<
433.946 .0462430
434.870 .0523036
435.793 .0479276
436.715 .0485509
437.635 .0485323
438.555 .0470697
439.473 .0465291
440.389 .0458401
441.305 .0453080
442.219 .0447836
443.132 .0443060
444.044 .0439187
444.954 .0435781
445.863 .0432827
446.771 .0430366
447.678 .0428276
448.584 .0426744
449.488 .0425628
450.391 .0424710
451.293 .0424113
452.194 .0423753
453.094 .0423504
453.992 .0423175
454.890 .0422770
455.786 .0422231
456.681 .0421550
457.575 .0420879
458.468 .0420118
459.360 .0419411
460.250 .0418788
461.140 .0418178
462.028 .0417625
462.915 .0417071
463.801 .0416481
464.687 .0415826
465.571 .0415108
466.454 .0414302
467.335 .0413418
468.216 .0412524
469.096 .0411648
469.975 .0410898
470.853 .0410267
471.729 .0409752
472.605 .0409339
473.479 .0409054
474.353 .0408804
475.226 .0408558
476.097 .0408297
476.968 .0407989
477.838 .0407640
478.706 .0407266
479.574 .0406872
480.441 .0406498
481.306 .0406176
482.171 .0405872
483.035 .0405600
483.898 .0405406
484.760 .0405215
485.621 .0405036
486.481 .0404878
487.340 .0404703
488.198 .0404491
489.055 .0404242
489.912 .0403976
490.767 .0403703
491.622 .0403444
492.476 .0403162
493.329 .0402862
494.180 .0402571
495.032 .0402273
495.882 .0401943
496.731 .0401634
497.580 .0401322
498.427 .0401008
499.274 .0400676
500.120 .0400342
500.965 .0400012
501.809 .0399720
502.653 .0399442
503.495 .0399180
504.337 .0398889
505.178 .0398555
506.018 .0398189
506.858 .0397800
507.696 .0397395
508.534 .0397000
509.371 .0396621
510.208 .0396314
511.043 .0396070
511.878 .0395885
512.712 .0395718
513.545 .0395580
514.377 .0395421
515.209 .0395174
516.040 .0394865
516.870 .0394499
517.699 .0394110
518.528 .0393752
519.356 .0393491
520.183 .0393258
521.010 .0393113
521.836 .0393015
522.661 .0392905
523.485 .0392728
524.309 .0392415
525.132 .0391941
525.954 .0391316
526.776 .0390595
527.597 .0389829
528.417 .0389036
529.237 .0388346
530.056 .0387695
530.874 .0387129
531.692 .0386548
532.508 .0385963
533.325 .0385287
534.140 .0384507
534.955 .0383639
535.770 .0382654
536.583 .0381671
537.397 .0380806
538.209 .0380052
539.021 .0379427
539.832 .0378920
540.643 .0378542
541.453 .0378186
542.262 .0377883
543.071 .0377500
543.879 .0377064
544.687 .0376550
545.494 .0375989
546.300 .0375380
547.106 .0374874
547.911 .0374488
548.716 .0374212
549.520 .0374070
550.323 .0374071
551.126 .0374101
551.929 .0374194
552.731 .0374237
553.532 .0374238
554.332 .0374145
555.133 .0374015
555.932 .0373800
556.731 .0373583
557.530 .0373366
558.328 .0373194
559.125 .0373056
559.922 .0372991
560.719 .0372879
561.515 .0372743
562.310 .0372571
563.105 .0372324
563.899 .0371968
564.693 .0371544
565.487 .0371026
566.280 .0370476
567.072 .0369894
567.864 .0369296
568.655 .0368688
569.446 .0368121
570.236 .0367545
571.026 .0366942
571.816 .0366322
572.605 .0365712
573.393 .0365100
574.181 .0364533
574.969 .0364040
575.756 .0363587
576.543 .0363205
577.329 .0362863
578.115 .0362556
578.900 .0362282
579.685 .0362012
580.469 .0361760
581.253 .0361506
582.036 .0361241
582.820 .0360950
583.602 .0360637
584.384 .0360310
585.166 .0359957
585.947 .0359592
586.728 .0359218
587.509 .0358870
588.289 .0358556
589.069 .0358283
589.848 .0358061
590.627 .0357876
591.405 .0357721
592.183 .0357568
592.961 .0357425
593.738 .0357260
594.515 .0357081
595.291 .0356894
596.067 .0356700
596.843 .0356500
597.618 .0356298
598.393 .0356097
599.167 .0355900
599.941 .0355692
600.715 .0355468
601.488 .0355222
602.261 .0354965
603.034 .0354686
603.806 .0354411
604.578 .0354133
605.349 .0353873
606.121 .0353633
606.891 .0353424
607.662 .0353228
608.432 .0353051
609.201 .0352879
609.971 .0352713
610.740 .0352546
611.508 .0352373
612.277 .0352179
613.045 .0351982
613.812 .0351770
614.579 .0351544
615.346 .0351305
616.113 .0351059
616.879 .0350794
617.645 .0350519
618.411 .0350227
619.176 .0349912
619.941 .0349581
620.705 .0349245
621.470 .0348904
622.233 .0348573
622.997 .0348247
623.760 .0347936
624.523 .0347643
625.286 .0347375
626.048 .0347118
626.810 .0346874
627.572 .0346636
628.333 .0346400
629.095 .0346162
629.855 .0345925
630.616 .0345683
631.376 .0345447
632.136 .0345212
632.895 .0344984
633.655 .0344755
634.414 .0344535
635.172 .0344315
635.931 .0344107
636.689 .0343900
637.447 .0343697
638.204 .0343490
638.962 .0343284
639.718 .0343074
640.475 .0342863
641.231 .0342643
641.988 .0342416
642.743 .0342180
643.499 .0341942
644.254 .0341690
645.009 .0341439
645.764 .0341187
646.518 .0340945
647.272 .0340706
648.026 .0340479
648.780 .0340259
649.533 .0340053
650.286 .0339856
651.039 .0339667
651.792 .0339479
652.544 .0339297
653.296 .0339118
654.048 .0338945
654.799 .0338781
655.550 .0338628
656.301 .0338480
657.052 .0338347
657.802 .0338218
658.552 .0338088
659.302 .0337957
660.052 .0337823
660.801 .0337677
661.550 .0337521
662.299 .0337354
663.048 .0337177
663.796 .0336999
664.544 .0336818
665.292 .0336631
666.040 .0336446
666.787 .0336263
667.534 .0336074
668.281 .0335886
669.028 .0335705
669.774 .0335519
670.521 .0335335
671.266 .0335154
672.012 .0334970
672.758 .0334785
673.503 .0334597
674.248 .0334402
674.992 .0334200
675.737 .0333995
676.481 .0333780
677.225 .0333563
677.969 .0333348
678.712 .0333132
679.455 .0332916
680.199 .0332708
680.941 .0332506
681.684 .0332306
682.426 .0332112
683.168 .0331922
683.910 .0331735
684.652 .0331550
685.393 .0331368
686.134 .0331194
686.875 .0331031
687.616 .0330880
688.356 .0330741
689.097 .0330618
689.837 .0330505
690.576 .0330396
691.316 .0330286
692.055 .0330168
692.794 .0330038
693.533 .0329895
694.272 .0329739
695.010 .0329578
695.748 .0329418
696.486 .0329259
697.224 .0329106
697.962 .0328961
698.699 .0328819
699.436 .0328676
700.173 .0328529
700.909 .0328376
701.646 .0328213
702.382 .0328046
703.118 .0327876
703.853 .0327709
704.589 .0327552
705.324 .0327405
706.059 .0327266
706.794 .0327137
707.529 .0327013
708.263 .0326888
708.997 .0326765
709.731 .0326639
710.465 .0326512
711.198 .0326382
711.931 .0326250
712.664 .0326119
713.397 .0325987
714.130 .0325854
714.862 .0325717
715.594 .0325583
716.326 .0325454
717.058 .0325327
717.789 .0325211
718.520 .0325100
719.251 .0324994
719.982 .0324892
720.713 .0324786
721.443 .0324671
722.173 .0324549
722.903 .0324411
723.633 .0324263
724.362 .0324112
725.091 .0323957
725.820 .0323803
726.549 .0323658
727.278 .0323524
728.006 .0323393
728.734 .0323266
729.462 .0323140
730.190 .0323007
730.917 .0322870
731.644 .0322720
732.371 .0322555
733.098 .0322384
733.825 .0322208
734.551 .0322029
735.277 .0321852
736.003 .0321681
736.728 .0321512
737.454 .0321351
738.179 .0321191
738.904 .0321030
739.629 .0320865
740.353 .0320693
741.077 .0320511
741.801 .0320321
742.525 .0320123
743.249 .0319923
743.972 .0319728
744.695 .0319541
745.418 .0319364
746.141 .0319199
746.863 .0319046
747.585 .0318908
748.307 .0318777
749.029 .0318651
749.750 .0318524
750.472 .0318401
751.193 .0318274
751.913 .0318146
752.634 .0318018
753.354 .0317895
754.074 .0317775
754.794 .0317658
755.514 .0317543
756.233 .0317433
756.952 .0317320
757.671 .0317204
758.390 .0317082
759.108 .0316955
759.826 .0316820
760.544 .0316682
761.262 .0316541
761.979 .0316403
762.697 .0316265
763.414 .0316133
764.130 .0316005
764.847 .0315882
765.563 .0315765
766.279 .0315653
766.995 .0315548
767.710 .0315449
768.426 .0315351
769.141 .0315261
769.855 .0315178
770.570 .0315101
771.284 .0315025
771.998 .0314951
772.712 .0314878
773.426 .0314801
774.139 .0314720
774.852 .0314634
775.565 .0314543
776.277 .0314450
776.990 .0314355
777.702 .0314257
778.414 .0314159
779.125 .0314061
779.836 .0313967
780.547 .0313871
781.258 .0313780
781.969 .0313686
782.679 .0313596
783.389 .0313506
784.099 .0313418
784.808 .0313331
785.517 .0313246
786.226 .0313162
786.935 .0313082
787.643 .0313010
788.352 .0312951
789.060 .0312899
789.767 .0312862
790.475 .0312836
791.182 .0312816
791.889 .0312792
792.595 .0312766
793.301 .0312728
794.008 .0312679
794.713 .0312613
795.419 .0312538
796.124 .0312453
796.829 .0312362
797.534 .0312271
798.238 .0312178
798.942 .0312085
799.646 .0311994
800.350 .0311898
801.053 .0311798
801.756 .0311690
802.459 .0311572
803.162 .0311444
803.864 .0311317
804.566 .0311190
805.267 .0311068
805.969 .0310955
806.670 .0310857
807.371 .0310771
808.071 .0310698
808.772 .0310634
809.472 .0310568
810.171 .0310498
810.871 .0310419
811.570 .0310321
812.269 .0310213
812.967 .0310091
813.666 .0309960
814.364 .0309822
815.061 .0309682
815.759 .0309539
816.456 .0309395
817.153 .0309252
817.849 .0309105
818.545 .0308952
819.241 .0308793
819.937 .0308625
820.632 .0308448
821.327 .0308266
822.022 .0308082
822.717 .0307895
823.411 .0307709
824.105 .0307523
824.798 .0307342
825.491 .0307162
826.184 .0306986
826.877 .0306813
827.569 .0306641
828.261 .0306471
828.953 .0306297
829.645 .0306121
830.336 .0305943
831.027 .0305766
831.717 .0305590
832.407 .0305419
833.097 .0305253
833.787 .0305089
834.476 .0304934
835.165 .0304784
835.854 .0304639
836.542 .0304495
837.230 .0304351
837.918 .0304208
838.605 .0304068
839.292 .0303934
839.979 .0303802
840.665 .0303679
841.352 .0303565
842.037 .0303454
842.723 .0303342
843.408 .0303231
844.093 .0303116
844.777 .0302994
845.462 .0302868
846.145 .0302737
846.829 .0302605
847.512 .0302473
848.195 .0302344
848.878 .0302216
849.560 .0302087
850.242 .0301956
850.923 .0301817
851.605 .0301669
852.286 .0301512
852.966 .0301347
853.646 .0301176
854.326 .0301008
855.006 .0300843
855.685 .0300684
856.364 .0300535
857.043 .0300392
857.721 .0300251
858.399 .0300112
859.077 .0299973
859.754 .0299824
860.431 .0299669
861.107 .0299513
861.784 .0299357
862.459 .0299207
863.135 .0299065
863.810 .0298933
864.485 .0298808
865.160 .0298692
865.834 .0298583
866.508 .0298477
867.181 .0298379
867.854 .0298286
868.527 .0298201
869.199 .0298120
869.872 .0298045
870.543 .0297978
871.215 .0297917
871.886 .0297861
872.557 .0297801
873.227 .0297735
873.897 .0297666
874.567 .0297593
875.236 .0297512
875.905 .0297428
876.573 .0297340
877.242 .0297244
877.909 .0297138
878.577 .0297026
879.244 .0296905
879.911 .0296778
880.577 .0296649
881.243 .0296516
881.909 .0296379
882.575 .0296239
883.240 .0296099
883.904 .0295965
884.569 .0295835
885.232 .0295704
885.896 .0295571
886.559 .0295445
887.222 .0295324
887.885 .0295208
888.547 .0295100
889.208 .0295000
889.870 .0294906
890.531 .0294812
891.192 .0294720
891.852 .0294633
892.512 .0294548
893.171 .0294466
893.830 .0294391
894.489 .0294321
895.148 .0294255
895.806 .0294195
896.464 .0294142
897.121 .0294092
897.778 .0294041
898.434 .0293984
899.091 .0293921
899.747 .0293851
900.402 .0293772
901.057 .0293680
901.712 .0293580
902.366 .0293472
903.020 .0293350
903.674 .0293219
904.327 .0293083
904.980 .0292946
905.633 .0292804
906.285 .0292662
906.936 .0292522
907.588 .0292379
908.239 .0292240
908.889 .0292102
909.540 .0291965
910.190 .0291829
910.839 .0291697
911.488 .0291567
912.137 .0291441
912.785 .0291321
913.433 .0291203
914.081 .0291086
914.728 .0290974
915.375 .0290854
916.021 .0290729
916.668 .0290601
917.313 .0290469
917.959 .0290331
918.604 .0290193
919.248 .0290053
919.892 .0289913
920.536 .0289773
921.180 .0289632
921.823 .0289488
922.465 .0289346
923.108 .0289197
923.750 .0289042
924.391 .0288876
925.032 .0288704
925.673 .0288522
926.313 .0288337
926.953 .0288146
927.593 .0287950
928.232 .0287748
928.871 .0287540
929.510 .0287327
930.148 .0287109
930.786 .0286888
931.423 .0286664
932.060 .0286438
932.697 .0286214
933.333 .0285994
933.969 .0285777
934.604 .0285569
935.239 .0285369
935.874 .0285178
936.508 .0284992
937.142 .0284810
937.776 .0284635
938.409 .0284463
939.042 .0284290
939.674 .0284112
940.306 .0283925
940.938 .0283727
941.569 .0283517
942.200 .0283295
942.830 .0283065
943.460 .0282831
944.090 .0282593
944.720 .0282357
945.349 .0282124
945.977 .0281899
946.606 .0281680
947.233 .0281462
947.861 .0281247
948.488 .0281028
949.115 .0280806
949.741 .0280583
950.367 .0280366
950.993 .0280158
951.618 .0279963
952.243 .0279787
952.868 .0279626
953.492 .0279480
954.115 .0279344
954.739 .0279208
955.362 .0279067
955.984 .0278919
956.607 .0278756
957.229 .0278587
957.850 .0278417
958.471 .0278246
959.092 .0278079
959.713 .0277921
960.333 .0277771
960.952 .0277629
961.572 .0277497
962.191 .0277369
962.809 .0277241
963.428 .0277122
964.045 .0277002
964.663 .0276884
965.280 .0276774
965.897 .0276672
966.513 .0276577
967.129 .0276495
967.745 .0276420
968.361 .0276352
968.976 .0276294
969.590 .0276243
970.205 .0276184
970.818 .0276125
971.432 .0276067
972.045 .0276001
972.658 .0275935
973.271 .0275868
973.883 .0275789
974.495 .0275706
975.106 .0275614
975.717 .0275515
976.328 .0275410
976.938 .0275309
977.548 .0275209
978.158 .0275114
978.768 .0275028
979.377 .0274947
979.985 .0274864
980.594 .0274789
981.202 .0274710
981.809 .0274621
982.417 .0274525
983.024 .0274429
983.631 .0274338
984.237 .0274256
984.843 .0274183
985.449 .0274122
986.054 .0274064
986.659 .0274012
987.264 .0273956
987.868 .0273895
988.472 .0273831
989.076 .0273763
989.679 .0273691
990.282 .0273622
990.885 .0273557
991.487 .0273500
992.090 .0273452
992.691 .0273413
993.293 .0273373
993.894 .0273332
994.495 .0273293
995.095 .0273253
995.696 .0273208
996.296 .0273162
996.895 .0273116
997.494 .0273073
998.093 .0273038
998.692 .0273011
999.291 .0272998
999.889 .0272998
1000.487 .0273009
1001.084 .0273027
1001.681 .0273046
1002.278 .0273062
1002.875 .0273071
1003.471 .0273069
1004.067 .0273057
1004.663 .0273030
1005.258 .0272992
1005.854 .0272950
1006.449 .0272905
1007.043 .0272855
1007.638 .0272799
1008.232 .0272741
1008.826 .0272679
1009.419 .0272607
1010.012 .0272534
1010.605 .0272458
1011.198 .0272378
1011.791 .0272298
1012.383 .0272219
1012.975 .0272136
1013.566 .0272056
1014.158 .0271974
1014.749 .0271891
1015.340 .0271805
1015.931 .0271722
1016.521 .0271642
1017.111 .0271570
1017.701 .0271508
1018.291 .0271452
1018.880 .0271395
1019.470 .0271343
1020.059 .0271282
1020.647 .0271214
1021.236 .0271143
1021.824 .0271070
1022.412 .0270998
1023.000 .0270937
1023.588 .0270894
1024.175 .0270870
1024.762 .0270868
1025.349 .0270888
1025.936 .0270922
1026.523 .0270968
1027.109 .0271021
1027.695 .0271072
1028.281 .0271120
1028.867 .0271160
1029.452 .0271189
1030.038 .0271210
1030.623 .0271232
1031.208 .0271254
1031.792 .0271280
1032.377 .0271309
1032.961 .0271341
1033.546 .0271366
1034.130 .0271387
1034.714 .0271395
1035.297 .0271391
1035.881 .0271368
1036.464 .0271333
1037.047 .0271284
1037.630 .0271228
1038.213 .0271171
1038.796 .0271118
1039.378 .0271073
1039.961 .0271038
1040.543 .0271010
1041.125 .0270993
1041.707 .0270984
1042.289 .0270980
1042.871 .0270976
1043.452 .0270976
1044.034 .0270975
1044.615 .0270967
1045.196 .0270953
1045.777 .0270943
1046.358 .0270927
1046.939 .0270910
1047.520 .0270896
1048.101 .0270890
1048.681 .0270885
1049.262 .0270883
1049.842 .0270874
1050.422 .0270858
1051.002 .0270825
1051.582 .0270765
1052.162 .0270678
1052.742 .0270567
1053.322 .0270433
1053.902 .0270285
1054.482 .0270133
1055.061 .0269988
1055.641 .0269851
1056.220 .0269734
1056.800 .0269632
1057.379 .0269548
1057.958 .0269473
1058.538 .0269413
1059.117 .0269370
1059.696 .0269347
1060.275 .0269339
1060.854 .0269345
1061.433 .0269377
1062.012 .0269419
1062.592 .0269469
1063.171 .0269529
1063.750 .0269581
1064.329 .0269631
1064.908 .0269666
1065.487 .0269679
1066.066 .0269670
1066.645 .0269637
1067.224 .0269583
1067.803 .0269499
1068.382 .0269387
1068.961 .0269243
1069.540 .0269064
1070.119 .0268861
1070.698 .0268636
1071.278 .0268394
1071.857 .0268166
1072.436 .0267954
1073.016 .0267773
1073.595 .0267627
1074.175 .0267514
1074.754 .0267440
1075.334 .0267394
1075.913 .0267356
1076.493 .0267321
1077.073 .0267266
1077.653 .0267208
1078.233 .0267145
1078.813 .0267086
1079.393 .0267033
1079.974 .0266996
1080.554 .0266974
1081.135 .0266966
1081.716 .0266960
1082.296 .0266956
1082.877 .0266941
1083.458 .0266919
1084.040 .0266879
1084.621 .0266817
1085.202 .0266753
1085.784 .0266701
1086.366 .0266679
1086.948 .0266693
1087.530 .0266737
1088.112 .0266821
1088.695 .0266921
1089.277 .0267042
1089.860 .0267153
1090.443 .0267247
1091.026 .0267309
1091.610 .0267348
1092.193 .0267373
1092.777 .0267381
1093.361 .0267398
1093.946 .0267442
1094.530 .0267515
1095.115 .0267620
1095.700 .0267728
1096.285 .0267842
1096.871 .0267946
1097.456 .0268042
1098.042 .0268100
1098.628 .0268142
1099.215 .0268170
1099.802 .0268189
1100.389 .0268196
1100.976 .0268213
1101.564 .0268229
1102.152 .0268234
1102.740 .0268234
1103.329 .0268211
1103.917 .0268174
1104.507 .0268121
1105.096 .0268040
1105.686 .0267969
1106.276 .0267891
1106.867 .0267832
1107.457 .0267772
1108.049 .0267728
1108.640 .0267699
1109.232 .0267672
1109.825 .0267676
1110.417 .0267718
1111.010 .0267799
1111.604 .0267930
1112.198 .0268104
1112.792 .0268335
1113.387 .0268611
1113.982 .0268914
1114.577 .0269250
1115.173 .0269594
1115.769 .0269910
1116.366 .0270189
1116.963 .0270396
1117.561 .0270572
1118.159 .0270702
1118.758 .0270789
1119.357 .0270872
1119.957 .0270963
1120.557 .0271075
1121.157 .0271195
1121.758 .0271337
1122.360 .0271494
1122.962 .0271631
1123.564 .0271746
1124.167 .0271804
1124.771 .0271842
1125.375 .0271871
1125.980 .0271917
1126.585 .0271992
1127.191 .0272134
1127.797 .0272323
1128.404 .0272554
1129.012 .0272847
1129.620 .0273177
1130.229 .0273547
1130.838 .0273939
1131.448 .0274342
1132.058 .0274757
1132.669 .0275182
1133.281 .0275615
1133.894 .0276042
1134.507 .0276501
1135.120 .0276952
1135.735 .0277373
1136.350 .0277784
1136.965 .0278203
1137.582 .0278624
1138.199 .0279038
1138.816 .0279415
1139.435 .0279781
1140.054 .0280152
1140.674 .0280532
1141.294 .0280847
1141.916 .0281318
1142.538 .0281371
1143.160 .0281889
1143.784 .0282894
1144.408 .0281848
1145.033 .0286634
