Measurement Sequence started on: 14-45-04-498
Integration time: 36
Scans to Average: 2 
>>>>>Begin Spectral Data<<<<<
433.946 .0491695
434.870 .0465232
435.793 .0412124
436.715 .0407912
437.635 .0402779
438.555 .0415811
439.473 .0411405
440.389 .0409055
441.305 .0408460
442.219 .0407821
443.132 .0407150
444.044 .0406226
444.954 .0405320
445.863 .0404567
446.771 .0403806
447.678 .0402860
448.584 .0401754
449.488 .0400472
450.391 .0399049
451.293 .0397680
452.194 .0396404
453.094 .0395324
453.992 .0394436
454.890 .0393636
455.786 .0392978
456.681 .0392344
457.575 .0391676
458.468 .0390954
459.360 .0390152
460.250 .0389308
461.140 .0388422
462.028 .0387613
462.915 .0386835
463.801 .0386060
464.687 .0385288
465.571 .0384468
466.454 .0383591
467.335 .0382655
468.216 .0381660
469.096 .0380641
469.975 .0379675
470.853 .0378742
471.729 .0377851
472.605 .0377024
473.479 .0376264
474.353 .0375539
475.226 .0374854
476.097 .0374219
476.968 .0373620
477.838 .0373041
478.706 .0372548
479.574 .0372104
480.441 .0371753
481.306 .0371467
482.171 .0371238
483.035 .0371028
483.898 .0370837
484.760 .0370608
485.621 .0370358
486.481 .0370090
487.340 .0369845
488.198 .0369581
489.055 .0369344
489.912 .0369146
490.767 .0368995
491.622 .0368869
492.476 .0368811
493.329 .0368791
494.180 .0368825
495.032 .0368883
495.882 .0368994
496.731 .0369124
497.580 .0369274
498.427 .0369437
499.274 .0369572
500.120 .0369669
500.965 .0369741
501.809 .0369758
502.653 .0369738
503.495 .0369685
504.337 .0369580
505.178 .0369398
506.018 .0369167
506.858 .0368858
507.696 .0368464
508.534 .0368005
509.371 .0367475
510.208 .0366879
511.043 .0366270
511.878 .0365648
512.712 .0365029
513.545 .0364456
514.377 .0363989
515.209 .0363585
516.040 .0363241
516.870 .0362945
517.699 .0362702
518.528 .0362486
519.356 .0362298
520.183 .0362064
521.010 .0361824
521.836 .0361501
522.661 .0361081
523.485 .0360547
524.309 .0359874
525.132 .0359061
525.954 .0358143
526.776 .0357099
527.597 .0356047
528.417 .0354947
529.237 .0353887
530.056 .0352904
530.874 .0352045
531.692 .0351266
532.508 .0350560
533.325 .0349987
534.140 .0349522
534.955 .0349136
535.770 .0348863
536.583 .0348631
537.397 .0348499
538.209 .0348434
539.021 .0348402
539.832 .0348392
540.643 .0348449
541.453 .0348505
542.262 .0348578
543.071 .0348623
543.879 .0348595
544.687 .0348538
545.494 .0348416
546.300 .0348215
547.106 .0347905
547.911 .0347491
548.716 .0347027
549.520 .0346455
550.323 .0345851
551.126 .0345190
551.929 .0344516
552.731 .0343860
553.532 .0343199
554.332 .0342574
555.133 .0341980
555.932 .0341386
556.731 .0340785
557.530 .0340148
558.328 .0339496
559.125 .0338834
559.922 .0338181
560.719 .0337558
561.515 .0337017
562.310 .0336537
563.105 .0336133
563.899 .0335776
564.693 .0335456
565.487 .0335140
566.280 .0334786
567.072 .0334396
567.864 .0333939
568.655 .0333433
569.446 .0332928
570.236 .0332413
571.026 .0331925
571.816 .0331474
572.605 .0331082
573.393 .0330752
574.181 .0330457
574.969 .0330196
575.756 .0329946
576.543 .0329719
577.329 .0329495
578.115 .0329266
578.900 .0329046
579.685 .0328839
580.469 .0328639
581.253 .0328430
582.036 .0328217
582.820 .0327986
583.602 .0327743
584.384 .0327471
585.166 .0327152
585.947 .0326805
586.728 .0326434
587.509 .0326050
588.289 .0325680
589.069 .0325320
589.848 .0324987
590.627 .0324666
591.405 .0324360
592.183 .0324059
592.961 .0323767
593.738 .0323476
594.515 .0323174
595.291 .0322860
596.067 .0322534
596.843 .0322188
597.618 .0321832
598.393 .0321475
599.167 .0321114
599.941 .0320745
600.715 .0320372
601.488 .0319991
602.261 .0319613
603.034 .0319238
603.806 .0318874
604.578 .0318522
605.349 .0318189
606.121 .0317873
606.891 .0317570
607.662 .0317285
608.432 .0317029
609.201 .0316792
609.971 .0316584
610.740 .0316406
611.508 .0316253
612.277 .0316121
613.045 .0316018
613.812 .0315930
614.579 .0315851
615.346 .0315772
616.113 .0315691
616.879 .0315599
617.645 .0315504
618.411 .0315395
619.176 .0315274
619.941 .0315152
620.705 .0315024
621.470 .0314883
622.233 .0314736
622.997 .0314580
623.760 .0314418
624.523 .0314249
625.286 .0314075
626.048 .0313893
626.810 .0313711
627.572 .0313525
628.333 .0313339
629.095 .0313147
629.855 .0312955
630.616 .0312768
631.376 .0312586
632.136 .0312406
632.895 .0312228
633.655 .0312052
634.414 .0311879
635.172 .0311695
635.931 .0311500
636.689 .0311285
637.447 .0311051
638.204 .0310795
638.962 .0310514
639.718 .0310220
640.475 .0309918
641.231 .0309607
641.988 .0309291
642.743 .0308970
643.499 .0308643
644.254 .0308306
645.009 .0307963
645.764 .0307617
646.518 .0307274
647.272 .0306936
648.026 .0306613
648.780 .0306302
649.533 .0306012
650.286 .0305736
651.039 .0305468
651.792 .0305209
652.544 .0304948
653.296 .0304682
654.048 .0304418
654.799 .0304158
655.550 .0303900
656.301 .0303647
657.052 .0303407
657.802 .0303177
658.552 .0302958
659.302 .0302748
660.052 .0302549
660.801 .0302358
661.550 .0302181
662.299 .0302013
663.048 .0301858
663.796 .0301725
664.544 .0301608
665.292 .0301512
666.040 .0301429
666.787 .0301359
667.534 .0301295
668.281 .0301238
669.028 .0301185
669.774 .0301137
670.521 .0301091
671.266 .0301049
672.012 .0301013
672.758 .0300983
673.503 .0300955
674.248 .0300929
674.992 .0300901
675.737 .0300864
676.481 .0300816
677.225 .0300759
677.969 .0300694
678.712 .0300631
679.455 .0300568
680.199 .0300511
680.941 .0300461
681.684 .0300415
682.426 .0300371
683.168 .0300330
683.910 .0300287
684.652 .0300233
685.393 .0300164
686.134 .0300080
686.875 .0299980
687.616 .0299866
688.356 .0299743
689.097 .0299609
689.837 .0299471
690.576 .0299325
691.316 .0299169
692.055 .0299007
692.794 .0298839
693.533 .0298664
694.272 .0298481
695.010 .0298291
695.748 .0298097
696.486 .0297898
697.224 .0297700
697.962 .0297504
698.699 .0297312
699.436 .0297127
700.173 .0296948
700.909 .0296778
701.646 .0296617
702.382 .0296463
703.118 .0296314
703.853 .0296169
704.589 .0296026
705.324 .0295879
706.059 .0295733
706.794 .0295583
707.529 .0295431
708.263 .0295278
708.997 .0295126
709.731 .0294973
710.465 .0294820
711.198 .0294663
711.931 .0294502
712.664 .0294339
713.397 .0294170
714.130 .0293996
714.862 .0293824
715.594 .0293654
716.326 .0293488
717.058 .0293332
717.789 .0293187
718.520 .0293048
719.251 .0292919
719.982 .0292794
720.713 .0292669
721.443 .0292548
722.173 .0292429
722.903 .0292312
723.633 .0292209
724.362 .0292109
725.091 .0292016
725.820 .0291930
726.549 .0291853
727.278 .0291774
728.006 .0291690
728.734 .0291603
729.462 .0291508
730.190 .0291408
730.917 .0291307
731.644 .0291210
732.371 .0291127
733.098 .0291056
733.825 .0291000
734.551 .0290956
735.277 .0290923
736.003 .0290895
736.728 .0290874
737.454 .0290859
738.179 .0290854
738.904 .0290857
739.629 .0290872
740.353 .0290900
741.077 .0290942
741.801 .0290991
742.525 .0291044
743.249 .0291097
743.972 .0291144
744.695 .0291177
745.418 .0291198
746.141 .0291206
746.863 .0291206
747.585 .0291197
748.307 .0291179
749.029 .0291155
749.750 .0291128
750.472 .0291096
751.193 .0291058
751.913 .0291017
752.634 .0290975
753.354 .0290925
754.074 .0290872
754.794 .0290811
755.514 .0290746
756.233 .0290674
756.952 .0290597
757.671 .0290515
758.390 .0290428
759.108 .0290335
759.826 .0290241
760.544 .0290146
761.262 .0290054
761.979 .0289960
762.697 .0289866
763.414 .0289773
764.130 .0289683
764.847 .0289588
765.563 .0289497
766.279 .0289412
766.995 .0289338
767.710 .0289267
768.426 .0289208
769.141 .0289157
769.855 .0289118
770.570 .0289081
771.284 .0289042
771.998 .0289000
772.712 .0288957
773.426 .0288904
774.139 .0288843
774.852 .0288770
775.565 .0288690
776.277 .0288594
776.990 .0288490
777.702 .0288373
778.414 .0288249
779.125 .0288116
779.836 .0287980
780.547 .0287836
781.258 .0287690
781.969 .0287538
782.679 .0287384
783.389 .0287230
784.099 .0287079
784.808 .0286924
785.517 .0286778
786.226 .0286638
786.935 .0286510
787.643 .0286388
788.352 .0286277
789.060 .0286173
789.767 .0286075
790.475 .0285975
791.182 .0285871
791.889 .0285766
792.595 .0285662
793.301 .0285554
794.008 .0285447
794.713 .0285347
795.419 .0285258
796.124 .0285172
796.829 .0285093
797.534 .0285013
798.238 .0284940
798.942 .0284864
799.646 .0284788
800.350 .0284707
801.053 .0284629
801.756 .0284549
802.459 .0284470
803.162 .0284388
803.864 .0284310
804.566 .0284230
805.267 .0284151
805.969 .0284071
806.670 .0283996
807.371 .0283927
808.071 .0283874
808.772 .0283832
809.472 .0283800
810.171 .0283771
810.871 .0283754
811.570 .0283740
812.269 .0283729
812.967 .0283720
813.666 .0283717
814.364 .0283721
815.061 .0283737
815.759 .0283764
816.456 .0283801
817.153 .0283851
817.849 .0283903
818.545 .0283948
819.241 .0283977
819.937 .0283991
820.632 .0283989
821.327 .0283972
822.022 .0283946
822.717 .0283913
823.411 .0283876
824.105 .0283844
824.798 .0283809
825.491 .0283772
826.184 .0283726
826.877 .0283675
827.569 .0283613
828.261 .0283539
828.953 .0283459
829.645 .0283376
830.336 .0283299
831.027 .0283228
831.717 .0283165
832.407 .0283114
833.097 .0283075
833.787 .0283043
834.476 .0283017
835.165 .0282993
835.854 .0282970
836.542 .0282944
837.230 .0282914
837.918 .0282881
838.605 .0282846
839.292 .0282807
839.979 .0282775
840.665 .0282741
841.352 .0282709
842.037 .0282674
842.723 .0282639
843.408 .0282596
844.093 .0282545
844.777 .0282480
845.462 .0282403
846.145 .0282315
846.829 .0282220
847.512 .0282120
848.195 .0282022
848.878 .0281926
849.560 .0281833
850.242 .0281738
850.923 .0281645
851.605 .0281540
852.286 .0281425
852.966 .0281298
853.646 .0281156
854.326 .0281002
855.006 .0280841
855.685 .0280673
856.364 .0280506
857.043 .0280341
857.721 .0280180
858.399 .0280020
859.077 .0279867
859.754 .0279712
860.431 .0279559
861.107 .0279406
861.784 .0279255
862.459 .0279105
863.135 .0278960
863.810 .0278822
864.485 .0278692
865.160 .0278570
865.834 .0278458
866.508 .0278349
867.181 .0278245
867.854 .0278139
868.527 .0278032
869.199 .0277918
869.872 .0277795
870.543 .0277660
871.215 .0277513
871.886 .0277353
872.557 .0277184
873.227 .0277006
873.897 .0276824
874.567 .0276638
875.236 .0276450
875.905 .0276264
876.573 .0276083
877.242 .0275902
877.909 .0275723
878.577 .0275542
879.244 .0275360
879.911 .0275173
880.577 .0274982
881.243 .0274789
881.909 .0274595
882.575 .0274403
883.240 .0274216
883.904 .0274034
884.569 .0273867
885.232 .0273704
885.896 .0273546
886.559 .0273392
887.222 .0273236
887.885 .0273078
888.547 .0272919
889.208 .0272761
889.870 .0272609
890.531 .0272467
891.192 .0272340
891.852 .0272228
892.512 .0272135
893.171 .0272057
893.830 .0271989
894.489 .0271926
895.148 .0271866
895.806 .0271803
896.464 .0271743
897.121 .0271682
897.778 .0271621
898.434 .0271561
899.091 .0271502
899.747 .0271451
900.402 .0271404
901.057 .0271364
901.712 .0271327
902.366 .0271292
903.020 .0271258
903.674 .0271221
904.327 .0271186
904.980 .0271153
905.633 .0271121
906.285 .0271095
906.936 .0271073
907.588 .0271059
908.239 .0271053
908.889 .0271054
909.540 .0271061
910.190 .0271066
910.839 .0271069
911.488 .0271064
912.137 .0271051
912.785 .0271029
913.433 .0270995
914.081 .0270949
914.728 .0270893
915.375 .0270822
916.021 .0270744
916.668 .0270659
917.313 .0270574
917.959 .0270489
918.604 .0270404
919.248 .0270320
919.892 .0270239
920.536 .0270157
921.180 .0270081
921.823 .0270005
922.465 .0269931
923.108 .0269857
923.750 .0269784
924.391 .0269712
925.032 .0269642
925.673 .0269575
926.313 .0269514
926.953 .0269460
927.593 .0269408
928.232 .0269352
928.871 .0269291
929.510 .0269220
930.148 .0269135
930.786 .0269035
931.423 .0268922
932.060 .0268798
932.697 .0268667
933.333 .0268529
933.969 .0268390
934.604 .0268252
935.239 .0268114
935.874 .0267977
936.508 .0267839
937.142 .0267701
937.776 .0267561
938.409 .0267420
939.042 .0267278
939.674 .0267133
940.306 .0266987
940.938 .0266841
941.569 .0266698
942.200 .0266562
942.830 .0266434
943.460 .0266314
944.090 .0266205
944.720 .0266103
945.349 .0266008
945.977 .0265916
946.606 .0265828
947.233 .0265742
947.861 .0265656
948.488 .0265569
949.115 .0265483
949.741 .0265394
950.367 .0265308
950.993 .0265221
951.618 .0265133
952.243 .0265040
952.868 .0264943
953.492 .0264838
954.115 .0264727
954.739 .0264608
955.362 .0264480
955.984 .0264341
956.607 .0264202
957.229 .0264062
957.850 .0263926
958.471 .0263795
959.092 .0263673
959.713 .0263556
960.333 .0263447
960.952 .0263343
961.572 .0263244
962.191 .0263151
962.809 .0263066
963.428 .0262984
964.045 .0262907
964.663 .0262840
965.280 .0262779
965.897 .0262723
966.513 .0262676
967.129 .0262629
967.745 .0262577
968.361 .0262524
968.976 .0262465
969.590 .0262395
970.205 .0262318
970.818 .0262235
971.432 .0262146
972.045 .0262055
972.658 .0261961
973.271 .0261857
973.883 .0261745
974.495 .0261623
975.106 .0261483
975.717 .0261328
976.328 .0261162
976.938 .0260986
977.548 .0260806
978.158 .0260627
978.768 .0260445
979.377 .0260259
979.985 .0260072
980.594 .0259883
981.202 .0259692
981.809 .0259495
982.417 .0259296
983.024 .0259105
983.631 .0258925
984.237 .0258755
984.843 .0258594
985.449 .0258437
986.054 .0258278
986.659 .0258114
987.264 .0257941
987.868 .0257759
988.472 .0257580
989.076 .0257404
989.679 .0257234
990.282 .0257071
990.885 .0256911
991.487 .0256755
992.090 .0256604
992.691 .0256451
993.293 .0256293
993.894 .0256140
994.495 .0255995
995.095 .0255864
995.696 .0255753
996.296 .0255659
996.895 .0255578
997.494 .0255511
998.093 .0255447
998.692 .0255380
999.291 .0255313
999.889 .0255242
1000.487 .0255168
1001.084 .0255097
1001.681 .0255021
1002.278 .0254945
1002.875 .0254875
1003.471 .0254802
1004.067 .0254723
1004.663 .0254640
1005.258 .0254549
1005.854 .0254452
1006.449 .0254356
1007.043 .0254262
1007.638 .0254170
1008.232 .0254089
1008.826 .0254014
1009.419 .0253941
1010.012 .0253878
1010.605 .0253818
1011.198 .0253764
1011.791 .0253718
1012.383 .0253669
1012.975 .0253621
1013.566 .0253577
1014.158 .0253533
1014.749 .0253490
1015.340 .0253449
1015.931 .0253409
1016.521 .0253375
1017.111 .0253349
1017.701 .0253325
1018.291 .0253304
1018.880 .0253287
1019.470 .0253268
1020.059 .0253244
1020.647 .0253223
1021.236 .0253203
1021.824 .0253190
1022.412 .0253198
1023.000 .0253224
1023.588 .0253264
1024.175 .0253321
1024.762 .0253382
1025.349 .0253440
1025.936 .0253493
1026.523 .0253523
1027.109 .0253537
1027.695 .0253541
1028.281 .0253537
1028.867 .0253530
1029.452 .0253531
1030.038 .0253548
1030.623 .0253575
1031.208 .0253609
1031.792 .0253645
1032.377 .0253665
1032.961 .0253672
1033.546 .0253660
1034.130 .0253627
1034.714 .0253581
1035.297 .0253528
1035.881 .0253476
1036.464 .0253441
1037.047 .0253431
1037.630 .0253437
1038.213 .0253460
1038.796 .0253499
1039.378 .0253542
1039.961 .0253580
1040.543 .0253626
1041.125 .0253667
1041.707 .0253708
1042.289 .0253758
1042.871 .0253813
1043.452 .0253874
1044.034 .0253952
1044.615 .0254037
1045.196 .0254130
1045.777 .0254221
1046.358 .0254311
1046.939 .0254377
1047.520 .0254439
1048.101 .0254499
1048.681 .0254547
1049.262 .0254594
1049.842 .0254640
1050.422 .0254675
1051.002 .0254709
1051.582 .0254738
1052.162 .0254760
1052.742 .0254777
1053.322 .0254806
1053.902 .0254835
1054.482 .0254871
1055.061 .0254926
1055.641 .0254997
1056.220 .0255076
1056.800 .0255166
1057.379 .0255248
1057.958 .0255314
1058.538 .0255380
1059.117 .0255440
1059.696 .0255498
1060.275 .0255560
1060.854 .0255628
1061.433 .0255695
1062.012 .0255762
1062.592 .0255821
1063.171 .0255863
1063.750 .0255887
1064.329 .0255902
1064.908 .0255899
1065.487 .0255883
1066.066 .0255867
1066.645 .0255860
1067.224 .0255863
1067.803 .0255876
1068.382 .0255891
1068.961 .0255920
1069.540 .0255946
1070.119 .0255977
1070.698 .0255999
1071.278 .0256028
1071.857 .0256062
1072.436 .0256108
1073.016 .0256173
1073.595 .0256264
1074.175 .0256383
1074.754 .0256512
1075.334 .0256646
1075.913 .0256778
1076.493 .0256888
1077.073 .0256973
1077.653 .0257015
1078.233 .0257028
1078.813 .0256998
1079.393 .0256944
1079.974 .0256877
1080.554 .0256813
1081.135 .0256759
1081.716 .0256720
1082.296 .0256695
1082.877 .0256690
1083.458 .0256689
1084.040 .0256686
1084.621 .0256668
1085.202 .0256635
1085.784 .0256585
1086.366 .0256525
1086.948 .0256464
1087.530 .0256426
1088.112 .0256403
1088.695 .0256403
1089.277 .0256420
1089.860 .0256451
1090.443 .0256478
1091.026 .0256501
1091.610 .0256504
1092.193 .0256488
1092.777 .0256456
1093.361 .0256413
1093.946 .0256354
1094.530 .0256306
1095.115 .0256281
1095.700 .0256272
1096.285 .0256309
1096.871 .0256384
1097.456 .0256499
1098.042 .0256652
1098.628 .0256831
1099.215 .0257001
1099.802 .0257148
1100.389 .0257267
1100.976 .0257333
1101.564 .0257366
1102.152 .0257361
1102.740 .0257297
1103.329 .0257219
1103.917 .0257114
1104.507 .0256990
1105.096 .0256850
1105.686 .0256717
1106.276 .0256566
1106.867 .0256431
1107.457 .0256311
1108.049 .0256197
1108.640 .0256113
1109.232 .0256078
1109.825 .0256078
1110.417 .0256122
1111.010 .0256203
1111.604 .0256318
1112.198 .0256478
1112.792 .0256701
1113.387 .0256933
1113.982 .0257215
1114.577 .0257553
1115.173 .0257906
1115.769 .0258250
1116.366 .0258588
1116.963 .0258885
1117.561 .0259114
1118.159 .0259274
1118.758 .0259340
1119.357 .0259314
1119.957 .0259240
1120.557 .0259102
1121.157 .0258931
1121.758 .0258771
1122.360 .0258630
1122.962 .0258488
1123.564 .0258390
1124.167 .0258331
1124.771 .0258255
1125.375 .0258201
1125.980 .0258157
1126.585 .0258083
1127.191 .0258008
1127.797 .0257962
1128.404 .0257914
1129.012 .0257908
1129.620 .0257972
1130.229 .0258076
1130.838 .0258253
1131.448 .0258499
1132.058 .0258776
1132.669 .0259057
1133.281 .0259354
1133.894 .0259627
1134.507 .0259863
1135.120 .0260134
1135.735 .0260412
1136.350 .0260734
1136.965 .0261142
1137.582 .0261616
1138.199 .0262176
1138.816 .0262823
1139.435 .0263510
1140.054 .0264183
1140.674 .0264876
1141.294 .0265565
1141.916 .0266149
1142.538 .0266624
1143.160 .0266420
1143.784 .0268559
1144.408 .0269399
1145.033 .0267608
