Measurement Sequence started on: 14-45-04-498
Integration time: 36
Scans to Average: 2 
>>>>>Begin Spectral Data<<<<<
433.946 .0803614
434.870 .0661290
435.793 .0559614
436.715 .0553641
437.635 .0537872
438.555 .0542914
439.473 .0523416
440.389 .0511614
441.305 .0504246
442.219 .0498012
443.132 .0493323
444.044 .0489889
444.954 .0487515
445.863 .0485956
446.771 .0485031
447.678 .0484336
448.584 .0483964
449.488 .0483622
450.391 .0483400
451.293 .0483397
452.194 .0483744
453.094 .0484244
453.992 .0484943
454.890 .0485649
455.786 .0486342
456.681 .0486759
457.575 .0486945
458.468 .0486704
459.360 .0486213
460.250 .0485487
461.140 .0484561
462.028 .0483558
462.915 .0482583
463.801 .0481555
464.687 .0480591
465.571 .0479627
466.454 .0478677
467.335 .0477644
468.216 .0476617
469.096 .0475559
469.975 .0474521
470.853 .0473507
471.729 .0472514
472.605 .0471511
473.479 .0470533
474.353 .0469477
475.226 .0468399
476.097 .0467353
476.968 .0466355
477.838 .0465395
478.706 .0464544
479.574 .0463785
480.441 .0463092
481.306 .0462439
482.171 .0461786
483.035 .0461102
483.898 .0460394
484.760 .0459617
485.621 .0458828
486.481 .0458095
487.340 .0457481
488.198 .0456970
489.055 .0456574
489.912 .0456274
490.767 .0456020
491.622 .0455773
492.476 .0455470
493.329 .0455115
494.180 .0454721
495.032 .0454323
495.882 .0453973
496.731 .0453720
497.580 .0453604
498.427 .0453603
499.274 .0453703
500.120 .0453828
500.965 .0453933
501.809 .0453933
502.653 .0453784
503.495 .0453508
504.337 .0453108
505.178 .0452553
506.018 .0451951
506.858 .0451339
507.696 .0450751
508.534 .0450162
509.371 .0449563
510.208 .0448907
511.043 .0448188
511.878 .0447345
512.712 .0446373
513.545 .0445324
514.377 .0444319
515.209 .0443313
516.040 .0442458
516.870 .0441771
517.699 .0441315
518.528 .0440980
519.356 .0440842
520.183 .0440689
521.010 .0440529
521.836 .0440334
522.661 .0440082
523.485 .0439759
524.309 .0439404
525.132 .0438977
525.954 .0438511
526.776 .0437954
527.597 .0437383
528.417 .0436626
529.237 .0435911
530.056 .0435121
530.874 .0434360
531.692 .0433560
532.508 .0432839
533.325 .0432190
534.140 .0431593
534.955 .0431056
535.770 .0430456
536.583 .0429816
537.397 .0429235
538.209 .0428614
539.021 .0428046
539.832 .0427419
540.643 .0426900
541.453 .0426381
542.262 .0425894
543.071 .0425394
543.879 .0424871
544.687 .0424392
545.494 .0423867
546.300 .0423305
547.106 .0422728
547.911 .0422182
548.716 .0421717
549.520 .0421268
550.323 .0420844
551.126 .0420426
551.929 .0420025
552.731 .0419604
553.532 .0419138
554.332 .0418637
555.133 .0418113
555.932 .0417626
556.731 .0417153
557.530 .0416744
558.328 .0416417
559.125 .0416194
559.922 .0416064
560.719 .0415961
561.515 .0415881
562.310 .0415806
563.105 .0415710
563.899 .0415611
564.693 .0415459
565.487 .0415321
566.280 .0415182
567.072 .0415074
567.864 .0414968
568.655 .0414828
569.446 .0414675
570.236 .0414422
571.026 .0414077
571.816 .0413639
572.605 .0413061
573.393 .0412410
574.181 .0411701
574.969 .0410982
575.756 .0410262
576.543 .0409603
577.329 .0409026
578.115 .0408531
578.900 .0408103
579.685 .0407714
580.469 .0407388
581.253 .0407123
582.036 .0406897
582.820 .0406672
583.602 .0406487
584.384 .0406330
585.166 .0406178
585.947 .0406043
586.728 .0405903
587.509 .0405765
588.289 .0405626
589.069 .0405469
589.848 .0405315
590.627 .0405149
591.405 .0404977
592.183 .0404787
592.961 .0404584
593.738 .0404344
594.515 .0404073
595.291 .0403767
596.067 .0403438
596.843 .0403082
597.618 .0402708
598.393 .0402325
599.167 .0401938
599.941 .0401530
600.715 .0401112
601.488 .0400671
602.261 .0400225
603.034 .0399755
603.806 .0399287
604.578 .0398802
605.349 .0398324
606.121 .0397849
606.891 .0397384
607.662 .0396930
608.432 .0396503
609.201 .0396095
609.971 .0395710
610.740 .0395345
611.508 .0394999
612.277 .0394661
613.045 .0394351
613.812 .0394054
614.579 .0393778
615.346 .0393518
616.113 .0393281
616.879 .0393055
617.645 .0392857
618.411 .0392679
619.176 .0392518
619.941 .0392374
620.705 .0392231
621.470 .0392081
622.233 .0391923
622.997 .0391763
623.760 .0391602
624.523 .0391434
625.286 .0391276
626.048 .0391125
626.810 .0390974
627.572 .0390822
628.333 .0390657
629.095 .0390475
629.855 .0390263
630.616 .0390018
631.376 .0389739
632.136 .0389440
632.895 .0389135
633.655 .0388837
634.414 .0388542
635.172 .0388262
635.931 .0387988
636.689 .0387726
637.447 .0387467
638.204 .0387202
638.962 .0386928
639.718 .0386651
640.475 .0386373
641.231 .0386100
641.988 .0385824
642.743 .0385563
643.499 .0385313
644.254 .0385064
645.009 .0384802
645.764 .0384525
646.518 .0384231
647.272 .0383923
648.026 .0383601
648.780 .0383267
649.533 .0382928
650.286 .0382599
651.039 .0382279
651.792 .0381962
652.544 .0381653
653.296 .0381351
654.048 .0381055
654.799 .0380769
655.550 .0380485
656.301 .0380208
657.052 .0379949
657.802 .0379708
658.552 .0379484
659.302 .0379273
660.052 .0379082
660.801 .0378905
661.550 .0378744
662.299 .0378591
663.048 .0378446
663.796 .0378310
664.544 .0378181
665.292 .0378056
666.040 .0377927
666.787 .0377801
667.534 .0377672
668.281 .0377542
669.028 .0377407
669.774 .0377260
670.521 .0377108
671.266 .0376946
672.012 .0376785
672.758 .0376620
673.503 .0376449
674.248 .0376283
674.992 .0376108
675.737 .0375934
676.481 .0375756
677.225 .0375575
677.969 .0375393
678.712 .0375208
679.455 .0375023
680.199 .0374838
680.941 .0374657
681.684 .0374484
682.426 .0374314
683.168 .0374151
683.910 .0373995
684.652 .0373840
685.393 .0373686
686.134 .0373536
686.875 .0373381
687.616 .0373229
688.356 .0373072
689.097 .0372913
689.837 .0372750
690.576 .0372583
691.316 .0372411
692.055 .0372228
692.794 .0372041
693.533 .0371848
694.272 .0371648
695.010 .0371449
695.748 .0371247
696.486 .0371046
697.224 .0370843
697.962 .0370637
698.699 .0370420
699.436 .0370187
700.173 .0369940
700.909 .0369681
701.646 .0369414
702.382 .0369147
703.118 .0368883
703.853 .0368631
704.589 .0368395
705.324 .0368173
706.059 .0367966
706.794 .0367772
707.529 .0367591
708.263 .0367414
708.997 .0367238
709.731 .0367065
710.465 .0366897
711.198 .0366740
711.931 .0366594
712.664 .0366455
713.397 .0366321
714.130 .0366185
714.862 .0366044
715.594 .0365896
716.326 .0365739
717.058 .0365575
717.789 .0365404
718.520 .0365225
719.251 .0365045
719.982 .0364864
720.713 .0364688
721.443 .0364512
722.173 .0364333
722.903 .0364153
723.633 .0363968
724.362 .0363782
725.091 .0363596
725.820 .0363417
726.549 .0363248
727.278 .0363085
728.006 .0362927
728.734 .0362769
729.462 .0362609
730.190 .0362444
730.917 .0362270
731.644 .0362087
732.371 .0361898
733.098 .0361709
733.825 .0361529
734.551 .0361356
735.277 .0361192
736.003 .0361034
736.728 .0360874
737.454 .0360715
738.179 .0360544
738.904 .0360364
739.629 .0360178
740.353 .0359988
741.077 .0359799
741.801 .0359616
742.525 .0359443
743.249 .0359281
743.972 .0359131
744.695 .0358989
745.418 .0358843
746.141 .0358697
746.863 .0358550
747.585 .0358392
748.307 .0358227
749.029 .0358053
749.750 .0357865
750.472 .0357671
751.193 .0357467
751.913 .0357258
752.634 .0357047
753.354 .0356833
754.074 .0356616
754.794 .0356392
755.514 .0356162
756.233 .0355912
756.952 .0355644
757.671 .0355362
758.390 .0355062
759.108 .0354754
759.826 .0354444
760.544 .0354147
761.262 .0353872
761.979 .0353625
762.697 .0353398
763.414 .0353189
764.130 .0352997
764.847 .0352806
765.563 .0352618
766.279 .0352433
766.995 .0352255
767.710 .0352089
768.426 .0351939
769.141 .0351811
769.855 .0351699
770.570 .0351601
771.284 .0351503
771.998 .0351399
772.712 .0351283
773.426 .0351151
774.139 .0351004
774.852 .0350851
775.565 .0350698
776.277 .0350549
776.990 .0350406
777.702 .0350269
778.414 .0350138
779.125 .0350007
779.836 .0349869
780.547 .0349723
781.258 .0349564
781.969 .0349399
782.679 .0349232
783.389 .0349064
784.099 .0348910
784.808 .0348769
785.517 .0348640
786.226 .0348529
786.935 .0348433
787.643 .0348352
788.352 .0348283
789.060 .0348224
789.767 .0348172
790.475 .0348114
791.182 .0348055
791.889 .0347990
792.595 .0347926
793.301 .0347860
794.008 .0347787
794.713 .0347713
795.419 .0347640
796.124 .0347564
796.829 .0347481
797.534 .0347388
798.238 .0347285
798.942 .0347159
799.646 .0347010
800.350 .0346838
801.053 .0346647
801.756 .0346434
802.459 .0346210
803.162 .0345971
803.864 .0345722
804.566 .0345470
805.267 .0345214
805.969 .0344959
806.670 .0344706
807.371 .0344456
808.071 .0344213
808.772 .0343974
809.472 .0343743
810.171 .0343510
810.871 .0343286
811.570 .0343063
812.269 .0342842
812.967 .0342624
813.666 .0342414
814.364 .0342213
815.061 .0342023
815.759 .0341848
816.456 .0341684
817.153 .0341525
817.849 .0341371
818.545 .0341215
819.241 .0341050
819.937 .0340868
820.632 .0340672
821.327 .0340455
822.022 .0340220
822.717 .0339969
823.411 .0339707
824.105 .0339444
824.798 .0339183
825.491 .0338924
826.184 .0338671
826.877 .0338427
827.569 .0338182
828.261 .0337933
828.953 .0337678
829.645 .0337411
830.336 .0337140
831.027 .0336869
831.717 .0336608
832.407 .0336362
833.097 .0336136
833.787 .0335930
834.476 .0335745
835.165 .0335573
835.854 .0335405
836.542 .0335239
837.230 .0335072
837.918 .0334902
838.605 .0334735
839.292 .0334579
839.979 .0334439
840.665 .0334323
841.352 .0334225
842.037 .0334135
842.723 .0334057
843.408 .0333979
844.093 .0333897
844.777 .0333812
845.462 .0333726
846.145 .0333645
846.829 .0333573
847.512 .0333513
848.195 .0333463
848.878 .0333423
849.560 .0333388
850.242 .0333346
850.923 .0333295
851.605 .0333229
852.286 .0333146
852.966 .0333049
853.646 .0332935
854.326 .0332808
855.006 .0332667
855.685 .0332510
856.364 .0332344
857.043 .0332165
857.721 .0331975
858.399 .0331783
859.077 .0331586
859.754 .0331384
860.431 .0331180
861.107 .0330979
861.784 .0330778
862.459 .0330577
863.135 .0330382
863.810 .0330188
864.485 .0330006
865.160 .0329849
865.834 .0329712
866.508 .0329604
867.181 .0329524
867.854 .0329464
868.527 .0329419
869.199 .0329379
869.872 .0329331
870.543 .0329271
871.215 .0329196
871.886 .0329098
872.557 .0328977
873.227 .0328841
873.897 .0328693
874.567 .0328537
875.236 .0328376
875.905 .0328211
876.573 .0328036
877.242 .0327857
877.909 .0327668
878.577 .0327472
879.244 .0327269
879.911 .0327065
880.577 .0326864
881.243 .0326664
881.909 .0326474
882.575 .0326299
883.240 .0326140
883.904 .0325990
884.569 .0325846
885.232 .0325701
885.896 .0325554
886.559 .0325406
887.222 .0325242
887.885 .0325072
888.547 .0324896
889.208 .0324711
889.870 .0324519
890.531 .0324323
891.192 .0324127
891.852 .0323926
892.512 .0323724
893.171 .0323516
893.830 .0323304
894.489 .0323096
895.148 .0322887
895.806 .0322688
896.464 .0322501
897.121 .0322325
897.778 .0322157
898.434 .0322002
899.091 .0321848
899.747 .0321688
900.402 .0321528
901.057 .0321359
901.712 .0321178
902.366 .0320988
903.020 .0320789
903.674 .0320587
904.327 .0320386
904.980 .0320185
905.633 .0319980
906.285 .0319780
906.936 .0319575
907.588 .0319362
908.239 .0319147
908.889 .0318928
909.540 .0318705
910.190 .0318480
910.839 .0318256
911.488 .0318034
912.137 .0317817
912.785 .0317606
913.433 .0317394
914.081 .0317189
914.728 .0316987
915.375 .0316780
916.021 .0316570
916.668 .0316363
917.313 .0316154
917.959 .0315946
918.604 .0315740
919.248 .0315532
919.892 .0315329
920.536 .0315135
921.180 .0314952
921.823 .0314775
922.465 .0314609
923.108 .0314459
923.750 .0314315
924.391 .0314180
925.032 .0314047
925.673 .0313919
926.313 .0313797
926.953 .0313664
927.593 .0313521
928.232 .0313365
928.871 .0313196
929.510 .0313012
930.148 .0312810
930.786 .0312598
931.423 .0312380
932.060 .0312159
932.697 .0311941
933.333 .0311727
933.969 .0311519
934.604 .0311316
935.239 .0311117
935.874 .0310924
936.508 .0310730
937.142 .0310538
937.776 .0310355
938.409 .0310180
939.042 .0310015
939.674 .0309858
940.306 .0309706
940.938 .0309562
941.569 .0309419
942.200 .0309274
942.830 .0309124
943.460 .0308969
944.090 .0308805
944.720 .0308626
945.349 .0308441
945.977 .0308247
946.606 .0308046
947.233 .0307847
947.861 .0307650
948.488 .0307462
949.115 .0307282
949.741 .0307115
950.367 .0306969
950.993 .0306844
951.618 .0306736
952.243 .0306639
952.868 .0306559
953.492 .0306495
954.115 .0306439
954.739 .0306388
955.362 .0306346
955.984 .0306305
956.607 .0306266
957.229 .0306220
957.850 .0306170
958.471 .0306116
959.092 .0306055
959.713 .0305978
960.333 .0305889
960.952 .0305785
961.572 .0305671
962.191 .0305551
962.809 .0305436
963.428 .0305320
964.045 .0305204
964.663 .0305099
965.280 .0304999
965.897 .0304906
966.513 .0304818
967.129 .0304724
967.745 .0304631
968.361 .0304535
968.976 .0304431
969.590 .0304324
970.205 .0304222
970.818 .0304130
971.432 .0304037
972.045 .0303949
972.658 .0303865
973.271 .0303773
973.883 .0303670
974.495 .0303545
975.106 .0303385
975.717 .0303197
976.328 .0302974
976.938 .0302730
977.548 .0302481
978.158 .0302240
978.768 .0302009
979.377 .0301797
979.985 .0301609
980.594 .0301437
981.202 .0301270
981.809 .0301107
982.417 .0300937
983.024 .0300760
983.631 .0300579
984.237 .0300394
984.843 .0300220
985.449 .0300068
986.054 .0299936
986.659 .0299827
987.264 .0299741
987.868 .0299673
988.472 .0299614
989.076 .0299560
989.679 .0299501
990.282 .0299427
990.885 .0299337
991.487 .0299236
992.090 .0299121
992.691 .0299002
993.293 .0298879
993.894 .0298752
994.495 .0298628
995.095 .0298503
995.696 .0298373
996.296 .0298241
996.895 .0298103
997.494 .0297961
998.093 .0297812
998.692 .0297661
999.291 .0297510
999.889 .0297364
1000.487 .0297226
1001.084 .0297093
1001.681 .0296956
1002.278 .0296824
1002.875 .0296688
1003.471 .0296548
1004.067 .0296405
1004.663 .0296260
1005.258 .0296116
1005.854 .0295981
1006.449 .0295850
1007.043 .0295720
1007.638 .0295590
1008.232 .0295465
1008.826 .0295329
1009.419 .0295184
1010.012 .0295030
1010.605 .0294872
1011.198 .0294712
1011.791 .0294568
1012.383 .0294440
1012.975 .0294335
1013.566 .0294259
1014.158 .0294202
1014.749 .0294160
1015.340 .0294125
1015.931 .0294087
1016.521 .0294046
1017.111 .0294002
1017.701 .0293955
1018.291 .0293906
1018.880 .0293867
1019.470 .0293846
1020.059 .0293844
1020.647 .0293853
1021.236 .0293878
1021.824 .0293914
1022.412 .0293947
1023.000 .0293968
1023.588 .0293975
1024.175 .0293965
1024.762 .0293939
1025.349 .0293909
1025.936 .0293867
1026.523 .0293821
1027.109 .0293788
1027.695 .0293759
1028.281 .0293738
1028.867 .0293718
1029.452 .0293697
1030.038 .0293664
1030.623 .0293625
1031.208 .0293574
1031.792 .0293514
1032.377 .0293463
1032.961 .0293424
1033.546 .0293392
1034.130 .0293377
1034.714 .0293379
1035.297 .0293386
1035.881 .0293393
1036.464 .0293398
1037.047 .0293391
1037.630 .0293379
1038.213 .0293359
1038.796 .0293339
1039.378 .0293319
1039.961 .0293306
1040.543 .0293293
1041.125 .0293281
1041.707 .0293267
1042.289 .0293249
1042.871 .0293227
1043.452 .0293195
1044.034 .0293166
1044.615 .0293131
1045.196 .0293098
1045.777 .0293067
1046.358 .0293039
1046.939 .0293012
1047.520 .0292988
1048.101 .0292962
1048.681 .0292939
1049.262 .0292926
1049.842 .0292917
1050.422 .0292913
1051.002 .0292916
1051.582 .0292916
1052.162 .0292905
1052.742 .0292881
1053.322 .0292869
1053.902 .0292850
1054.482 .0292845
1055.061 .0292854
1055.641 .0292887
1056.220 .0292962
1056.800 .0293067
1057.379 .0293189
1057.958 .0293320
1058.538 .0293459
1059.117 .0293586
1059.696 .0293694
1060.275 .0293796
1060.854 .0293876
1061.433 .0293935
1062.012 .0293987
1062.592 .0294027
1063.171 .0294055
1063.750 .0294081
1064.329 .0294090
1064.908 .0294070
1065.487 .0294026
1066.066 .0293948
1066.645 .0293829
1067.224 .0293695
1067.803 .0293542
1068.382 .0293359
1068.961 .0293162
1069.540 .0292972
1070.119 .0292784
1070.698 .0292617
1071.278 .0292479
1071.857 .0292358
1072.436 .0292274
1073.016 .0292223
1073.595 .0292189
1074.175 .0292191
1074.754 .0292221
1075.334 .0292269
1075.913 .0292307
1076.493 .0292349
1077.073 .0292376
1077.653 .0292390
1078.233 .0292399
1078.813 .0292392
1079.393 .0292379
1079.974 .0292357
1080.554 .0292333
1081.135 .0292304
1081.716 .0292273
1082.296 .0292241
1082.877 .0292199
1083.458 .0292152
1084.040 .0292066
1084.621 .0291964
1085.202 .0291839
1085.784 .0291707
1086.366 .0291582
1086.948 .0291465
1087.530 .0291404
1088.112 .0291396
1088.695 .0291437
1089.277 .0291524
1089.860 .0291651
1090.443 .0291798
1091.026 .0291931
1091.610 .0292035
1092.193 .0292078
1092.777 .0292052
1093.361 .0291989
1093.946 .0291891
1094.530 .0291778
1095.115 .0291669
1095.700 .0291579
1096.285 .0291490
1096.871 .0291408
1097.456 .0291296
1098.042 .0291156
1098.628 .0290985
1099.215 .0290767
1099.802 .0290507
1100.389 .0290226
1100.976 .0289965
1101.564 .0289746
1102.152 .0289564
1102.740 .0289451
1103.329 .0289378
1103.917 .0289362
1104.507 .0289386
1105.096 .0289444
1105.686 .0289515
1106.276 .0289593
1106.867 .0289680
1107.457 .0289748
1108.049 .0289794
1108.640 .0289855
1109.232 .0289913
1109.825 .0289994
1110.417 .0290098
1111.010 .0290223
1111.604 .0290372
1112.198 .0290585
1112.792 .0290831
1113.387 .0291093
1113.982 .0291379
1114.577 .0291696
1115.173 .0292005
1115.769 .0292355
1116.366 .0292717
1116.963 .0293095
1117.561 .0293518
1118.159 .0293962
1118.758 .0294404
1119.357 .0294852
1119.957 .0295290
1120.557 .0295671
1121.157 .0295984
1121.758 .0296236
1122.360 .0296401
1122.962 .0296522
1123.564 .0296612
1124.167 .0296694
1124.771 .0296783
1125.375 .0296883
1125.980 .0297007
1126.585 .0297189
1127.191 .0297417
1127.797 .0297698
1128.404 .0298020
1129.012 .0298370
1129.620 .0298769
1130.229 .0299166
1130.838 .0299547
1131.448 .0299902
1132.058 .0300228
1132.669 .0300533
1133.281 .0300835
1133.894 .0301208
1134.507 .0301668
1135.120 .0302236
1135.735 .0302930
1136.350 .0303676
1136.965 .0304440
1137.582 .0305180
1138.199 .0305858
1138.816 .0306449
1139.435 .0307055
1140.054 .0307740
1140.674 .0308438
1141.294 .0309002
1141.916 .0309583
1142.538 .0311978
1143.160 .0314794
1143.784 .0313068
1144.408 .0307206
1145.033 .0309571
