Measurement Sequence started on: 14-45-04-498
Integration time: 36
Scans to Average: 2 
>>>>>Begin Spectral Data<<<<<
433.946 .0542599
434.870 .0495955
435.793 .0479629
436.715 .0463916
437.635 .0442525
438.555 .0453127
439.473 .0444897
440.389 .0439315
441.305 .0434980
442.219 .0431633
443.132 .0429232
444.044 .0427156
444.954 .0425801
445.863 .0425017
446.771 .0424658
447.678 .0424515
448.584 .0424434
449.488 .0424272
450.391 .0423839
451.293 .0423205
452.194 .0422295
453.094 .0421189
453.992 .0419892
454.890 .0418513
455.786 .0417154
456.681 .0415823
457.575 .0414532
458.468 .0413159
459.360 .0411719
460.250 .0410162
461.140 .0408443
462.028 .0406641
462.915 .0404732
463.801 .0402765
464.687 .0400804
465.571 .0398921
466.454 .0397123
467.335 .0395481
468.216 .0393973
469.096 .0392570
469.975 .0391281
470.853 .0390054
471.729 .0388848
472.605 .0387638
473.479 .0386472
474.353 .0385345
475.226 .0384280
476.097 .0383320
476.968 .0382446
477.838 .0381718
478.706 .0381135
479.574 .0380683
480.441 .0380346
481.306 .0380123
482.171 .0379958
483.035 .0379825
483.898 .0379732
484.760 .0379643
485.621 .0379554
486.481 .0379476
487.340 .0379413
488.198 .0379354
489.055 .0379282
489.912 .0379174
490.767 .0379000
491.622 .0378781
492.476 .0378476
493.329 .0378056
494.180 .0377526
495.032 .0376915
495.882 .0376194
496.731 .0375415
497.580 .0374599
498.427 .0373769
499.274 .0372949
500.120 .0372156
500.965 .0371395
501.809 .0370679
502.653 .0370011
503.495 .0369382
504.337 .0368783
505.178 .0368227
506.018 .0367665
506.858 .0367118
507.696 .0366623
508.534 .0366159
509.371 .0365711
510.208 .0365319
511.043 .0364994
511.878 .0364730
512.712 .0364504
513.545 .0364313
514.377 .0364176
515.209 .0364045
516.040 .0363879
516.870 .0363648
517.699 .0363363
518.528 .0363009
519.356 .0362585
520.183 .0362079
521.010 .0361534
521.836 .0360968
522.661 .0360439
523.485 .0359912
524.309 .0359406
525.132 .0358880
525.954 .0358297
526.776 .0357638
527.597 .0356885
528.417 .0355995
529.237 .0355041
530.056 .0354067
530.874 .0353113
531.692 .0352249
532.508 .0351566
533.325 .0351036
534.140 .0350713
534.955 .0350498
535.770 .0350352
536.583 .0350234
537.397 .0350147
538.209 .0350062
539.021 .0349942
539.832 .0349807
540.643 .0349632
541.453 .0349430
542.262 .0349209
543.071 .0348830
543.879 .0348396
544.687 .0347871
545.494 .0347243
546.300 .0346544
547.106 .0345881
547.911 .0345299
548.716 .0344860
549.520 .0344540
550.323 .0344344
551.126 .0344240
551.929 .0344217
552.731 .0344135
553.532 .0344021
554.332 .0343883
555.133 .0343726
555.932 .0343484
556.731 .0343269
557.530 .0343065
558.328 .0342924
559.125 .0342836
559.922 .0342798
560.719 .0342765
561.515 .0342737
562.310 .0342668
563.105 .0342554
563.899 .0342371
564.693 .0342155
565.487 .0341859
566.280 .0341528
567.072 .0341191
567.864 .0340828
568.655 .0340441
569.446 .0340095
570.236 .0339764
571.026 .0339446
571.816 .0339138
572.605 .0338840
573.393 .0338543
574.181 .0338249
574.969 .0337956
575.756 .0337625
576.543 .0337286
577.329 .0336903
578.115 .0336458
578.900 .0335979
579.685 .0335475
580.469 .0334970
581.253 .0334492
582.036 .0334046
582.820 .0333631
583.602 .0333247
584.384 .0332905
585.166 .0332578
585.947 .0332267
586.728 .0331945
587.509 .0331617
588.289 .0331276
589.069 .0330942
589.848 .0330622
590.627 .0330325
591.405 .0330068
592.183 .0329844
592.961 .0329652
593.738 .0329472
594.515 .0329310
595.291 .0329150
596.067 .0328985
596.843 .0328814
597.618 .0328625
598.393 .0328426
599.167 .0328221
599.941 .0328016
600.715 .0327806
601.488 .0327603
602.261 .0327411
603.034 .0327213
603.806 .0327026
604.578 .0326835
605.349 .0326643
606.121 .0326445
606.891 .0326245
607.662 .0326031
608.432 .0325813
609.201 .0325600
609.971 .0325390
610.740 .0325192
611.508 .0325006
612.277 .0324826
613.045 .0324654
613.812 .0324487
614.579 .0324317
615.346 .0324141
616.113 .0323965
616.879 .0323787
617.645 .0323615
618.411 .0323451
619.176 .0323302
619.941 .0323166
620.705 .0323050
621.470 .0322944
622.233 .0322840
622.997 .0322731
623.760 .0322615
624.523 .0322485
625.286 .0322341
626.048 .0322183
626.810 .0322013
627.572 .0321826
628.333 .0321630
629.095 .0321419
629.855 .0321194
630.616 .0320955
631.376 .0320704
632.136 .0320443
632.895 .0320180
633.655 .0319911
634.414 .0319641
635.172 .0319376
635.931 .0319119
636.689 .0318861
637.447 .0318616
638.204 .0318377
638.962 .0318148
639.718 .0317938
640.475 .0317747
641.231 .0317570
641.988 .0317412
642.743 .0317267
643.499 .0317126
644.254 .0316983
645.009 .0316838
645.764 .0316684
646.518 .0316540
647.272 .0316403
648.026 .0316273
648.780 .0316153
649.533 .0316054
650.286 .0315960
651.039 .0315872
651.792 .0315780
652.544 .0315684
653.296 .0315579
654.048 .0315467
654.799 .0315350
655.550 .0315229
656.301 .0315118
657.052 .0315010
657.802 .0314904
658.552 .0314802
659.302 .0314688
660.052 .0314565
660.801 .0314432
661.550 .0314286
662.299 .0314127
663.048 .0313961
663.796 .0313798
664.544 .0313638
665.292 .0313482
666.040 .0313333
666.787 .0313192
667.534 .0313060
668.281 .0312933
669.028 .0312804
669.774 .0312681
670.521 .0312562
671.266 .0312444
672.012 .0312333
672.758 .0312228
673.503 .0312125
674.248 .0312026
674.992 .0311924
675.737 .0311821
676.481 .0311713
677.225 .0311600
677.969 .0311482
678.712 .0311363
679.455 .0311241
680.199 .0311117
680.941 .0310995
681.684 .0310878
682.426 .0310760
683.168 .0310640
683.910 .0310515
684.652 .0310384
685.393 .0310245
686.134 .0310104
686.875 .0309965
687.616 .0309840
688.356 .0309730
689.097 .0309636
689.837 .0309555
690.576 .0309484
691.316 .0309414
692.055 .0309338
692.794 .0309248
693.533 .0309149
694.272 .0309036
695.010 .0308919
695.748 .0308805
696.486 .0308702
697.224 .0308612
697.962 .0308532
698.699 .0308454
699.436 .0308372
700.173 .0308278
700.909 .0308173
701.646 .0308053
702.382 .0307926
703.118 .0307791
703.853 .0307660
704.589 .0307536
705.324 .0307422
706.059 .0307321
706.794 .0307226
707.529 .0307133
708.263 .0307037
708.997 .0306933
709.731 .0306816
710.465 .0306688
711.198 .0306554
711.931 .0306410
712.664 .0306258
713.397 .0306103
714.130 .0305939
714.862 .0305774
715.594 .0305608
716.326 .0305438
717.058 .0305265
717.789 .0305090
718.520 .0304911
719.251 .0304727
719.982 .0304538
720.713 .0304347
721.443 .0304148
722.173 .0303947
722.903 .0303746
723.633 .0303553
724.362 .0303371
725.091 .0303202
725.820 .0303046
726.549 .0302906
727.278 .0302771
728.006 .0302641
728.734 .0302507
729.462 .0302371
730.190 .0302231
730.917 .0302085
731.644 .0301940
732.371 .0301808
733.098 .0301689
733.825 .0301586
734.551 .0301496
735.277 .0301421
736.003 .0301346
736.728 .0301274
737.454 .0301200
738.179 .0301120
738.904 .0301033
739.629 .0300942
740.353 .0300846
741.077 .0300755
741.801 .0300667
742.525 .0300582
743.249 .0300503
743.972 .0300425
744.695 .0300340
745.418 .0300247
746.141 .0300143
746.863 .0300028
747.585 .0299899
748.307 .0299761
749.029 .0299609
749.750 .0299447
750.472 .0299282
751.193 .0299113
751.913 .0298948
752.634 .0298787
753.354 .0298632
754.074 .0298486
754.794 .0298349
755.514 .0298221
756.233 .0298099
756.952 .0297986
757.671 .0297882
758.390 .0297780
759.108 .0297682
759.826 .0297592
760.544 .0297512
761.262 .0297441
761.979 .0297380
762.697 .0297324
763.414 .0297271
764.130 .0297218
764.847 .0297160
765.563 .0297095
766.279 .0297019
766.995 .0296935
767.710 .0296838
768.426 .0296733
769.141 .0296615
769.855 .0296484
770.570 .0296342
771.284 .0296190
771.998 .0296023
772.712 .0295841
773.426 .0295649
774.139 .0295453
774.852 .0295255
775.565 .0295061
776.277 .0294869
776.990 .0294685
777.702 .0294505
778.414 .0294333
779.125 .0294159
779.836 .0293991
780.547 .0293827
781.258 .0293667
781.969 .0293516
782.679 .0293374
783.389 .0293238
784.099 .0293115
784.808 .0292999
785.517 .0292890
786.226 .0292782
786.935 .0292681
787.643 .0292583
788.352 .0292490
789.060 .0292403
789.767 .0292320
790.475 .0292238
791.182 .0292159
791.889 .0292074
792.595 .0291984
793.301 .0291886
794.008 .0291780
794.713 .0291665
795.419 .0291546
796.124 .0291425
796.829 .0291304
797.534 .0291186
798.238 .0291070
798.942 .0290950
799.646 .0290827
800.350 .0290699
801.053 .0290561
801.756 .0290417
802.459 .0290268
803.162 .0290119
803.864 .0289971
804.566 .0289830
805.267 .0289697
805.969 .0289573
806.670 .0289460
807.371 .0289353
808.071 .0289252
808.772 .0289155
809.472 .0289058
810.171 .0288966
810.871 .0288879
811.570 .0288798
812.269 .0288721
812.967 .0288655
813.666 .0288598
814.364 .0288547
815.061 .0288501
815.759 .0288458
816.456 .0288416
817.153 .0288371
817.849 .0288318
818.545 .0288258
819.241 .0288192
819.937 .0288117
820.632 .0288033
821.327 .0287934
822.022 .0287826
822.717 .0287706
823.411 .0287575
824.105 .0287436
824.798 .0287289
825.491 .0287133
826.184 .0286970
826.877 .0286803
827.569 .0286633
828.261 .0286459
828.953 .0286283
829.645 .0286106
830.336 .0285931
831.027 .0285761
831.717 .0285596
832.407 .0285441
833.097 .0285298
833.787 .0285158
834.476 .0285018
835.165 .0284879
835.854 .0284736
836.542 .0284588
837.230 .0284437
837.918 .0284281
838.605 .0284118
839.292 .0283956
839.979 .0283796
840.665 .0283641
841.352 .0283496
842.037 .0283359
842.723 .0283229
843.408 .0283105
844.093 .0282983
844.777 .0282858
845.462 .0282734
846.145 .0282606
846.829 .0282468
847.512 .0282327
848.195 .0282180
848.878 .0282033
849.560 .0281888
850.242 .0281746
850.923 .0281607
851.605 .0281466
852.286 .0281320
852.966 .0281164
853.646 .0280996
854.326 .0280819
855.006 .0280631
855.685 .0280437
856.364 .0280240
857.043 .0280044
857.721 .0279855
858.399 .0279676
859.077 .0279507
859.754 .0279343
860.431 .0279176
861.107 .0279008
861.784 .0278833
862.459 .0278649
863.135 .0278463
863.810 .0278282
864.485 .0278105
865.160 .0277943
865.834 .0277800
866.508 .0277676
867.181 .0277571
867.854 .0277481
868.527 .0277396
869.199 .0277312
869.872 .0277231
870.543 .0277149
871.215 .0277072
871.886 .0277007
872.557 .0276950
873.227 .0276907
873.897 .0276879
874.567 .0276860
875.236 .0276841
875.905 .0276824
876.573 .0276802
877.242 .0276766
877.909 .0276716
878.577 .0276658
879.244 .0276594
879.911 .0276532
880.577 .0276473
881.243 .0276417
881.909 .0276365
882.575 .0276314
883.240 .0276262
883.904 .0276210
884.569 .0276160
885.232 .0276111
885.896 .0276060
886.559 .0276016
887.222 .0275976
887.885 .0275937
888.547 .0275904
889.208 .0275874
889.870 .0275843
890.531 .0275809
891.192 .0275771
891.852 .0275728
892.512 .0275679
893.171 .0275626
893.830 .0275566
894.489 .0275503
895.148 .0275434
895.806 .0275360
896.464 .0275280
897.121 .0275200
897.778 .0275115
898.434 .0275026
899.091 .0274932
899.747 .0274830
900.402 .0274720
901.057 .0274601
901.712 .0274476
902.366 .0274346
903.020 .0274211
903.674 .0274080
904.327 .0273949
904.980 .0273822
905.633 .0273695
906.285 .0273575
906.936 .0273450
907.588 .0273323
908.239 .0273188
908.889 .0273049
909.540 .0272905
910.190 .0272754
910.839 .0272603
911.488 .0272457
912.137 .0272312
912.785 .0272168
913.433 .0272023
914.081 .0271875
914.728 .0271718
915.375 .0271551
916.021 .0271372
916.668 .0271184
917.313 .0270989
917.959 .0270788
918.604 .0270584
919.248 .0270380
919.892 .0270175
920.536 .0269970
921.180 .0269771
921.823 .0269571
922.465 .0269371
923.108 .0269174
923.750 .0268975
924.391 .0268773
925.032 .0268568
925.673 .0268362
926.313 .0268155
926.953 .0267944
927.593 .0267728
928.232 .0267506
928.871 .0267283
929.510 .0267058
930.148 .0266828
930.786 .0266602
931.423 .0266375
932.060 .0266149
932.697 .0265923
933.333 .0265696
933.969 .0265468
934.604 .0265239
935.239 .0265007
935.874 .0264775
936.508 .0264545
937.142 .0264323
937.776 .0264116
938.409 .0263927
939.042 .0263752
939.674 .0263591
940.306 .0263439
940.938 .0263292
941.569 .0263146
942.200 .0262998
942.830 .0262845
943.460 .0262690
944.090 .0262536
944.720 .0262383
945.349 .0262241
945.977 .0262109
946.606 .0261987
947.233 .0261873
947.861 .0261762
948.488 .0261644
949.115 .0261520
949.741 .0261389
950.367 .0261250
950.993 .0261104
951.618 .0260955
952.243 .0260809
952.868 .0260668
953.492 .0260535
954.115 .0260410
954.739 .0260295
955.362 .0260190
955.984 .0260090
956.607 .0259997
957.229 .0259912
957.850 .0259838
958.471 .0259769
959.092 .0259711
959.713 .0259661
960.333 .0259616
960.952 .0259577
961.572 .0259545
962.191 .0259518
962.809 .0259495
963.428 .0259472
964.045 .0259450
964.663 .0259430
965.280 .0259412
965.897 .0259391
966.513 .0259373
967.129 .0259360
967.745 .0259348
968.361 .0259336
968.976 .0259326
969.590 .0259317
970.205 .0259307
970.818 .0259299
971.432 .0259291
972.045 .0259286
972.658 .0259292
973.271 .0259302
973.883 .0259317
974.495 .0259334
975.106 .0259348
975.717 .0259354
976.328 .0259355
976.938 .0259352
977.548 .0259346
978.158 .0259345
978.768 .0259346
979.377 .0259352
979.985 .0259360
980.594 .0259371
981.202 .0259378
981.809 .0259376
982.417 .0259369
983.024 .0259353
983.631 .0259333
984.237 .0259313
984.843 .0259292
985.449 .0259274
986.054 .0259252
986.659 .0259226
987.264 .0259190
987.868 .0259146
988.472 .0259096
989.076 .0259043
989.679 .0258992
990.282 .0258939
990.885 .0258884
991.487 .0258829
992.090 .0258773
992.691 .0258713
993.293 .0258645
993.894 .0258569
994.495 .0258488
995.095 .0258406
995.696 .0258321
996.296 .0258239
996.895 .0258160
997.494 .0258085
998.093 .0258006
998.692 .0257920
999.291 .0257825
999.889 .0257718
1000.487 .0257608
1001.084 .0257489
1001.681 .0257363
1002.278 .0257239
1002.875 .0257117
1003.471 .0257003
1004.067 .0256897
1004.663 .0256797
1005.258 .0256699
1005.854 .0256606
1006.449 .0256512
1007.043 .0256413
1007.638 .0256307
1008.232 .0256198
1008.826 .0256085
1009.419 .0255975
1010.012 .0255867
1010.605 .0255764
1011.198 .0255671
1011.791 .0255586
1012.383 .0255501
1012.975 .0255414
1013.566 .0255318
1014.158 .0255215
1014.749 .0255105
1015.340 .0254992
1015.931 .0254878
1016.521 .0254769
1017.111 .0254669
1017.701 .0254577
1018.291 .0254486
1018.880 .0254390
1019.470 .0254287
1020.059 .0254177
1020.647 .0254054
1021.236 .0253923
1021.824 .0253793
1022.412 .0253668
1023.000 .0253551
1023.588 .0253446
1024.175 .0253355
1024.762 .0253278
1025.349 .0253209
1025.936 .0253144
1026.523 .0253081
1027.109 .0253020
1027.695 .0252960
1028.281 .0252893
1028.867 .0252830
1029.452 .0252766
1030.038 .0252697
1030.623 .0252625
1031.208 .0252553
1031.792 .0252484
1032.377 .0252420
1032.961 .0252363
1033.546 .0252310
1034.130 .0252260
1034.714 .0252212
1035.297 .0252156
1035.881 .0252098
1036.464 .0252039
1037.047 .0251980
1037.630 .0251925
1038.213 .0251891
1038.796 .0251876
1039.378 .0251881
1039.961 .0251905
1040.543 .0251941
1041.125 .0251980
1041.707 .0252012
1042.289 .0252030
1042.871 .0252033
1043.452 .0252025
1044.034 .0252007
1044.615 .0251975
1045.196 .0251944
1045.777 .0251909
1046.358 .0251874
1046.939 .0251825
1047.520 .0251773
1048.101 .0251706
1048.681 .0251627
1049.262 .0251540
1049.842 .0251446
1050.422 .0251348
1051.002 .0251252
1051.582 .0251158
1052.162 .0251080
1052.742 .0251007
1053.322 .0250951
1053.902 .0250897
1054.482 .0250861
1055.061 .0250838
1055.641 .0250833
1056.220 .0250847
1056.800 .0250897
1057.379 .0250969
1057.958 .0251067
1058.538 .0251179
1059.117 .0251300
1059.696 .0251428
1060.275 .0251563
1060.854 .0251691
1061.433 .0251815
1062.012 .0251922
1062.592 .0252029
1063.171 .0252121
1063.750 .0252216
1064.329 .0252298
1064.908 .0252369
1065.487 .0252418
1066.066 .0252440
1066.645 .0252436
1067.224 .0252407
1067.803 .0252364
1068.382 .0252316
1068.961 .0252267
1069.540 .0252237
1070.119 .0252225
1070.698 .0252244
1071.278 .0252298
1071.857 .0252390
1072.436 .0252495
1073.016 .0252616
1073.595 .0252751
1074.175 .0252899
1074.754 .0253056
1075.334 .0253223
1075.913 .0253402
1076.493 .0253584
1077.073 .0253759
1077.653 .0253913
1078.233 .0254046
1078.813 .0254155
1079.393 .0254231
1079.974 .0254278
1080.554 .0254298
1081.135 .0254285
1081.716 .0254248
1082.296 .0254197
1082.877 .0254141
1083.458 .0254069
1084.040 .0253977
1084.621 .0253869
1085.202 .0253749
1085.784 .0253605
1086.366 .0253440
1086.948 .0253271
1087.530 .0253110
1088.112 .0252956
1088.695 .0252823
1089.277 .0252710
1089.860 .0252629
1090.443 .0252570
1091.026 .0252531
1091.610 .0252507
1092.193 .0252497
1092.777 .0252500
1093.361 .0252512
1093.946 .0252545
1094.530 .0252595
1095.115 .0252660
1095.700 .0252749
1096.285 .0252856
1096.871 .0252975
1097.456 .0253091
1098.042 .0253203
1098.628 .0253298
1099.215 .0253361
1099.802 .0253395
1100.389 .0253387
1100.976 .0253346
1101.564 .0253287
1102.152 .0253208
1102.740 .0253127
1103.329 .0253042
1103.917 .0252957
1104.507 .0252864
1105.096 .0252759
1105.686 .0252632
1106.276 .0252474
1106.867 .0252300
1107.457 .0252131
1108.049 .0251978
1108.640 .0251870
1109.232 .0251816
1109.825 .0251828
1110.417 .0251908
1111.010 .0252027
1111.604 .0252165
1112.198 .0252322
1112.792 .0252475
1113.387 .0252635
1113.982 .0252789
1114.577 .0252951
1115.173 .0253125
1115.769 .0253319
1116.366 .0253527
1116.963 .0253745
1117.561 .0253958
1118.159 .0254149
1118.758 .0254325
1119.357 .0254490
1119.957 .0254619
1120.557 .0254746
1121.157 .0254880
1121.758 .0255018
1122.360 .0255151
1122.962 .0255263
1123.564 .0255353
1124.167 .0255450
1124.771 .0255549
1125.375 .0255643
1125.980 .0255765
1126.585 .0255959
1127.191 .0256185
1127.797 .0256465
1128.404 .0256790
1129.012 .0257121
1129.620 .0257460
1130.229 .0257811
1130.838 .0258130
1131.448 .0258444
1132.058 .0258779
1132.669 .0259137
1133.281 .0259531
1133.894 .0259976
1134.507 .0260423
1135.120 .0260884
1135.735 .0261364
1136.350 .0261826
1136.965 .0262225
1137.582 .0262612
1138.199 .0262972
1138.816 .0263302
1139.435 .0263596
1140.054 .0263858
1140.674 .0264073
1141.294 .0264289
1141.916 .0264452
1142.538 .0264525
1143.160 .0264964
1143.784 .0264321
1144.408 .0265229
1145.033 .0264697
