Measurement Sequence started on: 14-45-04-498
Integration time: 36
Scans to Average: 2 
>>>>>Begin Spectral Data<<<<<
433.946 .0531710
434.870 .0469824
435.793 .0502758
436.715 .0508311
437.635 .0493842
438.555 .0498481
439.473 .0497190
440.389 .0497408
441.305 .0496686
442.219 .0496077
443.132 .0495980
444.044 .0495731
444.954 .0495674
445.863 .0495662
446.771 .0495455
447.678 .0495068
448.584 .0494660
449.488 .0494176
450.391 .0493749
451.293 .0493347
452.194 .0493016
453.094 .0492689
453.992 .0492272
454.890 .0491673
455.786 .0490880
456.681 .0489977
457.575 .0488891
458.468 .0487718
459.360 .0486525
460.250 .0485459
461.140 .0484492
462.028 .0483680
462.915 .0482947
463.801 .0482217
464.687 .0481491
465.571 .0480698
466.454 .0479859
467.335 .0478983
468.216 .0478107
469.096 .0477237
469.975 .0476430
470.853 .0475680
471.729 .0474979
472.605 .0474326
473.479 .0473690
474.353 .0473027
475.226 .0472342
476.097 .0471585
476.968 .0470773
477.838 .0469929
478.706 .0469085
479.574 .0468225
480.441 .0467394
481.306 .0466556
482.171 .0465742
483.035 .0464937
483.898 .0464190
484.760 .0463489
485.621 .0462881
486.481 .0462331
487.340 .0461869
488.198 .0461497
489.055 .0461211
489.912 .0460953
490.767 .0460765
491.622 .0460594
492.476 .0460419
493.329 .0460232
494.180 .0460030
495.032 .0459824
495.882 .0459641
496.731 .0459452
497.580 .0459258
498.427 .0459039
499.274 .0458782
500.120 .0458444
500.965 .0458030
501.809 .0457518
502.653 .0456885
503.495 .0456173
504.337 .0455395
505.178 .0454547
506.018 .0453698
506.858 .0452884
507.696 .0452125
508.534 .0451424
509.371 .0450740
510.208 .0450069
511.043 .0449417
511.878 .0448778
512.712 .0448134
513.545 .0447513
514.377 .0446961
515.209 .0446439
516.040 .0446009
516.870 .0445656
517.699 .0445381
518.528 .0445168
519.356 .0445035
520.183 .0444932
521.010 .0444878
521.836 .0444843
522.661 .0444856
523.485 .0444946
524.309 .0445140
525.132 .0445364
525.954 .0445614
526.776 .0445849
527.597 .0446025
528.417 .0446031
529.237 .0445911
530.056 .0445655
530.874 .0445260
531.692 .0444768
532.508 .0444219
533.325 .0443602
534.140 .0442976
534.955 .0442302
535.770 .0441551
536.583 .0440698
537.397 .0439799
538.209 .0438873
539.021 .0437933
539.832 .0437106
540.643 .0436365
541.453 .0435741
542.262 .0435247
543.071 .0434795
543.879 .0434306
544.687 .0433785
545.494 .0433185
546.300 .0432493
547.106 .0431759
547.911 .0431022
548.716 .0430319
549.520 .0429678
550.323 .0429117
551.126 .0428581
551.929 .0428007
552.731 .0427390
553.532 .0426622
554.332 .0425744
555.133 .0424779
555.932 .0423749
556.731 .0422750
557.530 .0421833
558.328 .0421051
559.125 .0420421
559.922 .0419968
560.719 .0419621
561.515 .0419337
562.310 .0419073
563.105 .0418797
563.899 .0418488
564.693 .0418178
565.487 .0417884
566.280 .0417602
567.072 .0417389
567.864 .0417227
568.655 .0417092
569.446 .0417018
570.236 .0416937
571.026 .0416831
571.816 .0416681
572.605 .0416472
573.393 .0416196
574.181 .0415885
574.969 .0415520
575.756 .0415096
576.543 .0414622
577.329 .0414100
578.115 .0413520
578.900 .0412915
579.685 .0412332
580.469 .0411755
581.253 .0411233
582.036 .0410778
582.820 .0410364
583.602 .0410010
584.384 .0409690
585.166 .0409374
585.947 .0409052
586.728 .0408694
587.509 .0408295
588.289 .0407871
589.069 .0407441
589.848 .0407010
590.627 .0406596
591.405 .0406209
592.183 .0405849
592.961 .0405509
593.738 .0405190
594.515 .0404865
595.291 .0404527
596.067 .0404177
596.843 .0403801
597.618 .0403403
598.393 .0402998
599.167 .0402593
599.941 .0402206
600.715 .0401833
601.488 .0401485
602.261 .0401158
603.034 .0400849
603.806 .0400561
604.578 .0400281
605.349 .0400005
606.121 .0399732
606.891 .0399455
607.662 .0399180
608.432 .0398917
609.201 .0398672
609.971 .0398449
610.740 .0398251
611.508 .0398083
612.277 .0397929
613.045 .0397791
613.812 .0397661
614.579 .0397527
615.346 .0397385
616.113 .0397241
616.879 .0397084
617.645 .0396921
618.411 .0396755
619.176 .0396580
619.941 .0396398
620.705 .0396211
621.470 .0396013
622.233 .0395800
622.997 .0395578
623.760 .0395344
624.523 .0395092
625.286 .0394828
626.048 .0394546
626.810 .0394245
627.572 .0393930
628.333 .0393604
629.095 .0393265
629.855 .0392921
630.616 .0392584
631.376 .0392253
632.136 .0391936
632.895 .0391627
633.655 .0391328
634.414 .0391034
635.172 .0390740
635.931 .0390438
636.689 .0390126
637.447 .0389807
638.204 .0389482
638.962 .0389148
639.718 .0388823
640.475 .0388502
641.231 .0388188
641.988 .0387880
642.743 .0387572
643.499 .0387258
644.254 .0386937
645.009 .0386609
645.764 .0386280
646.518 .0385947
647.272 .0385619
648.026 .0385297
648.780 .0384990
649.533 .0384708
650.286 .0384446
651.039 .0384215
651.792 .0384017
652.544 .0383844
653.296 .0383691
654.048 .0383555
654.799 .0383430
655.550 .0383305
656.301 .0383177
657.052 .0383046
657.802 .0382905
658.552 .0382764
659.302 .0382622
660.052 .0382476
660.801 .0382332
661.550 .0382182
662.299 .0382019
663.048 .0381839
663.796 .0381642
664.544 .0381420
665.292 .0381176
666.040 .0380921
666.787 .0380652
667.534 .0380382
668.281 .0380119
669.028 .0379867
669.774 .0379629
670.521 .0379402
671.266 .0379180
672.012 .0378966
672.758 .0378758
673.503 .0378547
674.248 .0378339
674.992 .0378136
675.737 .0377936
676.481 .0377739
677.225 .0377545
677.969 .0377352
678.712 .0377152
679.455 .0376949
680.199 .0376729
680.941 .0376497
681.684 .0376252
682.426 .0375985
683.168 .0375708
683.910 .0375418
684.652 .0375119
685.393 .0374815
686.134 .0374513
686.875 .0374219
687.616 .0373932
688.356 .0373657
689.097 .0373396
689.837 .0373145
690.576 .0372905
691.316 .0372670
692.055 .0372442
692.794 .0372217
693.533 .0371996
694.272 .0371780
695.010 .0371578
695.748 .0371384
696.486 .0371199
697.224 .0371022
697.962 .0370848
698.699 .0370675
699.436 .0370497
700.173 .0370314
700.909 .0370128
701.646 .0369936
702.382 .0369745
703.118 .0369556
703.853 .0369381
704.589 .0369215
705.324 .0369061
706.059 .0368918
706.794 .0368781
707.529 .0368647
708.263 .0368515
708.997 .0368389
709.731 .0368263
710.465 .0368141
711.198 .0368015
711.931 .0367883
712.664 .0367742
713.397 .0367588
714.130 .0367418
714.862 .0367233
715.594 .0367034
716.326 .0366826
717.058 .0366610
717.789 .0366399
718.520 .0366185
719.251 .0365973
719.982 .0365759
720.713 .0365541
721.443 .0365312
722.173 .0365070
722.903 .0364819
723.633 .0364567
724.362 .0364311
725.091 .0364060
725.820 .0363816
726.549 .0363584
727.278 .0363358
728.006 .0363138
728.734 .0362912
729.462 .0362683
730.190 .0362447
730.917 .0362204
731.644 .0361955
732.371 .0361705
733.098 .0361457
733.825 .0361218
734.551 .0360988
735.277 .0360766
736.003 .0360549
736.728 .0360344
737.454 .0360142
738.179 .0359948
738.904 .0359758
739.629 .0359576
740.353 .0359405
741.077 .0359246
741.801 .0359093
742.525 .0358947
743.249 .0358807
743.972 .0358671
744.695 .0358535
745.418 .0358398
746.141 .0358253
746.863 .0358109
747.585 .0357962
748.307 .0357816
749.029 .0357666
749.750 .0357518
750.472 .0357368
751.193 .0357218
751.913 .0357063
752.634 .0356905
753.354 .0356747
754.074 .0356589
754.794 .0356432
755.514 .0356278
756.233 .0356127
756.952 .0355983
757.671 .0355847
758.390 .0355722
759.108 .0355597
759.826 .0355478
760.544 .0355361
761.262 .0355244
761.979 .0355122
762.697 .0354994
763.414 .0354861
764.130 .0354727
764.847 .0354590
765.563 .0354450
766.279 .0354312
766.995 .0354179
767.710 .0354046
768.426 .0353912
769.141 .0353781
769.855 .0353647
770.570 .0353509
771.284 .0353371
771.998 .0353228
772.712 .0353082
773.426 .0352937
774.139 .0352800
774.852 .0352671
775.565 .0352548
776.277 .0352431
776.990 .0352321
777.702 .0352216
778.414 .0352110
779.125 .0351999
779.836 .0351886
780.547 .0351771
781.258 .0351649
781.969 .0351519
782.679 .0351390
783.389 .0351262
784.099 .0351134
784.808 .0351004
785.517 .0350876
786.226 .0350741
786.935 .0350602
787.643 .0350458
788.352 .0350308
789.060 .0350149
789.767 .0349984
790.475 .0349811
791.182 .0349634
791.889 .0349456
792.595 .0349275
793.301 .0349092
794.008 .0348914
794.713 .0348730
795.419 .0348547
796.124 .0348361
796.829 .0348179
797.534 .0347995
798.238 .0347816
798.942 .0347641
799.646 .0347469
800.350 .0347299
801.053 .0347131
801.756 .0346961
802.459 .0346790
803.162 .0346618
803.864 .0346441
804.566 .0346265
805.267 .0346089
805.969 .0345911
806.670 .0345736
807.371 .0345563
808.071 .0345390
808.772 .0345214
809.472 .0345032
810.171 .0344843
810.871 .0344644
811.570 .0344443
812.269 .0344238
812.967 .0344037
813.666 .0343841
814.364 .0343655
815.061 .0343479
815.759 .0343316
816.456 .0343163
817.153 .0343018
817.849 .0342876
818.545 .0342734
819.241 .0342588
819.937 .0342439
820.632 .0342283
821.327 .0342122
822.022 .0341952
822.717 .0341782
823.411 .0341605
824.105 .0341429
824.798 .0341252
825.491 .0341076
826.184 .0340899
826.877 .0340724
827.569 .0340541
828.261 .0340356
828.953 .0340170
829.645 .0339982
830.336 .0339796
831.027 .0339620
831.717 .0339456
832.407 .0339313
833.097 .0339192
833.787 .0339088
834.476 .0338997
835.165 .0338921
835.854 .0338852
836.542 .0338787
837.230 .0338722
837.918 .0338654
838.605 .0338588
839.292 .0338527
839.979 .0338469
840.665 .0338415
841.352 .0338368
842.037 .0338323
842.723 .0338274
843.408 .0338217
844.093 .0338149
844.777 .0338074
845.462 .0337994
846.145 .0337906
846.829 .0337811
847.512 .0337713
848.195 .0337617
848.878 .0337519
849.560 .0337417
850.242 .0337306
850.923 .0337185
851.605 .0337053
852.286 .0336906
852.966 .0336749
853.646 .0336582
854.326 .0336416
855.006 .0336251
855.685 .0336083
856.364 .0335912
857.043 .0335740
857.721 .0335568
858.399 .0335390
859.077 .0335205
859.754 .0335011
860.431 .0334807
861.107 .0334601
861.784 .0334394
862.459 .0334191
863.135 .0333994
863.810 .0333806
864.485 .0333622
865.160 .0333445
865.834 .0333272
866.508 .0333102
867.181 .0332933
867.854 .0332761
868.527 .0332583
869.199 .0332397
869.872 .0332204
870.543 .0332007
871.215 .0331802
871.886 .0331591
872.557 .0331368
873.227 .0331140
873.897 .0330908
874.567 .0330670
875.236 .0330431
875.905 .0330195
876.573 .0329960
877.242 .0329727
877.909 .0329495
878.577 .0329268
879.244 .0329040
879.911 .0328816
880.577 .0328589
881.243 .0328363
881.909 .0328143
882.575 .0327930
883.240 .0327726
883.904 .0327538
884.569 .0327363
885.232 .0327199
885.896 .0327044
886.559 .0326897
887.222 .0326749
887.885 .0326601
888.547 .0326447
889.208 .0326291
889.870 .0326130
890.531 .0325971
891.192 .0325815
891.852 .0325672
892.512 .0325539
893.171 .0325411
893.830 .0325294
894.489 .0325188
895.148 .0325084
895.806 .0324982
896.464 .0324884
897.121 .0324791
897.778 .0324697
898.434 .0324608
899.091 .0324514
899.747 .0324421
900.402 .0324324
901.057 .0324222
901.712 .0324114
902.366 .0324007
903.020 .0323899
903.674 .0323791
904.327 .0323692
904.980 .0323600
905.633 .0323511
906.285 .0323429
906.936 .0323344
907.588 .0323249
908.239 .0323140
908.889 .0323015
909.540 .0322870
910.190 .0322718
910.839 .0322558
911.488 .0322393
912.137 .0322237
912.785 .0322094
913.433 .0321961
914.081 .0321842
914.728 .0321734
915.375 .0321624
916.021 .0321508
916.668 .0321382
917.313 .0321242
917.959 .0321089
918.604 .0320931
919.248 .0320769
919.892 .0320611
920.536 .0320466
921.180 .0320333
921.823 .0320215
922.465 .0320115
923.108 .0320018
923.750 .0319920
924.391 .0319814
925.032 .0319697
925.673 .0319567
926.313 .0319431
926.953 .0319294
927.593 .0319161
928.232 .0319035
928.871 .0318921
929.510 .0318814
930.148 .0318713
930.786 .0318610
931.423 .0318501
932.060 .0318380
932.697 .0318246
933.333 .0318094
933.969 .0317928
934.604 .0317753
935.239 .0317571
935.874 .0317386
936.508 .0317204
937.142 .0317026
937.776 .0316852
938.409 .0316682
939.042 .0316518
939.674 .0316354
940.306 .0316188
940.938 .0316017
941.569 .0315845
942.200 .0315668
942.830 .0315490
943.460 .0315308
944.090 .0315121
944.720 .0314933
945.349 .0314743
945.977 .0314554
946.606 .0314362
947.233 .0314167
947.861 .0313969
948.488 .0313763
949.115 .0313552
949.741 .0313336
950.367 .0313120
950.993 .0312908
951.618 .0312702
952.243 .0312502
952.868 .0312308
953.492 .0312122
954.115 .0311941
954.739 .0311764
955.362 .0311588
955.984 .0311411
956.607 .0311223
957.229 .0311033
957.850 .0310836
958.471 .0310631
959.092 .0310418
959.713 .0310197
960.333 .0309965
960.952 .0309723
961.572 .0309473
962.191 .0309222
962.809 .0308978
963.428 .0308740
964.045 .0308504
964.663 .0308277
965.280 .0308057
965.897 .0307840
966.513 .0307627
967.129 .0307421
967.745 .0307215
968.361 .0307013
968.976 .0306811
969.590 .0306610
970.205 .0306418
970.818 .0306237
971.432 .0306064
972.045 .0305901
972.658 .0305747
973.271 .0305590
973.883 .0305434
974.495 .0305274
975.106 .0305104
975.717 .0304929
976.328 .0304754
976.938 .0304579
977.548 .0304409
978.158 .0304254
978.768 .0304118
979.377 .0303996
979.985 .0303890
980.594 .0303783
981.202 .0303676
981.809 .0303563
982.417 .0303447
983.024 .0303327
983.631 .0303214
984.237 .0303108
984.843 .0303015
985.449 .0302934
986.054 .0302867
986.659 .0302807
987.264 .0302752
987.868 .0302694
988.472 .0302629
989.076 .0302551
989.679 .0302468
990.282 .0302382
990.885 .0302301
991.487 .0302222
992.090 .0302151
992.691 .0302081
993.293 .0302013
993.894 .0301942
994.495 .0301869
995.095 .0301790
995.696 .0301707
996.296 .0301618
996.895 .0301532
997.494 .0301457
998.093 .0301399
998.692 .0301357
999.291 .0301335
999.889 .0301319
1000.487 .0301310
1001.084 .0301296
1001.681 .0301274
1002.278 .0301240
1002.875 .0301194
1003.471 .0301141
1004.067 .0301083
1004.663 .0301032
1005.258 .0300988
1005.854 .0300953
1006.449 .0300926
1007.043 .0300896
1007.638 .0300857
1008.232 .0300804
1008.826 .0300737
1009.419 .0300658
1010.012 .0300577
1010.605 .0300494
1011.198 .0300421
1011.791 .0300367
1012.383 .0300334
1012.975 .0300327
1013.566 .0300343
1014.158 .0300378
1014.749 .0300431
1015.340 .0300498
1015.931 .0300575
1016.521 .0300660
1017.111 .0300754
1017.701 .0300849
1018.291 .0300951
1018.880 .0301048
1019.470 .0301141
1020.059 .0301226
1020.647 .0301306
1021.236 .0301373
1021.824 .0301438
1022.412 .0301493
1023.000 .0301538
1023.588 .0301581
1024.175 .0301622
1024.762 .0301646
1025.349 .0301658
1025.936 .0301661
1026.523 .0301649
1027.109 .0301632
1027.695 .0301616
1028.281 .0301594
1028.867 .0301583
1029.452 .0301581
1030.038 .0301586
1030.623 .0301597
1031.208 .0301615
1031.792 .0301631
1032.377 .0301641
1032.961 .0301650
1033.546 .0301643
1034.130 .0301623
1034.714 .0301603
1035.297 .0301581
1035.881 .0301556
1036.464 .0301539
1037.047 .0301528
1037.630 .0301524
1038.213 .0301531
1038.796 .0301543
1039.378 .0301557
1039.961 .0301570
1040.543 .0301580
1041.125 .0301586
1041.707 .0301584
1042.289 .0301580
1042.871 .0301569
1043.452 .0301564
1044.034 .0301562
1044.615 .0301556
1045.196 .0301558
1045.777 .0301566
1046.358 .0301572
1046.939 .0301572
1047.520 .0301556
1048.101 .0301526
1048.681 .0301483
1049.262 .0301431
1049.842 .0301373
1050.422 .0301318
1051.002 .0301272
1051.582 .0301226
1052.162 .0301189
1052.742 .0301159
1053.322 .0301122
1053.902 .0301074
1054.482 .0301006
1055.061 .0300910
1055.641 .0300790
1056.220 .0300651
1056.800 .0300499
1057.379 .0300354
1057.958 .0300221
1058.538 .0300098
1059.117 .0299999
1059.696 .0299925
1060.275 .0299865
1060.854 .0299805
1061.433 .0299745
1062.012 .0299673
1062.592 .0299593
1063.171 .0299515
1063.750 .0299432
1064.329 .0299373
1064.908 .0299341
1065.487 .0299323
1066.066 .0299315
1066.645 .0299322
1067.224 .0299328
1067.803 .0299318
1068.382 .0299291
1068.961 .0299240
1069.540 .0299165
1070.119 .0299071
1070.698 .0298962
1071.278 .0298847
1071.857 .0298728
1072.436 .0298611
1073.016 .0298488
1073.595 .0298370
1074.175 .0298249
1074.754 .0298117
1075.334 .0297981
1075.913 .0297853
1076.493 .0297722
1077.073 .0297581
1077.653 .0297436
1078.233 .0297294
1078.813 .0297142
1079.393 .0296997
1079.974 .0296857
1080.554 .0296729
1081.135 .0296619
1081.716 .0296528
1082.296 .0296440
1082.877 .0296370
1083.458 .0296302
1084.040 .0296228
1084.621 .0296142
1085.202 .0296051
1085.784 .0295934
1086.366 .0295819
1086.948 .0295709
1087.530 .0295606
1088.112 .0295514
1088.695 .0295430
1089.277 .0295337
1089.860 .0295238
1090.443 .0295123
1091.026 .0294984
1091.610 .0294834
1092.193 .0294675
1092.777 .0294502
1093.361 .0294339
1093.946 .0294194
1094.530 .0294074
1095.115 .0293992
1095.700 .0293956
1096.285 .0293943
1096.871 .0293954
1097.456 .0293975
1098.042 .0293995
1098.628 .0294013
1099.215 .0294018
1099.802 .0293996
1100.389 .0293944
1100.976 .0293878
1101.564 .0293778
1102.152 .0293654
1102.740 .0293533
1103.329 .0293418
1103.917 .0293307
1104.507 .0293209
1105.096 .0293133
1105.686 .0293072
1106.276 .0293034
1106.867 .0293000
1107.457 .0292964
1108.049 .0292926
1108.640 .0292887
1109.232 .0292837
1109.825 .0292799
1110.417 .0292806
1111.010 .0292856
1111.604 .0292966
1112.198 .0293146
1112.792 .0293376
1113.387 .0293647
1113.982 .0293942
1114.577 .0294241
1115.173 .0294531
1115.769 .0294795
1116.366 .0295019
1116.963 .0295229
1117.561 .0295434
1118.159 .0295645
1118.758 .0295862
1119.357 .0296092
1119.957 .0296319
1120.557 .0296520
1121.157 .0296693
1121.758 .0296823
1122.360 .0296950
1122.962 .0297049
1123.564 .0297121
1124.167 .0297201
1124.771 .0297295
1125.375 .0297389
1125.980 .0297501
1126.585 .0297661
1127.191 .0297860
1127.797 .0298113
1128.404 .0298431
1129.012 .0298828
1129.620 .0299355
1130.229 .0299999
1130.838 .0300745
1131.448 .0301570
1132.058 .0302471
1132.669 .0303370
1133.281 .0304235
1133.894 .0305061
1134.507 .0305845
1135.120 .0306588
1135.735 .0307304
1136.350 .0308017
1136.965 .0308738
1137.582 .0309472
1138.199 .0310228
1138.816 .0310968
1139.435 .0311684
1140.054 .0312321
1140.674 .0312975
1141.294 .0313604
1141.916 .0314336
1142.538 .0314430
1143.160 .0314351
1143.784 .0317305
1144.408 .0317534
1145.033 .0320631
