Measurement Sequence started on: 14-45-04-498
Integration time: 36
Scans to Average: 2 
>>>>>Begin Spectral Data<<<<<
433.946 .0526425
434.870 .0575208
435.793 .0554650
436.715 .0514278
437.635 .0494302
438.555 .0506257
439.473 .0499502
440.389 .0492587
441.305 .0487459
442.219 .0483931
443.132 .0481061
444.044 .0478136
444.954 .0475441
445.863 .0473053
446.771 .0470950
447.678 .0469066
448.584 .0467445
449.488 .0466004
450.391 .0464772
451.293 .0463718
452.194 .0462743
453.094 .0461740
453.992 .0460667
454.890 .0459372
455.786 .0457947
456.681 .0456378
457.575 .0454726
458.468 .0453002
459.360 .0451393
460.250 .0449970
461.140 .0448659
462.028 .0447463
462.915 .0446279
463.801 .0445043
464.687 .0443682
465.571 .0442145
466.454 .0440406
467.335 .0438597
468.216 .0436811
469.096 .0435087
469.975 .0433558
470.853 .0432241
471.729 .0431108
472.605 .0430122
473.479 .0429255
474.353 .0428399
475.226 .0427485
476.097 .0426571
476.968 .0425644
477.838 .0424717
478.706 .0423851
479.574 .0423083
480.441 .0422460
481.306 .0421988
482.171 .0421629
483.035 .0421341
483.898 .0421146
484.760 .0420964
485.621 .0420768
486.481 .0420544
487.340 .0420325
488.198 .0420095
489.055 .0419847
489.912 .0419615
490.767 .0419379
491.622 .0419141
492.476 .0418909
493.329 .0418655
494.180 .0418403
495.032 .0418136
495.882 .0417874
496.731 .0417583
497.580 .0417259
498.427 .0416896
499.274 .0416467
500.120 .0415968
500.965 .0415382
501.809 .0414730
502.653 .0413993
503.495 .0413223
504.337 .0412428
505.178 .0411626
506.018 .0410853
506.858 .0410106
507.696 .0409398
508.534 .0408716
509.371 .0408034
510.208 .0407352
511.043 .0406660
511.878 .0405988
512.712 .0405294
513.545 .0404578
514.377 .0403876
515.209 .0403242
516.040 .0402621
516.870 .0402086
517.699 .0401629
518.528 .0401255
519.356 .0400960
520.183 .0400684
521.010 .0400445
521.836 .0400214
522.661 .0399968
523.485 .0399692
524.309 .0399350
525.132 .0399060
525.954 .0398732
526.776 .0398375
527.597 .0398066
528.417 .0397769
529.237 .0397439
530.056 .0397088
530.874 .0396674
531.692 .0396247
532.508 .0395769
533.325 .0395290
534.140 .0394767
534.955 .0394213
535.770 .0393632
536.583 .0392947
537.397 .0392185
538.209 .0391414
539.021 .0390503
539.832 .0389549
540.643 .0388596
541.453 .0387697
542.262 .0386827
543.071 .0386059
543.879 .0385388
544.687 .0384813
545.494 .0384280
546.300 .0383784
547.106 .0383253
547.911 .0382760
548.716 .0382304
549.520 .0381856
550.323 .0381467
551.126 .0381176
551.929 .0380963
552.731 .0380859
553.532 .0380848
554.332 .0380878
555.133 .0380963
555.932 .0381088
556.731 .0381201
557.530 .0381262
558.328 .0381332
559.125 .0381416
559.922 .0381527
560.719 .0381642
561.515 .0381763
562.310 .0381886
563.105 .0382055
563.899 .0382186
564.693 .0382275
565.487 .0382284
566.280 .0382214
567.072 .0382031
567.864 .0381778
568.655 .0381410
569.446 .0380972
570.236 .0380483
571.026 .0379965
571.816 .0379439
572.605 .0378923
573.393 .0378402
574.181 .0377892
574.969 .0377365
575.756 .0376806
576.543 .0376198
577.329 .0375581
578.115 .0374955
578.900 .0374335
579.685 .0373753
580.469 .0373241
581.253 .0372810
582.036 .0372485
582.820 .0372235
583.602 .0372047
584.384 .0371905
585.166 .0371779
585.947 .0371657
586.728 .0371521
587.509 .0371372
588.289 .0371205
589.069 .0371021
589.848 .0370841
590.627 .0370662
591.405 .0370488
592.183 .0370317
592.961 .0370150
593.738 .0369979
594.515 .0369796
595.291 .0369583
596.067 .0369354
596.843 .0369103
597.618 .0368836
598.393 .0368561
599.167 .0368275
599.941 .0367987
600.715 .0367703
601.488 .0367417
602.261 .0367134
603.034 .0366840
603.806 .0366551
604.578 .0366261
605.349 .0365979
606.121 .0365695
606.891 .0365418
607.662 .0365141
608.432 .0364872
609.201 .0364596
609.971 .0364325
610.740 .0364056
611.508 .0363795
612.277 .0363549
613.045 .0363321
613.812 .0363109
614.579 .0362920
615.346 .0362745
616.113 .0362588
616.879 .0362438
617.645 .0362295
618.411 .0362156
619.176 .0362021
619.941 .0361882
620.705 .0361744
621.470 .0361602
622.233 .0361467
622.997 .0361326
623.760 .0361176
624.523 .0361010
625.286 .0360830
626.048 .0360637
626.810 .0360427
627.572 .0360204
628.333 .0359974
629.095 .0359734
629.855 .0359483
630.616 .0359220
631.376 .0358945
632.136 .0358662
632.895 .0358372
633.655 .0358071
634.414 .0357762
635.172 .0357450
635.931 .0357136
636.689 .0356830
637.447 .0356528
638.204 .0356231
638.962 .0355936
639.718 .0355651
640.475 .0355371
641.231 .0355098
641.988 .0354834
642.743 .0354576
643.499 .0354323
644.254 .0354072
645.009 .0353822
645.764 .0353577
646.518 .0353346
647.272 .0353134
648.026 .0352933
648.780 .0352746
649.533 .0352574
650.286 .0352421
651.039 .0352279
651.792 .0352146
652.544 .0352020
653.296 .0351897
654.048 .0351779
654.799 .0351662
655.550 .0351542
656.301 .0351425
657.052 .0351309
657.802 .0351195
658.552 .0351081
659.302 .0350970
660.052 .0350861
660.801 .0350757
661.550 .0350655
662.299 .0350548
663.048 .0350427
663.796 .0350297
664.544 .0350149
665.292 .0349985
666.040 .0349807
666.787 .0349617
667.534 .0349418
668.281 .0349217
669.028 .0349013
669.774 .0348809
670.521 .0348605
671.266 .0348406
672.012 .0348207
672.758 .0348004
673.503 .0347802
674.248 .0347599
674.992 .0347395
675.737 .0347195
676.481 .0346993
677.225 .0346792
677.969 .0346594
678.712 .0346397
679.455 .0346198
680.199 .0346004
680.941 .0345817
681.684 .0345632
682.426 .0345456
683.168 .0345283
683.910 .0345108
684.652 .0344932
685.393 .0344756
686.134 .0344574
686.875 .0344393
687.616 .0344213
688.356 .0344040
689.097 .0343878
689.837 .0343724
690.576 .0343578
691.316 .0343446
692.055 .0343321
692.794 .0343199
693.533 .0343078
694.272 .0342966
695.010 .0342863
695.748 .0342775
696.486 .0342699
697.224 .0342638
697.962 .0342590
698.699 .0342550
699.436 .0342508
700.173 .0342465
700.909 .0342412
701.646 .0342347
702.382 .0342270
703.118 .0342182
703.853 .0342085
704.589 .0341986
705.324 .0341876
706.059 .0341763
706.794 .0341640
707.529 .0341502
708.263 .0341349
708.997 .0341182
709.731 .0340997
710.465 .0340799
711.198 .0340591
711.931 .0340377
712.664 .0340159
713.397 .0339946
714.130 .0339734
714.862 .0339526
715.594 .0339322
716.326 .0339115
717.058 .0338904
717.789 .0338694
718.520 .0338478
719.251 .0338257
719.982 .0338030
720.713 .0337797
721.443 .0337563
722.173 .0337328
722.903 .0337094
723.633 .0336863
724.362 .0336637
725.091 .0336415
725.820 .0336191
726.549 .0335968
727.278 .0335748
728.006 .0335529
728.734 .0335310
729.462 .0335094
730.190 .0334884
730.917 .0334681
731.644 .0334491
732.371 .0334313
733.098 .0334151
733.825 .0333999
734.551 .0333858
735.277 .0333720
736.003 .0333584
736.728 .0333447
737.454 .0333309
738.179 .0333173
738.904 .0333041
739.629 .0332913
740.353 .0332796
741.077 .0332696
741.801 .0332612
742.525 .0332542
743.249 .0332485
743.972 .0332434
744.695 .0332387
745.418 .0332335
746.141 .0332277
746.863 .0332213
747.585 .0332144
748.307 .0332071
749.029 .0331995
749.750 .0331919
750.472 .0331837
751.193 .0331753
751.913 .0331662
752.634 .0331559
753.354 .0331445
754.074 .0331315
754.794 .0331172
755.514 .0331014
756.233 .0330838
756.952 .0330645
757.671 .0330441
758.390 .0330225
759.108 .0329997
759.826 .0329765
760.544 .0329535
761.262 .0329311
761.979 .0329092
762.697 .0328883
763.414 .0328679
764.130 .0328482
764.847 .0328281
765.563 .0328071
766.279 .0327856
766.995 .0327636
767.710 .0327415
768.426 .0327196
769.141 .0326985
769.855 .0326789
770.570 .0326602
771.284 .0326420
771.998 .0326238
772.712 .0326055
773.426 .0325865
774.139 .0325666
774.852 .0325460
775.565 .0325249
776.277 .0325043
776.990 .0324846
777.702 .0324653
778.414 .0324469
779.125 .0324290
779.836 .0324108
780.547 .0323925
781.258 .0323740
781.969 .0323549
782.679 .0323363
783.389 .0323185
784.099 .0323017
784.808 .0322862
785.517 .0322725
786.226 .0322601
786.935 .0322491
787.643 .0322392
788.352 .0322299
789.060 .0322206
789.767 .0322119
790.475 .0322031
791.182 .0321946
791.889 .0321867
792.595 .0321796
793.301 .0321727
794.008 .0321670
794.713 .0321615
795.419 .0321564
796.124 .0321511
796.829 .0321456
797.534 .0321390
798.238 .0321320
798.942 .0321244
799.646 .0321162
800.350 .0321072
801.053 .0320982
801.756 .0320885
802.459 .0320782
803.162 .0320668
803.864 .0320546
804.566 .0320417
805.267 .0320284
805.969 .0320140
806.670 .0319994
807.371 .0319852
808.071 .0319718
808.772 .0319585
809.472 .0319453
810.171 .0319320
810.871 .0319186
811.570 .0319046
812.269 .0318904
812.967 .0318754
813.666 .0318604
814.364 .0318455
815.061 .0318307
815.759 .0318163
816.456 .0318022
817.153 .0317878
817.849 .0317727
818.545 .0317567
819.241 .0317385
819.937 .0317186
820.632 .0316971
821.327 .0316739
822.022 .0316489
822.717 .0316227
823.411 .0315957
824.105 .0315681
824.798 .0315408
825.491 .0315132
826.184 .0314850
826.877 .0314565
827.569 .0314273
828.261 .0313974
828.953 .0313669
829.645 .0313360
830.336 .0313051
831.027 .0312750
831.717 .0312457
832.407 .0312178
833.097 .0311917
833.787 .0311673
834.476 .0311443
835.165 .0311226
835.854 .0311022
836.542 .0310829
837.230 .0310647
837.918 .0310476
838.605 .0310322
839.292 .0310185
839.979 .0310062
840.665 .0309952
841.352 .0309856
842.037 .0309767
842.723 .0309678
843.408 .0309588
844.093 .0309493
844.777 .0309392
845.462 .0309284
846.145 .0309166
846.829 .0309041
847.512 .0308909
848.195 .0308771
848.878 .0308628
849.560 .0308489
850.242 .0308353
850.923 .0308221
851.605 .0308095
852.286 .0307982
852.966 .0307875
853.646 .0307773
854.326 .0307678
855.006 .0307585
855.685 .0307489
856.364 .0307392
857.043 .0307293
857.721 .0307197
858.399 .0307106
859.077 .0307021
859.754 .0306937
860.431 .0306861
861.107 .0306785
861.784 .0306702
862.459 .0306618
863.135 .0306528
863.810 .0306430
864.485 .0306335
865.160 .0306246
865.834 .0306165
866.508 .0306101
867.181 .0306056
867.854 .0306029
868.527 .0306013
869.199 .0306003
869.872 .0305983
870.543 .0305955
871.215 .0305911
871.886 .0305849
872.557 .0305771
873.227 .0305683
873.897 .0305580
874.567 .0305468
875.236 .0305342
875.905 .0305203
876.573 .0305048
877.242 .0304876
877.909 .0304682
878.577 .0304464
879.244 .0304222
879.911 .0303967
880.577 .0303700
881.243 .0303429
881.909 .0303155
882.575 .0302888
883.240 .0302624
883.904 .0302365
884.569 .0302107
885.232 .0301851
885.896 .0301597
886.559 .0301342
887.222 .0301082
887.885 .0300818
888.547 .0300556
889.208 .0300298
889.870 .0300047
890.531 .0299814
891.192 .0299592
891.852 .0299390
892.512 .0299205
893.171 .0299035
893.830 .0298877
894.489 .0298729
895.148 .0298585
895.806 .0298442
896.464 .0298296
897.121 .0298143
897.778 .0297985
898.434 .0297830
899.091 .0297676
899.747 .0297520
900.402 .0297367
901.057 .0297210
901.712 .0297049
902.366 .0296881
903.020 .0296702
903.674 .0296518
904.327 .0296325
904.980 .0296124
905.633 .0295920
906.285 .0295721
906.936 .0295533
907.588 .0295355
908.239 .0295196
908.889 .0295050
909.540 .0294913
910.190 .0294781
910.839 .0294656
911.488 .0294534
912.137 .0294415
912.785 .0294292
913.433 .0294171
914.081 .0294053
914.728 .0293933
915.375 .0293814
916.021 .0293699
916.668 .0293586
917.313 .0293471
917.959 .0293354
918.604 .0293237
919.248 .0293121
919.892 .0293009
920.536 .0292897
921.180 .0292793
921.823 .0292694
922.465 .0292596
923.108 .0292503
923.750 .0292421
924.391 .0292345
925.032 .0292272
925.673 .0292206
926.313 .0292140
926.953 .0292075
927.593 .0292009
928.232 .0291936
928.871 .0291859
929.510 .0291779
930.148 .0291694
930.786 .0291605
931.423 .0291521
932.060 .0291442
932.697 .0291365
933.333 .0291297
933.969 .0291230
934.604 .0291160
935.239 .0291088
935.874 .0291013
936.508 .0290934
937.142 .0290855
937.776 .0290777
938.409 .0290700
939.042 .0290627
939.674 .0290557
940.306 .0290483
940.938 .0290406
941.569 .0290323
942.200 .0290229
942.830 .0290118
943.460 .0289994
944.090 .0289851
944.720 .0289700
945.349 .0289537
945.977 .0289366
946.606 .0289192
947.233 .0289016
947.861 .0288837
948.488 .0288651
949.115 .0288458
949.741 .0288256
950.367 .0288045
950.993 .0287830
951.618 .0287609
952.243 .0287388
952.868 .0287168
953.492 .0286949
954.115 .0286730
954.739 .0286511
955.362 .0286288
955.984 .0286064
956.607 .0285836
957.229 .0285606
957.850 .0285368
958.471 .0285133
959.092 .0284902
959.713 .0284676
960.333 .0284451
960.952 .0284229
961.572 .0284008
962.191 .0283792
962.809 .0283576
963.428 .0283360
964.045 .0283140
964.663 .0282924
965.280 .0282709
965.897 .0282493
966.513 .0282279
967.129 .0282069
967.745 .0281862
968.361 .0281658
968.976 .0281449
969.590 .0281235
970.205 .0281019
970.818 .0280804
971.432 .0280591
972.045 .0280377
972.658 .0280176
973.271 .0279983
973.883 .0279805
974.495 .0279642
975.106 .0279494
975.717 .0279363
976.328 .0279249
976.938 .0279146
977.548 .0279051
978.158 .0278958
978.768 .0278872
979.377 .0278785
979.985 .0278698
980.594 .0278605
981.202 .0278508
981.809 .0278403
982.417 .0278295
983.024 .0278180
983.631 .0278061
984.237 .0277933
984.843 .0277802
985.449 .0277666
986.054 .0277523
986.659 .0277373
987.264 .0277225
987.868 .0277073
988.472 .0276925
989.076 .0276778
989.679 .0276645
990.282 .0276524
990.885 .0276423
991.487 .0276337
992.090 .0276268
992.691 .0276215
993.293 .0276175
993.894 .0276143
994.495 .0276118
995.095 .0276092
995.696 .0276061
996.296 .0276023
996.895 .0275982
997.494 .0275930
998.093 .0275875
998.692 .0275821
999.291 .0275769
999.889 .0275717
1000.487 .0275668
1001.084 .0275623
1001.681 .0275581
1002.278 .0275544
1002.875 .0275506
1003.471 .0275472
1004.067 .0275452
1004.663 .0275441
1005.258 .0275440
1005.854 .0275455
1006.449 .0275485
1007.043 .0275524
1007.638 .0275573
1008.232 .0275635
1008.826 .0275706
1009.419 .0275788
1010.012 .0275882
1010.605 .0275980
1011.198 .0276085
1011.791 .0276189
1012.383 .0276292
1012.975 .0276392
1013.566 .0276483
1014.158 .0276561
1014.749 .0276628
1015.340 .0276686
1015.931 .0276734
1016.521 .0276774
1017.111 .0276814
1017.701 .0276851
1018.291 .0276882
1018.880 .0276907
1019.470 .0276927
1020.059 .0276944
1020.647 .0276954
1021.236 .0276958
1021.824 .0276965
1022.412 .0276978
1023.000 .0276998
1023.588 .0277025
1024.175 .0277062
1024.762 .0277109
1025.349 .0277163
1025.936 .0277218
1026.523 .0277274
1027.109 .0277322
1027.695 .0277362
1028.281 .0277393
1028.867 .0277414
1029.452 .0277429
1030.038 .0277430
1030.623 .0277427
1031.208 .0277416
1031.792 .0277398
1032.377 .0277368
1032.961 .0277326
1033.546 .0277275
1034.130 .0277204
1034.714 .0277122
1035.297 .0277034
1035.881 .0276944
1036.464 .0276863
1037.047 .0276795
1037.630 .0276750
1038.213 .0276723
1038.796 .0276720
1039.378 .0276727
1039.961 .0276746
1040.543 .0276770
1041.125 .0276788
1041.707 .0276798
1042.289 .0276799
1042.871 .0276790
1043.452 .0276767
1044.034 .0276740
1044.615 .0276705
1045.196 .0276659
1045.777 .0276597
1046.358 .0276513
1046.939 .0276414
1047.520 .0276282
1048.101 .0276133
1048.681 .0275964
1049.262 .0275787
1049.842 .0275610
1050.422 .0275441
1051.002 .0275292
1051.582 .0275161
1052.162 .0275054
1052.742 .0274955
1053.322 .0274853
1053.902 .0274757
1054.482 .0274643
1055.061 .0274515
1055.641 .0274379
1056.220 .0274238
1056.800 .0274091
1057.379 .0273954
1057.958 .0273829
1058.538 .0273712
1059.117 .0273611
1059.696 .0273516
1060.275 .0273412
1060.854 .0273303
1061.433 .0273182
1062.012 .0273045
1062.592 .0272907
1063.171 .0272791
1063.750 .0272679
1064.329 .0272582
1064.908 .0272503
1065.487 .0272431
1066.066 .0272361
1066.645 .0272287
1067.224 .0272205
1067.803 .0272116
1068.382 .0272023
1068.961 .0271925
1069.540 .0271831
1070.119 .0271758
1070.698 .0271693
1071.278 .0271635
1071.857 .0271576
1072.436 .0271514
1073.016 .0271442
1073.595 .0271363
1074.175 .0271285
1074.754 .0271197
1075.334 .0271103
1075.913 .0270998
1076.493 .0270893
1077.073 .0270778
1077.653 .0270651
1078.233 .0270523
1078.813 .0270386
1079.393 .0270246
1079.974 .0270098
1080.554 .0269959
1081.135 .0269834
1081.716 .0269726
1082.296 .0269628
1082.877 .0269525
1083.458 .0269437
1084.040 .0269349
1084.621 .0269272
1085.202 .0269207
1085.784 .0269164
1086.366 .0269130
1086.948 .0269101
1087.530 .0269085
1088.112 .0269054
1088.695 .0269006
1089.277 .0268943
1089.860 .0268861
1090.443 .0268757
1091.026 .0268629
1091.610 .0268505
1092.193 .0268394
1092.777 .0268319
1093.361 .0268270
1093.946 .0268238
1094.530 .0268245
1095.115 .0268281
1095.700 .0268325
1096.285 .0268382
1096.871 .0268465
1097.456 .0268561
1098.042 .0268663
1098.628 .0268791
1099.215 .0268928
1099.802 .0269072
1100.389 .0269233
1100.976 .0269393
1101.564 .0269530
1102.152 .0269640
1102.740 .0269711
1103.329 .0269737
1103.917 .0269742
1104.507 .0269716
1105.096 .0269676
1105.686 .0269660
1106.276 .0269671
1106.867 .0269702
1107.457 .0269764
1108.049 .0269858
1108.640 .0269960
1109.232 .0270063
1109.825 .0270181
1110.417 .0270284
1111.010 .0270412
1111.604 .0270562
1112.198 .0270759
1112.792 .0271009
1113.387 .0271315
1113.982 .0271661
1114.577 .0272057
1115.173 .0272480
1115.769 .0272894
1116.366 .0273298
1116.963 .0273700
1117.561 .0274080
1118.159 .0274458
1118.758 .0274823
1119.357 .0275182
1119.957 .0275537
1120.557 .0275905
1121.157 .0276262
1121.758 .0276631
1122.360 .0277007
1122.962 .0277366
1123.564 .0277722
1124.167 .0278068
1124.771 .0278363
1125.375 .0278636
1125.980 .0278916
1126.585 .0279169
1127.191 .0279426
1127.797 .0279701
1128.404 .0280006
1129.012 .0280356
1129.620 .0280767
1130.229 .0281181
1130.838 .0281582
1131.448 .0281981
1132.058 .0282349
1132.669 .0282656
1133.281 .0282959
1133.894 .0283260
1134.507 .0283585
1135.120 .0283978
1135.735 .0284427
1136.350 .0284911
1136.965 .0285463
1137.582 .0286020
1138.199 .0286558
1138.816 .0287040
1139.435 .0287536
1140.054 .0288039
1140.674 .0288600
1141.294 .0289293
1141.916 .0290061
1142.538 .0290623
1143.160 .0291732
1143.784 .0293209
1144.408 .0295200
1145.033 .0295063
