Measurement Sequence started on: 14-45-04-498
Integration time: 36
Scans to Average: 2 
>>>>>Begin Spectral Data<<<<<
433.946 .0528649
434.870 .0546202
435.793 .0518780
436.715 .0515631
437.635 .0504379
438.555 .0498482
439.473 .0492129
440.389 .0486141
441.305 .0481867
442.219 .0478325
443.132 .0475658
444.044 .0473835
444.954 .0472345
445.863 .0471236
446.771 .0470436
447.678 .0469723
448.584 .0469228
449.488 .0468689
450.391 .0468236
451.293 .0467701
452.194 .0467211
453.094 .0466758
453.992 .0466191
454.890 .0465558
455.786 .0464963
456.681 .0464226
457.575 .0463519
458.468 .0462776
459.360 .0462007
460.250 .0461214
461.140 .0460446
462.028 .0459711
462.915 .0458938
463.801 .0458185
464.687 .0457417
465.571 .0456556
466.454 .0455650
467.335 .0454653
468.216 .0453564
469.096 .0452478
469.975 .0451401
470.853 .0450333
471.729 .0449257
472.605 .0448161
473.479 .0447085
474.353 .0445998
475.226 .0444876
476.097 .0443778
476.968 .0442665
477.838 .0441578
478.706 .0440491
479.574 .0439465
480.441 .0438511
481.306 .0437669
482.171 .0436953
483.035 .0436311
483.898 .0435801
484.760 .0435423
485.621 .0435116
486.481 .0434919
487.340 .0434793
488.198 .0434697
489.055 .0434605
489.912 .0434530
490.767 .0434417
491.622 .0434295
492.476 .0434219
493.329 .0434176
494.180 .0434135
495.032 .0434168
495.882 .0434207
496.731 .0434221
497.580 .0434229
498.427 .0434133
499.274 .0433891
500.120 .0433560
500.965 .0433106
501.809 .0432617
502.653 .0432107
503.495 .0431687
504.337 .0431280
505.178 .0430984
506.018 .0430771
506.858 .0430528
507.696 .0430261
508.534 .0429994
509.371 .0429599
510.208 .0429178
511.043 .0428710
511.878 .0428275
512.712 .0427939
513.545 .0427801
514.377 .0427733
515.209 .0427816
516.040 .0427961
516.870 .0428073
517.699 .0428027
518.528 .0427910
519.356 .0427627
520.183 .0427206
521.010 .0426760
521.836 .0426326
522.661 .0425908
523.485 .0425587
524.309 .0425260
525.132 .0424939
525.954 .0424519
526.776 .0423934
527.597 .0423071
528.417 .0422083
529.237 .0421087
530.056 .0420059
530.874 .0419119
531.692 .0418400
532.508 .0417812
533.325 .0417323
534.140 .0416912
534.955 .0416470
535.770 .0415949
536.583 .0415377
537.397 .0414695
538.209 .0413957
539.021 .0413311
539.832 .0412706
540.643 .0412132
541.453 .0411611
542.262 .0411060
543.071 .0410338
543.879 .0409518
544.687 .0408584
545.494 .0407534
546.300 .0406447
547.106 .0405367
547.911 .0404324
548.716 .0403418
549.520 .0402600
550.323 .0401904
551.126 .0401346
551.929 .0400915
552.731 .0400514
553.532 .0400184
554.332 .0399889
555.133 .0399641
555.932 .0399396
556.731 .0399132
557.530 .0398829
558.328 .0398508
559.125 .0398149
559.922 .0397780
560.719 .0397425
561.515 .0397072
562.310 .0396673
563.105 .0396304
563.899 .0395875
564.693 .0395357
565.487 .0394757
566.280 .0394058
567.072 .0393275
567.864 .0392460
568.655 .0391608
569.446 .0390822
570.236 .0390119
571.026 .0389504
571.816 .0388969
572.605 .0388522
573.393 .0388172
574.181 .0387860
574.969 .0387579
575.756 .0387315
576.543 .0387011
577.329 .0386701
578.115 .0386363
578.900 .0385979
579.685 .0385553
580.469 .0385090
581.253 .0384599
582.036 .0384089
582.820 .0383567
583.602 .0383027
584.384 .0382473
585.166 .0381915
585.947 .0381330
586.728 .0380735
587.509 .0380135
588.289 .0379522
589.069 .0378900
589.848 .0378290
590.627 .0377682
591.405 .0377090
592.183 .0376549
592.961 .0376051
593.738 .0375596
594.515 .0375185
595.291 .0374794
596.067 .0374416
596.843 .0374055
597.618 .0373676
598.393 .0373282
599.167 .0372887
599.941 .0372495
600.715 .0372115
601.488 .0371787
602.261 .0371508
603.034 .0371271
603.806 .0371075
604.578 .0370914
605.349 .0370757
606.121 .0370610
606.891 .0370448
607.662 .0370262
608.432 .0370062
609.201 .0369852
609.971 .0369627
610.740 .0369396
611.508 .0369174
612.277 .0368957
613.045 .0368733
613.812 .0368513
614.579 .0368281
615.346 .0368037
616.113 .0367777
616.879 .0367498
617.645 .0367203
618.411 .0366894
619.176 .0366572
619.941 .0366246
620.705 .0365931
621.470 .0365637
622.233 .0365360
622.997 .0365103
623.760 .0364869
624.523 .0364633
625.286 .0364385
626.048 .0364124
626.810 .0363838
627.572 .0363524
628.333 .0363187
629.095 .0362841
629.855 .0362496
630.616 .0362154
631.376 .0361818
632.136 .0361499
632.895 .0361191
633.655 .0360884
634.414 .0360567
635.172 .0360238
635.931 .0359898
636.689 .0359554
637.447 .0359199
638.204 .0358837
638.962 .0358476
639.718 .0358117
640.475 .0357752
641.231 .0357392
641.988 .0357028
642.743 .0356671
643.499 .0356319
644.254 .0355979
645.009 .0355636
645.764 .0355312
646.518 .0354999
647.272 .0354696
648.026 .0354402
648.780 .0354112
649.533 .0353822
650.286 .0353548
651.039 .0353283
651.792 .0353028
652.544 .0352784
653.296 .0352560
654.048 .0352344
654.799 .0352146
655.550 .0351948
656.301 .0351762
657.052 .0351582
657.802 .0351407
658.552 .0351225
659.302 .0351039
660.052 .0350856
660.801 .0350664
661.550 .0350475
662.299 .0350295
663.048 .0350120
663.796 .0349962
664.544 .0349808
665.292 .0349658
666.040 .0349502
666.787 .0349334
667.534 .0349147
668.281 .0348942
669.028 .0348715
669.774 .0348469
670.521 .0348217
671.266 .0347967
672.012 .0347730
672.758 .0347504
673.503 .0347291
674.248 .0347088
674.992 .0346878
675.737 .0346660
676.481 .0346437
677.225 .0346211
677.969 .0345984
678.712 .0345765
679.455 .0345556
680.199 .0345359
680.941 .0345177
681.684 .0345006
682.426 .0344840
683.168 .0344676
683.910 .0344505
684.652 .0344324
685.393 .0344141
686.134 .0343958
686.875 .0343776
687.616 .0343613
688.356 .0343465
689.097 .0343319
689.837 .0343176
690.576 .0343030
691.316 .0342877
692.055 .0342719
692.794 .0342550
693.533 .0342373
694.272 .0342189
695.010 .0342004
695.748 .0341808
696.486 .0341609
697.224 .0341409
697.962 .0341201
698.699 .0340983
699.436 .0340759
700.173 .0340523
700.909 .0340291
701.646 .0340067
702.382 .0339855
703.118 .0339653
703.853 .0339470
704.589 .0339297
705.324 .0339137
706.059 .0338984
706.794 .0338838
707.529 .0338699
708.263 .0338570
708.997 .0338449
709.731 .0338327
710.465 .0338209
711.198 .0338092
711.931 .0337972
712.664 .0337848
713.397 .0337712
714.130 .0337565
714.862 .0337413
715.594 .0337255
716.326 .0337093
717.058 .0336935
717.789 .0336791
718.520 .0336655
719.251 .0336528
719.982 .0336405
720.713 .0336292
721.443 .0336178
722.173 .0336065
722.903 .0335943
723.633 .0335820
724.362 .0335692
725.091 .0335558
725.820 .0335426
726.549 .0335304
727.278 .0335191
728.006 .0335092
728.734 .0334999
729.462 .0334908
730.190 .0334810
730.917 .0334697
731.644 .0334566
732.371 .0334417
733.098 .0334251
733.825 .0334072
734.551 .0333892
735.277 .0333719
736.003 .0333558
736.728 .0333413
737.454 .0333296
738.179 .0333191
738.904 .0333094
739.629 .0332996
740.353 .0332893
741.077 .0332785
741.801 .0332673
742.525 .0332556
743.249 .0332448
743.972 .0332346
744.695 .0332253
745.418 .0332161
746.141 .0332072
746.863 .0331978
747.585 .0331877
748.307 .0331762
749.029 .0331636
749.750 .0331496
750.472 .0331352
751.193 .0331203
751.913 .0331055
752.634 .0330909
753.354 .0330766
754.074 .0330627
754.794 .0330488
755.514 .0330345
756.233 .0330209
756.952 .0330081
757.671 .0329962
758.390 .0329857
759.108 .0329770
759.826 .0329699
760.544 .0329638
761.262 .0329583
761.979 .0329531
762.697 .0329478
763.414 .0329422
764.130 .0329359
764.847 .0329288
765.563 .0329213
766.279 .0329129
766.995 .0329047
767.710 .0328968
768.426 .0328894
769.141 .0328820
769.855 .0328750
770.570 .0328684
771.284 .0328621
771.998 .0328562
772.712 .0328513
773.426 .0328462
774.139 .0328410
774.852 .0328353
775.565 .0328292
776.277 .0328228
776.990 .0328167
777.702 .0328097
778.414 .0328024
779.125 .0327947
779.836 .0327867
780.547 .0327780
781.258 .0327693
781.969 .0327603
782.679 .0327504
783.389 .0327397
784.099 .0327280
784.808 .0327152
785.517 .0327026
786.226 .0326897
786.935 .0326765
787.643 .0326640
788.352 .0326527
789.060 .0326422
789.767 .0326328
790.475 .0326246
791.182 .0326173
791.889 .0326101
792.595 .0326030
793.301 .0325954
794.008 .0325868
794.713 .0325775
795.419 .0325661
796.124 .0325531
796.829 .0325389
797.534 .0325237
798.238 .0325077
798.942 .0324916
799.646 .0324755
800.350 .0324591
801.053 .0324426
801.756 .0324264
802.459 .0324097
803.162 .0323932
803.864 .0323767
804.566 .0323603
805.267 .0323437
805.969 .0323286
806.670 .0323148
807.371 .0323034
808.071 .0322951
808.772 .0322897
809.472 .0322865
810.171 .0322854
810.871 .0322853
811.570 .0322854
812.269 .0322847
812.967 .0322835
813.666 .0322811
814.364 .0322782
815.061 .0322751
815.759 .0322726
816.456 .0322707
817.153 .0322698
817.849 .0322681
818.545 .0322659
819.241 .0322626
819.937 .0322580
820.632 .0322515
821.327 .0322435
822.022 .0322349
822.717 .0322259
823.411 .0322163
824.105 .0322077
824.798 .0322000
825.491 .0321938
826.184 .0321887
826.877 .0321840
827.569 .0321796
828.261 .0321760
828.953 .0321722
829.645 .0321683
830.336 .0321639
831.027 .0321589
831.717 .0321525
832.407 .0321453
833.097 .0321370
833.787 .0321267
834.476 .0321154
835.165 .0321029
835.854 .0320880
836.542 .0320715
837.230 .0320533
837.918 .0320335
838.605 .0320125
839.292 .0319900
839.979 .0319658
840.665 .0319410
841.352 .0319167
842.037 .0318929
842.723 .0318707
843.408 .0318504
844.093 .0318312
844.777 .0318132
845.462 .0317968
846.145 .0317810
846.829 .0317666
847.512 .0317541
848.195 .0317425
848.878 .0317321
849.560 .0317226
850.242 .0317139
850.923 .0317058
851.605 .0316972
852.286 .0316871
852.966 .0316757
853.646 .0316630
854.326 .0316491
855.006 .0316347
855.685 .0316208
856.364 .0316074
857.043 .0315948
857.721 .0315825
858.399 .0315699
859.077 .0315574
859.754 .0315443
860.431 .0315304
861.107 .0315165
861.784 .0315025
862.459 .0314893
863.135 .0314778
863.810 .0314682
864.485 .0314604
865.160 .0314543
865.834 .0314504
866.508 .0314474
867.181 .0314455
867.854 .0314443
868.527 .0314431
869.199 .0314422
869.872 .0314410
870.543 .0314388
871.215 .0314360
871.886 .0314330
872.557 .0314293
873.227 .0314252
873.897 .0314210
874.567 .0314169
875.236 .0314133
875.905 .0314102
876.573 .0314074
877.242 .0314039
877.909 .0314000
878.577 .0313952
879.244 .0313895
879.911 .0313834
880.577 .0313767
881.243 .0313701
881.909 .0313639
882.575 .0313582
883.240 .0313523
883.904 .0313464
884.569 .0313406
885.232 .0313341
885.896 .0313268
886.559 .0313189
887.222 .0313103
887.885 .0313014
888.547 .0312924
889.208 .0312829
889.870 .0312729
890.531 .0312628
891.192 .0312520
891.852 .0312410
892.512 .0312296
893.171 .0312178
893.830 .0312053
894.489 .0311922
895.148 .0311780
895.806 .0311621
896.464 .0311453
897.121 .0311273
897.778 .0311081
898.434 .0310877
899.091 .0310664
899.747 .0310443
900.402 .0310216
901.057 .0309981
901.712 .0309733
902.366 .0309470
903.020 .0309188
903.674 .0308892
904.327 .0308584
904.980 .0308274
905.633 .0307967
906.285 .0307674
906.936 .0307403
907.588 .0307153
908.239 .0306933
908.889 .0306738
909.540 .0306563
910.190 .0306402
910.839 .0306244
911.488 .0306086
912.137 .0305923
912.785 .0305763
913.433 .0305608
914.081 .0305467
914.728 .0305346
915.375 .0305240
916.021 .0305154
916.668 .0305087
917.313 .0305029
917.959 .0304975
918.604 .0304918
919.248 .0304852
919.892 .0304771
920.536 .0304678
921.180 .0304579
921.823 .0304477
922.465 .0304374
923.108 .0304276
923.750 .0304177
924.391 .0304077
925.032 .0303979
925.673 .0303882
926.313 .0303788
926.953 .0303700
927.593 .0303610
928.232 .0303526
928.871 .0303448
929.510 .0303375
930.148 .0303303
930.786 .0303239
931.423 .0303183
932.060 .0303133
932.697 .0303096
933.333 .0303070
933.969 .0303053
934.604 .0303046
935.239 .0303046
935.874 .0303043
936.508 .0303031
937.142 .0303010
937.776 .0302972
938.409 .0302921
939.042 .0302851
939.674 .0302765
940.306 .0302665
940.938 .0302552
941.569 .0302423
942.200 .0302278
942.830 .0302114
943.460 .0301934
944.090 .0301741
944.720 .0301539
945.349 .0301337
945.977 .0301138
946.606 .0300945
947.233 .0300766
947.861 .0300591
948.488 .0300416
949.115 .0300235
949.741 .0300055
950.367 .0299865
950.993 .0299665
951.618 .0299459
952.243 .0299254
952.868 .0299052
953.492 .0298846
954.115 .0298636
954.739 .0298417
955.362 .0298187
955.984 .0297936
956.607 .0297660
957.229 .0297369
957.850 .0297061
958.471 .0296743
959.092 .0296417
959.713 .0296090
960.333 .0295766
960.952 .0295447
961.572 .0295142
962.191 .0294840
962.809 .0294546
963.428 .0294257
964.045 .0293981
964.663 .0293713
965.280 .0293458
965.897 .0293213
966.513 .0292985
967.129 .0292777
967.745 .0292579
968.361 .0292389
968.976 .0292202
969.590 .0292022
970.205 .0291837
970.818 .0291644
971.432 .0291447
972.045 .0291243
972.658 .0291043
973.271 .0290844
973.883 .0290648
974.495 .0290463
975.106 .0290298
975.717 .0290155
976.328 .0290026
976.938 .0289922
977.548 .0289838
978.158 .0289768
978.768 .0289712
979.377 .0289662
979.985 .0289607
980.594 .0289561
981.202 .0289517
981.809 .0289470
982.417 .0289422
983.024 .0289378
983.631 .0289337
984.237 .0289294
984.843 .0289251
985.449 .0289195
986.054 .0289126
986.659 .0289057
987.264 .0288977
987.868 .0288888
988.472 .0288812
989.076 .0288751
989.679 .0288712
990.282 .0288704
990.885 .0288717
991.487 .0288747
992.090 .0288791
992.691 .0288846
993.293 .0288894
993.894 .0288944
994.495 .0289002
995.095 .0289059
995.696 .0289128
996.296 .0289206
996.895 .0289290
997.494 .0289385
998.093 .0289484
998.692 .0289576
999.291 .0289657
999.889 .0289732
1000.487 .0289802
1001.084 .0289873
1001.681 .0289947
1002.278 .0290029
1002.875 .0290120
1003.471 .0290221
1004.067 .0290332
1004.663 .0290448
1005.258 .0290575
1005.854 .0290711
1006.449 .0290860
1007.043 .0291017
1007.638 .0291177
1008.232 .0291348
1008.826 .0291517
1009.419 .0291680
1010.012 .0291826
1010.605 .0291951
1011.198 .0292054
1011.791 .0292135
1012.383 .0292197
1012.975 .0292244
1013.566 .0292287
1014.158 .0292323
1014.749 .0292355
1015.340 .0292380
1015.931 .0292395
1016.521 .0292401
1017.111 .0292386
1017.701 .0292358
1018.291 .0292307
1018.880 .0292244
1019.470 .0292176
1020.059 .0292111
1020.647 .0292045
1021.236 .0291977
1021.824 .0291919
1022.412 .0291869
1023.000 .0291826
1023.588 .0291791
1024.175 .0291762
1024.762 .0291730
1025.349 .0291698
1025.936 .0291652
1026.523 .0291591
1027.109 .0291516
1027.695 .0291427
1028.281 .0291322
1028.867 .0291216
1029.452 .0291104
1030.038 .0290998
1030.623 .0290897
1031.208 .0290813
1031.792 .0290716
1032.377 .0290615
1032.961 .0290491
1033.546 .0290345
1034.130 .0290166
1034.714 .0289970
1035.297 .0289744
1035.881 .0289512
1036.464 .0289270
1037.047 .0289043
1037.630 .0288820
1038.213 .0288618
1038.796 .0288430
1039.378 .0288260
1039.961 .0288094
1040.543 .0287940
1041.125 .0287780
1041.707 .0287623
1042.289 .0287460
1042.871 .0287305
1043.452 .0287144
1044.034 .0287003
1044.615 .0286859
1045.196 .0286725
1045.777 .0286603
1046.358 .0286491
1046.939 .0286365
1047.520 .0286246
1048.101 .0286125
1048.681 .0285988
1049.262 .0285839
1049.842 .0285671
1050.422 .0285482
1051.002 .0285285
1051.582 .0285081
1052.162 .0284876
1052.742 .0284671
1053.322 .0284494
1053.902 .0284326
1054.482 .0284180
1055.061 .0284054
1055.641 .0283930
1056.220 .0283817
1056.800 .0283706
1057.379 .0283581
1057.958 .0283447
1058.538 .0283317
1059.117 .0283201
1059.696 .0283111
1060.275 .0283056
1060.854 .0283039
1061.433 .0283071
1062.012 .0283149
1062.592 .0283261
1063.171 .0283393
1063.750 .0283531
1064.329 .0283658
1064.908 .0283763
1065.487 .0283837
1066.066 .0283878
1066.645 .0283913
1067.224 .0283952
1067.803 .0283987
1068.382 .0284028
1068.961 .0284076
1069.540 .0284128
1070.119 .0284175
1070.698 .0284198
1071.278 .0284184
1071.857 .0284129
1072.436 .0284040
1073.016 .0283920
1073.595 .0283791
1074.175 .0283683
1074.754 .0283602
1075.334 .0283558
1075.913 .0283550
1076.493 .0283571
1077.073 .0283606
1077.653 .0283667
1078.233 .0283738
1078.813 .0283802
1079.393 .0283844
1079.974 .0283885
1080.554 .0283936
1081.135 .0284002
1081.716 .0284076
1082.296 .0284169
1082.877 .0284285
1083.458 .0284415
1084.040 .0284539
1084.621 .0284663
1085.202 .0284771
1085.784 .0284867
1086.366 .0284925
1086.948 .0284947
1087.530 .0284943
1088.112 .0284931
1088.695 .0284911
1089.277 .0284910
1089.860 .0284932
1090.443 .0284966
1091.026 .0285024
1091.610 .0285122
1092.193 .0285247
1092.777 .0285403
1093.361 .0285585
1093.946 .0285799
1094.530 .0286031
1095.115 .0286299
1095.700 .0286582
1096.285 .0286896
1096.871 .0287238
1097.456 .0287582
1098.042 .0287932
1098.628 .0288295
1099.215 .0288637
1099.802 .0288958
1100.389 .0289265
1100.976 .0289540
1101.564 .0289777
1102.152 .0289960
1102.740 .0290085
1103.329 .0290142
1103.917 .0290145
1104.507 .0290079
1105.096 .0289960
1105.686 .0289830
1106.276 .0289693
1106.867 .0289568
1107.457 .0289454
1108.049 .0289327
1108.640 .0289184
1109.232 .0289037
1109.825 .0288883
1110.417 .0288715
1111.010 .0288563
1111.604 .0288433
1112.198 .0288355
1112.792 .0288310
1113.387 .0288304
1113.982 .0288336
1114.577 .0288404
1115.173 .0288494
1115.769 .0288566
1116.366 .0288650
1116.963 .0288734
1117.561 .0288839
1118.159 .0288959
1118.758 .0289068
1119.357 .0289181
1119.957 .0289282
1120.557 .0289367
1121.157 .0289434
1121.758 .0289485
1122.360 .0289529
1122.962 .0289543
1123.564 .0289540
1124.167 .0289488
1124.771 .0289420
1125.375 .0289328
1125.980 .0289230
1126.585 .0289097
1127.191 .0288957
1127.797 .0288822
1128.404 .0288692
1129.012 .0288599
1129.620 .0288571
1130.229 .0288581
1130.838 .0288654
1131.448 .0288727
1132.058 .0288840
1132.669 .0288939
1133.281 .0289077
1133.894 .0289238
1134.507 .0289455
1135.120 .0289735
1135.735 .0290092
1136.350 .0290547
1136.965 .0291130
1137.582 .0291797
1138.199 .0292568
1138.816 .0293393
1139.435 .0294299
1140.054 .0295330
1140.674 .0296528
1141.294 .0297895
1141.916 .0299721
1142.538 .0299377
1143.160 .0302894
1143.784 .0305729
1144.408 .0307958
1145.033 .0316569
