Measurement Sequence started on: 14-45-04-498
Integration time: 36
Scans to Average: 2 
>>>>>Begin Spectral Data<<<<<
433.946 .0520518
434.870 .0426733
435.793 .0380683
436.715 .0384126
437.635 .0384169
438.555 .0390716
439.473 .0383813
440.389 .0380925
441.305 .0379530
442.219 .0378139
443.132 .0377054
444.044 .0376313
444.954 .0376065
445.863 .0376282
446.771 .0376710
447.678 .0377038
448.584 .0377212
449.488 .0377164
450.391 .0376886
451.293 .0376458
452.194 .0376000
453.094 .0375573
453.992 .0375207
454.890 .0374919
455.786 .0374731
456.681 .0374509
457.575 .0374290
458.468 .0373919
459.360 .0373429
460.250 .0372758
461.140 .0371901
462.028 .0370902
462.915 .0369817
463.801 .0368675
464.687 .0367507
465.571 .0366417
466.454 .0365453
467.335 .0364595
468.216 .0363855
469.096 .0363219
469.975 .0362675
470.853 .0362142
471.729 .0361601
472.605 .0361020
473.479 .0360399
474.353 .0359737
475.226 .0359057
476.097 .0358411
476.968 .0357792
477.838 .0357245
478.706 .0356744
479.574 .0356339
480.441 .0356009
481.306 .0355704
482.171 .0355415
483.035 .0355125
483.898 .0354803
484.760 .0354429
485.621 .0354036
486.481 .0353650
487.340 .0353254
488.198 .0352889
489.055 .0352537
489.912 .0352218
490.767 .0351920
491.622 .0351638
492.476 .0351349
493.329 .0351071
494.180 .0350769
495.032 .0350415
495.882 .0350034
496.731 .0349640
497.580 .0349215
498.427 .0348771
499.274 .0348290
500.120 .0347803
500.965 .0347286
501.809 .0346780
502.653 .0346261
503.495 .0345761
504.337 .0345256
505.178 .0344739
506.018 .0344225
506.858 .0343698
507.696 .0343163
508.534 .0342614
509.371 .0342061
510.208 .0341547
511.043 .0341025
511.878 .0340565
512.712 .0340128
513.545 .0339776
514.377 .0339471
515.209 .0339189
516.040 .0338942
516.870 .0338707
517.699 .0338487
518.528 .0338252
519.356 .0338003
520.183 .0337777
521.010 .0337582
521.836 .0337441
522.661 .0337330
523.485 .0337255
524.309 .0337175
525.132 .0337096
525.954 .0336932
526.776 .0336701
527.597 .0336381
528.417 .0335965
529.237 .0335494
530.056 .0334939
530.874 .0334383
531.692 .0333842
532.508 .0333339
533.325 .0332899
534.140 .0332480
534.955 .0332111
535.770 .0331717
536.583 .0331356
537.397 .0331011
538.209 .0330673
539.021 .0330351
539.832 .0330055
540.643 .0329783
541.453 .0329533
542.262 .0329293
543.071 .0329036
543.879 .0328790
544.687 .0328533
545.494 .0328250
546.300 .0327996
547.106 .0327758
547.911 .0327546
548.716 .0327341
549.520 .0327131
550.323 .0326905
551.126 .0326617
551.929 .0326276
552.731 .0325830
553.532 .0325333
554.332 .0324816
555.133 .0324287
555.932 .0323789
556.731 .0323352
557.530 .0322952
558.328 .0322622
559.125 .0322318
559.922 .0322052
560.719 .0321793
561.515 .0321539
562.310 .0321267
563.105 .0320983
563.899 .0320698
564.693 .0320438
565.487 .0320185
566.280 .0319960
567.072 .0319760
567.864 .0319579
568.655 .0319409
569.446 .0319265
570.236 .0319126
571.026 .0319004
571.816 .0318871
572.605 .0318708
573.393 .0318521
574.181 .0318330
574.969 .0318130
575.756 .0317906
576.543 .0317692
577.329 .0317474
578.115 .0317259
578.900 .0317056
579.685 .0316848
580.469 .0316633
581.253 .0316434
582.036 .0316217
582.820 .0315990
583.602 .0315760
584.384 .0315530
585.166 .0315302
585.947 .0315087
586.728 .0314865
587.509 .0314641
588.289 .0314420
589.069 .0314227
589.848 .0314029
590.627 .0313840
591.405 .0313649
592.183 .0313460
592.961 .0313283
593.738 .0313101
594.515 .0312912
595.291 .0312729
596.067 .0312545
596.843 .0312357
597.618 .0312161
598.393 .0311973
599.167 .0311789
599.941 .0311616
600.715 .0311454
601.488 .0311293
602.261 .0311131
603.034 .0310983
603.806 .0310838
604.578 .0310692
605.349 .0310543
606.121 .0310397
606.891 .0310259
607.662 .0310121
608.432 .0309995
609.201 .0309872
609.971 .0309750
610.740 .0309627
611.508 .0309485
612.277 .0309336
613.045 .0309173
613.812 .0308999
614.579 .0308819
615.346 .0308635
616.113 .0308450
616.879 .0308266
617.645 .0308089
618.411 .0307919
619.176 .0307746
619.941 .0307568
620.705 .0307386
621.470 .0307196
622.233 .0306996
622.997 .0306793
623.760 .0306593
624.523 .0306400
625.286 .0306204
626.048 .0306015
626.810 .0305830
627.572 .0305646
628.333 .0305467
629.095 .0305288
629.855 .0305113
630.616 .0304942
631.376 .0304776
632.136 .0304616
632.895 .0304464
633.655 .0304329
634.414 .0304202
635.172 .0304087
635.931 .0303984
636.689 .0303886
637.447 .0303797
638.204 .0303715
638.962 .0303632
639.718 .0303543
640.475 .0303447
641.231 .0303339
641.988 .0303217
642.743 .0303082
643.499 .0302935
644.254 .0302784
645.009 .0302633
645.764 .0302489
646.518 .0302348
647.272 .0302215
648.026 .0302088
648.780 .0301960
649.533 .0301828
650.286 .0301690
651.039 .0301547
651.792 .0301400
652.544 .0301256
653.296 .0301117
654.048 .0300984
654.799 .0300865
655.550 .0300755
656.301 .0300655
657.052 .0300554
657.802 .0300447
658.552 .0300331
659.302 .0300207
660.052 .0300073
660.801 .0299932
661.550 .0299793
662.299 .0299659
663.048 .0299530
663.796 .0299413
664.544 .0299303
665.292 .0299199
666.040 .0299096
666.787 .0298990
667.534 .0298874
668.281 .0298749
669.028 .0298614
669.774 .0298472
670.521 .0298326
671.266 .0298177
672.012 .0298032
672.758 .0297893
673.503 .0297760
674.248 .0297637
674.992 .0297522
675.737 .0297418
676.481 .0297317
677.225 .0297221
677.969 .0297125
678.712 .0297031
679.455 .0296938
680.199 .0296848
680.941 .0296760
681.684 .0296678
682.426 .0296594
683.168 .0296513
683.910 .0296430
684.652 .0296344
685.393 .0296254
686.134 .0296162
686.875 .0296065
687.616 .0295964
688.356 .0295861
689.097 .0295758
689.837 .0295652
690.576 .0295543
691.316 .0295429
692.055 .0295313
692.794 .0295193
693.533 .0295070
694.272 .0294950
695.010 .0294842
695.748 .0294740
696.486 .0294647
697.224 .0294561
697.962 .0294476
698.699 .0294389
699.436 .0294292
700.173 .0294182
700.909 .0294061
701.646 .0293931
702.382 .0293796
703.118 .0293662
703.853 .0293539
704.589 .0293424
705.324 .0293318
706.059 .0293223
706.794 .0293130
707.529 .0293033
708.263 .0292933
708.997 .0292828
709.731 .0292713
710.465 .0292597
711.198 .0292477
711.931 .0292360
712.664 .0292247
713.397 .0292134
714.130 .0292016
714.862 .0291893
715.594 .0291764
716.326 .0291624
717.058 .0291477
717.789 .0291326
718.520 .0291167
719.251 .0291008
719.982 .0290852
720.713 .0290701
721.443 .0290557
722.173 .0290418
722.903 .0290283
723.633 .0290154
724.362 .0290026
725.091 .0289900
725.820 .0289782
726.549 .0289670
727.278 .0289562
728.006 .0289456
728.734 .0289353
729.462 .0289253
730.190 .0289155
730.917 .0289055
731.644 .0288949
732.371 .0288838
733.098 .0288722
733.825 .0288594
734.551 .0288459
735.277 .0288317
736.003 .0288170
736.728 .0288018
737.454 .0287864
738.179 .0287709
738.904 .0287556
739.629 .0287406
740.353 .0287263
741.077 .0287125
741.801 .0286996
742.525 .0286872
743.249 .0286757
743.972 .0286650
744.695 .0286550
745.418 .0286454
746.141 .0286362
746.863 .0286272
747.585 .0286181
748.307 .0286086
749.029 .0285988
749.750 .0285885
750.472 .0285776
751.193 .0285662
751.913 .0285547
752.634 .0285427
753.354 .0285309
754.074 .0285191
754.794 .0285071
755.514 .0284950
756.233 .0284827
756.952 .0284702
757.671 .0284579
758.390 .0284459
759.108 .0284346
759.826 .0284241
760.544 .0284148
761.262 .0284067
761.979 .0283995
762.697 .0283934
763.414 .0283877
764.130 .0283821
764.847 .0283768
765.563 .0283710
766.279 .0283646
766.995 .0283578
767.710 .0283505
768.426 .0283430
769.141 .0283358
769.855 .0283289
770.570 .0283225
771.284 .0283167
771.998 .0283112
772.712 .0283058
773.426 .0283004
774.139 .0282946
774.852 .0282882
775.565 .0282814
776.277 .0282742
776.990 .0282668
777.702 .0282596
778.414 .0282527
779.125 .0282459
779.836 .0282392
780.547 .0282325
781.258 .0282250
781.969 .0282170
782.679 .0282082
783.389 .0281989
784.099 .0281892
784.808 .0281792
785.517 .0281695
786.226 .0281598
786.935 .0281507
787.643 .0281421
788.352 .0281340
789.060 .0281261
789.767 .0281181
790.475 .0281097
791.182 .0281011
791.889 .0280921
792.595 .0280825
793.301 .0280728
794.008 .0280629
794.713 .0280529
795.419 .0280429
796.124 .0280330
796.829 .0280237
797.534 .0280143
798.238 .0280053
798.942 .0279960
799.646 .0279862
800.350 .0279758
801.053 .0279643
801.756 .0279523
802.459 .0279395
803.162 .0279264
803.864 .0279131
804.566 .0279000
805.267 .0278871
805.969 .0278740
806.670 .0278609
807.371 .0278478
808.071 .0278345
808.772 .0278206
809.472 .0278060
810.171 .0277912
810.871 .0277763
811.570 .0277615
812.269 .0277465
812.967 .0277317
813.666 .0277172
814.364 .0277033
815.061 .0276898
815.759 .0276772
816.456 .0276655
817.153 .0276542
817.849 .0276431
818.545 .0276319
819.241 .0276200
819.937 .0276069
820.632 .0275925
821.327 .0275769
822.022 .0275598
822.717 .0275421
823.411 .0275242
824.105 .0275071
824.798 .0274911
825.491 .0274762
826.184 .0274621
826.877 .0274490
827.569 .0274363
828.261 .0274238
828.953 .0274111
829.645 .0273987
830.336 .0273865
831.027 .0273749
831.717 .0273645
832.407 .0273560
833.097 .0273493
833.787 .0273443
834.476 .0273405
835.165 .0273377
835.854 .0273349
836.542 .0273327
837.230 .0273301
837.918 .0273274
838.605 .0273244
839.292 .0273211
839.979 .0273173
840.665 .0273137
841.352 .0273098
842.037 .0273056
842.723 .0273009
843.408 .0272960
844.093 .0272904
844.777 .0272848
845.462 .0272794
846.145 .0272740
846.829 .0272686
847.512 .0272636
848.195 .0272581
848.878 .0272525
849.560 .0272465
850.242 .0272401
850.923 .0272327
851.605 .0272250
852.286 .0272168
852.966 .0272082
853.646 .0271998
854.326 .0271919
855.006 .0271840
855.685 .0271763
856.364 .0271679
857.043 .0271584
857.721 .0271480
858.399 .0271365
859.077 .0271238
859.754 .0271105
860.431 .0270971
861.107 .0270839
861.784 .0270708
862.459 .0270587
863.135 .0270468
863.810 .0270350
864.485 .0270232
865.160 .0270112
865.834 .0269989
866.508 .0269866
867.181 .0269742
867.854 .0269624
868.527 .0269509
869.199 .0269396
869.872 .0269281
870.543 .0269166
871.215 .0269047
871.886 .0268916
872.557 .0268777
873.227 .0268627
873.897 .0268465
874.567 .0268297
875.236 .0268124
875.905 .0267949
876.573 .0267775
877.242 .0267601
877.909 .0267427
878.577 .0267255
879.244 .0267083
879.911 .0266910
880.577 .0266744
881.243 .0266584
881.909 .0266431
882.575 .0266287
883.240 .0266155
883.904 .0266032
884.569 .0265920
885.232 .0265811
885.896 .0265706
886.559 .0265605
887.222 .0265501
887.885 .0265396
888.547 .0265293
889.208 .0265193
889.870 .0265098
890.531 .0265012
891.192 .0264934
891.852 .0264859
892.512 .0264791
893.171 .0264720
893.830 .0264646
894.489 .0264564
895.148 .0264477
895.806 .0264384
896.464 .0264294
897.121 .0264206
897.778 .0264125
898.434 .0264051
899.091 .0263987
899.747 .0263922
900.402 .0263853
901.057 .0263775
901.712 .0263688
902.366 .0263586
903.020 .0263479
903.674 .0263363
904.327 .0263247
904.980 .0263132
905.633 .0263021
906.285 .0262913
906.936 .0262812
907.588 .0262713
908.239 .0262616
908.889 .0262520
909.540 .0262429
910.190 .0262334
910.839 .0262245
911.488 .0262156
912.137 .0262071
912.785 .0261982
913.433 .0261894
914.081 .0261805
914.728 .0261718
915.375 .0261634
916.021 .0261552
916.668 .0261478
917.313 .0261413
917.959 .0261349
918.604 .0261285
919.248 .0261216
919.892 .0261140
920.536 .0261050
921.180 .0260956
921.823 .0260856
922.465 .0260754
923.108 .0260660
923.750 .0260577
924.391 .0260502
925.032 .0260436
925.673 .0260376
926.313 .0260312
926.953 .0260242
927.593 .0260156
928.232 .0260048
928.871 .0259929
929.510 .0259803
930.148 .0259671
930.786 .0259539
931.423 .0259415
932.060 .0259298
932.697 .0259186
933.333 .0259075
933.969 .0258956
934.604 .0258832
935.239 .0258700
935.874 .0258559
936.508 .0258413
937.142 .0258268
937.776 .0258126
938.409 .0257995
939.042 .0257874
939.674 .0257753
940.306 .0257635
940.938 .0257517
941.569 .0257394
942.200 .0257265
942.830 .0257125
943.460 .0256980
944.090 .0256829
944.720 .0256674
945.349 .0256516
945.977 .0256358
946.606 .0256202
947.233 .0256047
947.861 .0255894
948.488 .0255738
949.115 .0255577
949.741 .0255414
950.367 .0255252
950.993 .0255086
951.618 .0254919
952.243 .0254755
952.868 .0254595
953.492 .0254442
954.115 .0254293
954.739 .0254151
955.362 .0254017
955.984 .0253884
956.607 .0253748
957.229 .0253607
957.850 .0253467
958.471 .0253320
959.092 .0253169
959.713 .0253016
960.333 .0252860
960.952 .0252706
961.572 .0252556
962.191 .0252407
962.809 .0252261
963.428 .0252116
964.045 .0251965
964.663 .0251808
965.280 .0251649
965.897 .0251484
966.513 .0251319
967.129 .0251161
967.745 .0251009
968.361 .0250859
968.976 .0250721
969.590 .0250595
970.205 .0250474
970.818 .0250363
971.432 .0250255
972.045 .0250148
972.658 .0250046
973.271 .0249944
973.883 .0249838
974.495 .0249732
975.106 .0249627
975.717 .0249519
976.328 .0249410
976.938 .0249302
977.548 .0249193
978.158 .0249090
978.768 .0248988
979.377 .0248881
979.985 .0248772
980.594 .0248666
981.202 .0248557
981.809 .0248444
982.417 .0248338
983.024 .0248235
983.631 .0248142
984.237 .0248056
984.843 .0247971
985.449 .0247888
986.054 .0247803
986.659 .0247713
987.264 .0247618
987.868 .0247523
988.472 .0247430
989.076 .0247339
989.679 .0247256
990.282 .0247174
990.885 .0247094
991.487 .0247012
992.090 .0246927
992.691 .0246831
993.293 .0246732
993.894 .0246632
994.495 .0246543
995.095 .0246472
995.696 .0246417
996.296 .0246384
996.895 .0246373
997.494 .0246377
998.093 .0246392
998.692 .0246411
999.291 .0246432
999.889 .0246455
1000.487 .0246481
1001.084 .0246511
1001.681 .0246550
1002.278 .0246600
1002.875 .0246658
1003.471 .0246722
1004.067 .0246787
1004.663 .0246848
1005.258 .0246902
1005.854 .0246953
1006.449 .0246988
1007.043 .0247011
1007.638 .0247025
1008.232 .0247023
1008.826 .0247011
1009.419 .0246990
1010.012 .0246957
1010.605 .0246915
1011.198 .0246871
1011.791 .0246823
1012.383 .0246776
1012.975 .0246734
1013.566 .0246694
1014.158 .0246653
1014.749 .0246622
1015.340 .0246598
1015.931 .0246583
1016.521 .0246579
1017.111 .0246589
1017.701 .0246606
1018.291 .0246636
1018.880 .0246672
1019.470 .0246712
1020.059 .0246758
1020.647 .0246807
1021.236 .0246854
1021.824 .0246903
1022.412 .0246955
1023.000 .0247010
1023.588 .0247069
1024.175 .0247130
1024.762 .0247179
1025.349 .0247216
1025.936 .0247235
1026.523 .0247235
1027.109 .0247218
1027.695 .0247186
1028.281 .0247148
1028.867 .0247105
1029.452 .0247062
1030.038 .0247021
1030.623 .0246987
1031.208 .0246955
1031.792 .0246931
1032.377 .0246915
1032.961 .0246909
1033.546 .0246916
1034.130 .0246938
1034.714 .0246979
1035.297 .0247036
1035.881 .0247106
1036.464 .0247187
1037.047 .0247275
1037.630 .0247379
1038.213 .0247493
1038.796 .0247619
1039.378 .0247765
1039.961 .0247921
1040.543 .0248081
1041.125 .0248232
1041.707 .0248362
1042.289 .0248455
1042.871 .0248509
1043.452 .0248528
1044.034 .0248518
1044.615 .0248483
1045.196 .0248446
1045.777 .0248403
1046.358 .0248371
1046.939 .0248348
1047.520 .0248322
1048.101 .0248291
1048.681 .0248247
1049.262 .0248185
1049.842 .0248111
1050.422 .0248034
1051.002 .0247972
1051.582 .0247920
1052.162 .0247899
1052.742 .0247891
1053.322 .0247885
1053.902 .0247877
1054.482 .0247860
1055.061 .0247818
1055.641 .0247750
1056.220 .0247659
1056.800 .0247551
1057.379 .0247430
1057.958 .0247307
1058.538 .0247182
1059.117 .0247058
1059.696 .0246941
1060.275 .0246818
1060.854 .0246683
1061.433 .0246551
1062.012 .0246414
1062.592 .0246286
1063.171 .0246176
1063.750 .0246088
1064.329 .0246025
1064.908 .0245986
1065.487 .0245973
1066.066 .0245971
1066.645 .0245968
1067.224 .0245970
1067.803 .0245957
1068.382 .0245936
1068.961 .0245907
1069.540 .0245869
1070.119 .0245834
1070.698 .0245809
1071.278 .0245780
1071.857 .0245752
1072.436 .0245723
1073.016 .0245688
1073.595 .0245643
1074.175 .0245606
1074.754 .0245561
1075.334 .0245515
1075.913 .0245479
1076.493 .0245442
1077.073 .0245384
1077.653 .0245315
1078.233 .0245228
1078.813 .0245116
1079.393 .0244989
1079.974 .0244844
1080.554 .0244688
1081.135 .0244546
1081.716 .0244416
1082.296 .0244287
1082.877 .0244169
1083.458 .0244068
1084.040 .0243949
1084.621 .0243825
1085.202 .0243704
1085.784 .0243580
1086.366 .0243473
1086.948 .0243400
1087.530 .0243369
1088.112 .0243373
1088.695 .0243410
1089.277 .0243467
1089.860 .0243537
1090.443 .0243609
1091.026 .0243665
1091.610 .0243701
1092.193 .0243734
1092.777 .0243750
1093.361 .0243755
1093.946 .0243756
1094.530 .0243760
1095.115 .0243744
1095.700 .0243704
1096.285 .0243638
1096.871 .0243557
1097.456 .0243456
1098.042 .0243353
1098.628 .0243261
1099.215 .0243182
1099.802 .0243110
1100.389 .0243050
1100.976 .0242983
1101.564 .0242915
1102.152 .0242815
1102.740 .0242691
1103.329 .0242543
1103.917 .0242372
1104.507 .0242187
1105.096 .0242002
1105.686 .0241839
1106.276 .0241682
1106.867 .0241531
1107.457 .0241384
1108.049 .0241237
1108.640 .0241087
1109.232 .0240927
1109.825 .0240777
1110.417 .0240634
1111.010 .0240507
1111.604 .0240396
1112.198 .0240359
1112.792 .0240398
1113.387 .0240506
1113.982 .0240719
1114.577 .0241009
1115.173 .0241359
1115.769 .0241758
1116.366 .0242174
1116.963 .0242609
1117.561 .0243046
1118.159 .0243487
1118.758 .0243910
1119.357 .0244336
1119.957 .0244762
1120.557 .0245177
1121.157 .0245597
1121.758 .0245990
1122.360 .0246305
1122.962 .0246555
1123.564 .0246739
1124.167 .0246832
1124.771 .0246857
1125.375 .0246863
1125.980 .0246852
1126.585 .0246837
1127.191 .0246829
1127.797 .0246854
1128.404 .0246906
1129.012 .0246988
1129.620 .0247116
1130.229 .0247279
1130.838 .0247507
1131.448 .0247760
1132.058 .0248072
1132.669 .0248474
1133.281 .0248950
1133.894 .0249464
1134.507 .0250021
1135.120 .0250628
1135.735 .0251214
1136.350 .0251759
1136.965 .0252310
1137.582 .0252838
1138.199 .0253349
1138.816 .0253807
1139.435 .0254232
1140.054 .0254700
1140.674 .0255140
1141.294 .0255506
1141.916 .0256027
1142.538 .0256007
1143.160 .0258136
1143.784 .0256782
1144.408 .0255660
1145.033 .0261702
