Measurement Sequence started on: 14-45-04-498
Integration time: 36
Scans to Average: 2 
>>>>>Begin Spectral Data<<<<<
433.946 .0611804
434.870 .0504298
435.793 .0433040
436.715 .0423999
437.635 .0417942
438.555 .0421133
439.473 .0408121
440.389 .0401083
441.305 .0397433
442.219 .0394783
443.132 .0392999
444.044 .0392001
444.954 .0391455
445.863 .0391133
446.771 .0390735
447.678 .0390217
448.584 .0389545
449.488 .0388663
450.391 .0387709
451.293 .0386601
452.194 .0385604
453.094 .0384632
453.992 .0383668
454.890 .0382687
455.786 .0381763
456.681 .0380860
457.575 .0379982
458.468 .0379045
459.360 .0378167
460.250 .0377358
461.140 .0376695
462.028 .0376099
462.915 .0375598
463.801 .0375197
464.687 .0374875
465.571 .0374571
466.454 .0374293
467.335 .0373975
468.216 .0373665
469.096 .0373350
469.975 .0373044
470.853 .0372726
471.729 .0372375
472.605 .0372053
473.479 .0371753
474.353 .0371425
475.226 .0371095
476.097 .0370737
476.968 .0370413
477.838 .0370092
478.706 .0369802
479.574 .0369560
480.441 .0369363
481.306 .0369226
482.171 .0369131
483.035 .0369005
483.898 .0368884
484.760 .0368693
485.621 .0368452
486.481 .0368150
487.340 .0367801
488.198 .0367419
489.055 .0367051
489.912 .0366686
490.767 .0366322
491.622 .0365923
492.476 .0365515
493.329 .0365048
494.180 .0364527
495.032 .0363969
495.882 .0363379
496.731 .0362778
497.580 .0362235
498.427 .0361703
499.274 .0361245
500.120 .0360837
500.965 .0360459
501.809 .0360086
502.653 .0359691
503.495 .0359276
504.337 .0358822
505.178 .0358372
506.018 .0357948
506.858 .0357507
507.696 .0357102
508.534 .0356721
509.371 .0356358
510.208 .0356021
511.043 .0355704
511.878 .0355387
512.712 .0355091
513.545 .0354809
514.377 .0354512
515.209 .0354247
516.040 .0354028
516.870 .0353840
517.699 .0353670
518.528 .0353551
519.356 .0353483
520.183 .0353447
521.010 .0353528
521.836 .0353657
522.661 .0353802
523.485 .0353964
524.309 .0354052
525.132 .0354053
525.954 .0353940
526.776 .0353669
527.597 .0353289
528.417 .0352846
529.237 .0352365
530.056 .0351812
530.874 .0351293
531.692 .0350824
532.508 .0350364
533.325 .0349903
534.140 .0349365
534.955 .0348751
535.770 .0348053
536.583 .0347248
537.397 .0346346
538.209 .0345470
539.021 .0344655
539.832 .0343923
540.643 .0343336
541.453 .0342894
542.262 .0342588
543.071 .0342398
543.879 .0342243
544.687 .0342088
545.494 .0341875
546.300 .0341623
547.106 .0341263
547.911 .0340892
548.716 .0340522
549.520 .0340125
550.323 .0339731
551.126 .0339325
551.929 .0338899
552.731 .0338406
553.532 .0337856
554.332 .0337244
555.133 .0336563
555.932 .0335838
556.731 .0335069
557.530 .0334309
558.328 .0333590
559.125 .0332914
559.922 .0332289
560.719 .0331735
561.515 .0331256
562.310 .0330794
563.105 .0330399
563.899 .0330061
564.693 .0329774
565.487 .0329476
566.280 .0329193
567.072 .0328912
567.864 .0328616
568.655 .0328286
569.446 .0327926
570.236 .0327524
571.026 .0327136
571.816 .0326740
572.605 .0326349
573.393 .0325965
574.181 .0325602
574.969 .0325235
575.756 .0324869
576.543 .0324489
577.329 .0324102
578.115 .0323700
578.900 .0323321
579.685 .0322938
580.469 .0322576
581.253 .0322261
582.036 .0321980
582.820 .0321721
583.602 .0321499
584.384 .0321301
585.166 .0321114
585.947 .0320932
586.728 .0320750
587.509 .0320558
588.289 .0320350
589.069 .0320123
589.848 .0319875
590.627 .0319616
591.405 .0319355
592.183 .0319073
592.961 .0318798
593.738 .0318528
594.515 .0318253
595.291 .0317977
596.067 .0317699
596.843 .0317415
597.618 .0317116
598.393 .0316813
599.167 .0316506
599.941 .0316202
600.715 .0315908
601.488 .0315627
602.261 .0315361
603.034 .0315104
603.806 .0314862
604.578 .0314627
605.349 .0314408
606.121 .0314202
606.891 .0313998
607.662 .0313800
608.432 .0313612
609.201 .0313436
609.971 .0313266
610.740 .0313104
611.508 .0312947
612.277 .0312790
613.045 .0312632
613.812 .0312470
614.579 .0312311
615.346 .0312155
616.113 .0312006
616.879 .0311851
617.645 .0311703
618.411 .0311562
619.176 .0311426
619.941 .0311292
620.705 .0311161
621.470 .0311030
622.233 .0310895
622.997 .0310757
623.760 .0310620
624.523 .0310484
625.286 .0310349
626.048 .0310216
626.810 .0310083
627.572 .0309937
628.333 .0309786
629.095 .0309622
629.855 .0309446
630.616 .0309252
631.376 .0309036
632.136 .0308806
632.895 .0308568
633.655 .0308327
634.414 .0308079
635.172 .0307828
635.931 .0307573
636.689 .0307301
637.447 .0307016
638.204 .0306717
638.962 .0306399
639.718 .0306066
640.475 .0305717
641.231 .0305358
641.988 .0304990
642.743 .0304617
643.499 .0304241
644.254 .0303861
645.009 .0303472
645.764 .0303084
646.518 .0302695
647.272 .0302313
648.026 .0301943
648.780 .0301590
649.533 .0301257
650.286 .0300950
651.039 .0300669
651.792 .0300418
652.544 .0300196
653.296 .0300005
654.048 .0299833
654.799 .0299690
655.550 .0299570
656.301 .0299471
657.052 .0299390
657.802 .0299328
658.552 .0299271
659.302 .0299219
660.052 .0299171
660.801 .0299117
661.550 .0299058
662.299 .0298994
663.048 .0298916
663.796 .0298828
664.544 .0298724
665.292 .0298611
666.040 .0298492
666.787 .0298375
667.534 .0298256
668.281 .0298142
669.028 .0298037
669.774 .0297942
670.521 .0297854
671.266 .0297776
672.012 .0297702
672.758 .0297627
673.503 .0297552
674.248 .0297477
674.992 .0297406
675.737 .0297340
676.481 .0297274
677.225 .0297212
677.969 .0297149
678.712 .0297082
679.455 .0297011
680.199 .0296933
680.941 .0296850
681.684 .0296759
682.426 .0296660
683.168 .0296551
683.910 .0296438
684.652 .0296321
685.393 .0296201
686.134 .0296081
686.875 .0295963
687.616 .0295844
688.356 .0295727
689.097 .0295612
689.837 .0295498
690.576 .0295380
691.316 .0295256
692.055 .0295125
692.794 .0294984
693.533 .0294831
694.272 .0294664
695.010 .0294489
695.748 .0294311
696.486 .0294130
697.224 .0293948
697.962 .0293771
698.699 .0293598
699.436 .0293426
700.173 .0293254
700.909 .0293077
701.646 .0292897
702.382 .0292714
703.118 .0292532
703.853 .0292353
704.589 .0292181
705.324 .0292022
706.059 .0291876
706.794 .0291744
707.529 .0291623
708.263 .0291503
708.997 .0291383
709.731 .0291263
710.465 .0291138
711.198 .0291007
711.931 .0290874
712.664 .0290741
713.397 .0290610
714.130 .0290477
714.862 .0290345
715.594 .0290208
716.326 .0290072
717.058 .0289936
717.789 .0289794
718.520 .0289651
719.251 .0289512
719.982 .0289374
720.713 .0289244
721.443 .0289120
722.173 .0289000
722.903 .0288882
723.633 .0288769
724.362 .0288653
725.091 .0288533
725.820 .0288423
726.549 .0288323
727.278 .0288233
728.006 .0288164
728.734 .0288113
729.462 .0288082
730.190 .0288071
730.917 .0288075
731.644 .0288088
732.371 .0288110
733.098 .0288135
733.825 .0288156
734.551 .0288174
735.277 .0288190
736.003 .0288201
736.728 .0288210
737.454 .0288219
738.179 .0288225
738.904 .0288229
739.629 .0288228
740.353 .0288221
741.077 .0288203
741.801 .0288175
742.525 .0288135
743.249 .0288091
743.972 .0288042
744.695 .0287995
745.418 .0287954
746.141 .0287921
746.863 .0287896
747.585 .0287875
748.307 .0287851
749.029 .0287823
749.750 .0287783
750.472 .0287731
751.193 .0287666
751.913 .0287601
752.634 .0287530
753.354 .0287462
754.074 .0287396
754.794 .0287333
755.514 .0287267
756.233 .0287194
756.952 .0287105
757.671 .0287003
758.390 .0286886
759.108 .0286755
759.826 .0286617
760.544 .0286483
761.262 .0286355
761.979 .0286236
762.697 .0286122
763.414 .0286014
764.130 .0285906
764.847 .0285797
765.563 .0285680
766.279 .0285560
766.995 .0285434
767.710 .0285310
768.426 .0285189
769.141 .0285078
769.855 .0284971
770.570 .0284871
771.284 .0284778
771.998 .0284687
772.712 .0284597
773.426 .0284511
774.139 .0284428
774.852 .0284352
775.565 .0284280
776.277 .0284210
776.990 .0284142
777.702 .0284075
778.414 .0284001
779.125 .0283916
779.836 .0283822
780.547 .0283719
781.258 .0283607
781.969 .0283493
782.679 .0283379
783.389 .0283269
784.099 .0283163
784.808 .0283060
785.517 .0282957
786.226 .0282854
786.935 .0282744
787.643 .0282633
788.352 .0282521
789.060 .0282410
789.767 .0282300
790.475 .0282196
791.182 .0282099
791.889 .0282004
792.595 .0281913
793.301 .0281825
794.008 .0281738
794.713 .0281656
795.419 .0281576
796.124 .0281500
796.829 .0281433
797.534 .0281378
798.238 .0281327
798.942 .0281287
799.646 .0281254
800.350 .0281220
801.053 .0281189
801.756 .0281160
802.459 .0281131
803.162 .0281104
803.864 .0281079
804.566 .0281058
805.267 .0281036
805.969 .0281018
806.670 .0280993
807.371 .0280971
808.071 .0280951
808.772 .0280921
809.472 .0280888
810.171 .0280853
810.871 .0280815
811.570 .0280774
812.269 .0280729
812.967 .0280679
813.666 .0280625
814.364 .0280568
815.061 .0280508
815.759 .0280450
816.456 .0280397
817.153 .0280347
817.849 .0280301
818.545 .0280262
819.241 .0280225
819.937 .0280186
820.632 .0280154
821.327 .0280121
822.022 .0280086
822.717 .0280053
823.411 .0280024
824.105 .0280000
824.798 .0279983
825.491 .0279967
826.184 .0279947
826.877 .0279927
827.569 .0279903
828.261 .0279864
828.953 .0279820
829.645 .0279768
830.336 .0279709
831.027 .0279647
831.717 .0279586
832.407 .0279526
833.097 .0279468
833.787 .0279410
834.476 .0279348
835.165 .0279287
835.854 .0279226
836.542 .0279163
837.230 .0279104
837.918 .0279050
838.605 .0278998
839.292 .0278948
839.979 .0278907
840.665 .0278869
841.352 .0278833
842.037 .0278798
842.723 .0278756
843.408 .0278708
844.093 .0278650
844.777 .0278579
845.462 .0278497
846.145 .0278403
846.829 .0278296
847.512 .0278177
848.195 .0278052
848.878 .0277921
849.560 .0277788
850.242 .0277657
850.923 .0277522
851.605 .0277379
852.286 .0277228
852.966 .0277068
853.646 .0276899
854.326 .0276726
855.006 .0276544
855.685 .0276362
856.364 .0276184
857.043 .0276011
857.721 .0275848
858.399 .0275693
859.077 .0275544
859.754 .0275396
860.431 .0275247
861.107 .0275093
861.784 .0274931
862.459 .0274771
863.135 .0274611
863.810 .0274454
864.485 .0274299
865.160 .0274147
865.834 .0274004
866.508 .0273868
867.181 .0273732
867.854 .0273595
868.527 .0273458
869.199 .0273316
869.872 .0273165
870.543 .0273007
871.215 .0272846
871.886 .0272687
872.557 .0272529
873.227 .0272375
873.897 .0272226
874.567 .0272086
875.236 .0271956
875.905 .0271832
876.573 .0271718
877.242 .0271601
877.909 .0271482
878.577 .0271361
879.244 .0271237
879.911 .0271105
880.577 .0270968
881.243 .0270827
881.909 .0270683
882.575 .0270533
883.240 .0270378
883.904 .0270220
884.569 .0270061
885.232 .0269894
885.896 .0269720
886.559 .0269539
887.222 .0269364
887.885 .0269194
888.547 .0269036
889.208 .0268893
889.870 .0268764
890.531 .0268652
891.192 .0268560
891.852 .0268484
892.512 .0268423
893.171 .0268377
893.830 .0268346
894.489 .0268326
895.148 .0268318
895.806 .0268323
896.464 .0268345
897.121 .0268382
897.778 .0268428
898.434 .0268473
899.091 .0268515
899.747 .0268549
900.402 .0268573
901.057 .0268583
901.712 .0268582
902.366 .0268570
903.020 .0268545
903.674 .0268515
904.327 .0268482
904.980 .0268441
905.633 .0268393
906.285 .0268340
906.936 .0268277
907.588 .0268204
908.239 .0268126
908.889 .0268043
909.540 .0267962
910.190 .0267883
910.839 .0267803
911.488 .0267730
912.137 .0267663
912.785 .0267596
913.433 .0267533
914.081 .0267471
914.728 .0267407
915.375 .0267339
916.021 .0267272
916.668 .0267201
917.313 .0267131
917.959 .0267062
918.604 .0266991
919.248 .0266920
919.892 .0266848
920.536 .0266771
921.180 .0266696
921.823 .0266621
922.465 .0266538
923.108 .0266453
923.750 .0266369
924.391 .0266279
925.032 .0266188
925.673 .0266093
926.313 .0265997
926.953 .0265902
927.593 .0265810
928.232 .0265717
928.871 .0265628
929.510 .0265545
930.148 .0265458
930.786 .0265368
931.423 .0265278
932.060 .0265183
932.697 .0265083
933.333 .0264981
933.969 .0264871
934.604 .0264752
935.239 .0264629
935.874 .0264501
936.508 .0264373
937.142 .0264248
937.776 .0264123
938.409 .0264002
939.042 .0263883
939.674 .0263764
940.306 .0263643
940.938 .0263524
941.569 .0263406
942.200 .0263284
942.830 .0263164
943.460 .0263041
944.090 .0262917
944.720 .0262797
945.349 .0262680
945.977 .0262564
946.606 .0262451
947.233 .0262337
947.861 .0262222
948.488 .0262102
949.115 .0261971
949.741 .0261828
950.367 .0261673
950.993 .0261500
951.618 .0261311
952.243 .0261115
952.868 .0260915
953.492 .0260717
954.115 .0260523
954.739 .0260342
955.362 .0260171
955.984 .0260013
956.607 .0259864
957.229 .0259723
957.850 .0259590
958.471 .0259458
959.092 .0259324
959.713 .0259194
960.333 .0259065
960.952 .0258939
961.572 .0258818
962.191 .0258702
962.809 .0258586
963.428 .0258468
964.045 .0258342
964.663 .0258212
965.280 .0258074
965.897 .0257929
966.513 .0257781
967.129 .0257635
967.745 .0257494
968.361 .0257360
968.976 .0257237
969.590 .0257125
970.205 .0257021
970.818 .0256928
971.432 .0256838
972.045 .0256756
972.658 .0256681
973.271 .0256607
973.883 .0256537
974.495 .0256466
975.106 .0256391
975.717 .0256312
976.328 .0256226
976.938 .0256131
977.548 .0256031
978.158 .0255924
978.768 .0255812
979.377 .0255692
979.985 .0255566
980.594 .0255431
981.202 .0255290
981.809 .0255143
982.417 .0254991
983.024 .0254836
983.631 .0254683
984.237 .0254529
984.843 .0254382
985.449 .0254235
986.054 .0254086
986.659 .0253934
987.264 .0253777
987.868 .0253611
988.472 .0253446
989.076 .0253278
989.679 .0253119
990.282 .0252970
990.885 .0252835
991.487 .0252710
992.090 .0252594
992.691 .0252482
993.293 .0252375
993.894 .0252265
994.495 .0252158
995.095 .0252043
995.696 .0251933
996.296 .0251819
996.895 .0251709
997.494 .0251601
998.093 .0251502
998.692 .0251406
999.291 .0251319
999.889 .0251230
1000.487 .0251146
1001.084 .0251062
1001.681 .0250977
1002.278 .0250886
1002.875 .0250796
1003.471 .0250702
1004.067 .0250609
1004.663 .0250518
1005.258 .0250436
1005.854 .0250359
1006.449 .0250301
1007.043 .0250254
1007.638 .0250216
1008.232 .0250189
1008.826 .0250172
1009.419 .0250158
1010.012 .0250147
1010.605 .0250137
1011.198 .0250124
1011.791 .0250106
1012.383 .0250087
1012.975 .0250061
1013.566 .0250034
1014.158 .0250007
1014.749 .0249977
1015.340 .0249945
1015.931 .0249919
1016.521 .0249896
1017.111 .0249873
1017.701 .0249852
1018.291 .0249834
1018.880 .0249810
1019.470 .0249786
1020.059 .0249768
1020.647 .0249750
1021.236 .0249744
1021.824 .0249755
1022.412 .0249784
1023.000 .0249832
1023.588 .0249899
1024.175 .0249978
1024.762 .0250064
1025.349 .0250156
1025.936 .0250242
1026.523 .0250317
1027.109 .0250396
1027.695 .0250469
1028.281 .0250536
1028.867 .0250601
1029.452 .0250666
1030.038 .0250717
1030.623 .0250761
1031.208 .0250791
1031.792 .0250804
1032.377 .0250807
1032.961 .0250804
1033.546 .0250795
1034.130 .0250793
1034.714 .0250802
1035.297 .0250820
1035.881 .0250860
1036.464 .0250916
1037.047 .0250979
1037.630 .0251047
1038.213 .0251115
1038.796 .0251181
1039.378 .0251244
1039.961 .0251310
1040.543 .0251373
1041.125 .0251438
1041.707 .0251508
1042.289 .0251573
1042.871 .0251644
1043.452 .0251714
1044.034 .0251778
1044.615 .0251838
1045.196 .0251886
1045.777 .0251917
1046.358 .0251935
1046.939 .0251944
1047.520 .0251948
1048.101 .0251952
1048.681 .0251961
1049.262 .0251968
1049.842 .0251978
1050.422 .0251994
1051.002 .0252005
1051.582 .0252010
1052.162 .0252004
1052.742 .0251981
1053.322 .0251943
1053.902 .0251891
1054.482 .0251833
1055.061 .0251782
1055.641 .0251746
1056.220 .0251730
1056.800 .0251738
1057.379 .0251774
1057.958 .0251833
1058.538 .0251907
1059.117 .0251990
1059.696 .0252075
1060.275 .0252156
1060.854 .0252222
1061.433 .0252273
1062.012 .0252311
1062.592 .0252346
1063.171 .0252383
1063.750 .0252424
1064.329 .0252467
1064.908 .0252505
1065.487 .0252536
1066.066 .0252551
1066.645 .0252538
1067.224 .0252503
1067.803 .0252438
1068.382 .0252352
1068.961 .0252242
1069.540 .0252118
1070.119 .0252000
1070.698 .0251903
1071.278 .0251833
1071.857 .0251789
1072.436 .0251774
1073.016 .0251786
1073.595 .0251808
1074.175 .0251844
1074.754 .0251876
1075.334 .0251900
1075.913 .0251911
1076.493 .0251920
1077.073 .0251918
1077.653 .0251916
1078.233 .0251930
1078.813 .0251968
1079.393 .0252023
1079.974 .0252097
1080.554 .0252188
1081.135 .0252288
1081.716 .0252392
1082.296 .0252492
1082.877 .0252573
1083.458 .0252649
1084.040 .0252709
1084.621 .0252748
1085.202 .0252770
1085.784 .0252796
1086.366 .0252819
1086.948 .0252831
1087.530 .0252850
1088.112 .0252850
1088.695 .0252837
1089.277 .0252821
1089.860 .0252792
1090.443 .0252747
1091.026 .0252707
1091.610 .0252675
1092.193 .0252644
1092.777 .0252605
1093.361 .0252576
1093.946 .0252539
1094.530 .0252504
1095.115 .0252462
1095.700 .0252406
1096.285 .0252363
1096.871 .0252338
1097.456 .0252328
1098.042 .0252344
1098.628 .0252393
1099.215 .0252455
1099.802 .0252510
1100.389 .0252584
1100.976 .0252658
1101.564 .0252725
1102.152 .0252793
1102.740 .0252864
1103.329 .0252934
1103.917 .0253004
1104.507 .0253078
1105.096 .0253142
1105.686 .0253205
1106.276 .0253226
1106.867 .0253222
1107.457 .0253198
1108.049 .0253155
1108.640 .0253103
1109.232 .0253056
1109.825 .0253035
1110.417 .0253001
1111.010 .0252962
1111.604 .0252902
1112.198 .0252821
1112.792 .0252732
1113.387 .0252611
1113.982 .0252496
1114.577 .0252396
1115.173 .0252320
1115.769 .0252267
1116.366 .0252242
1116.963 .0252242
1117.561 .0252221
1118.159 .0252183
1118.758 .0252095
1119.357 .0251975
1119.957 .0251824
1120.557 .0251687
1121.157 .0251593
1121.758 .0251552
1122.360 .0251578
1122.962 .0251637
1123.564 .0251740
1124.167 .0251875
1124.771 .0252017
1125.375 .0252169
1125.980 .0252325
1126.585 .0252509
1127.191 .0252703
1127.797 .0252945
1128.404 .0253243
1129.012 .0253594
1129.620 .0253988
1130.229 .0254393
1130.838 .0254784
1131.448 .0255127
1132.058 .0255456
1132.669 .0255735
1133.281 .0256016
1133.894 .0256304
1134.507 .0256571
1135.120 .0256858
1135.735 .0257152
1136.350 .0257467
1136.965 .0257799
1137.582 .0258146
1138.199 .0258516
1138.816 .0258873
1139.435 .0259257
1140.054 .0259656
1140.674 .0260136
1141.294 .0260757
1141.916 .0261505
1142.538 .0261191
1143.160 .0262137
1143.784 .0264056
1144.408 .0266322
1145.033 .0267813
