Measurement Sequence started on: 14-45-04-498
Integration time: 36
Scans to Average: 2 
>>>>>Begin Spectral Data<<<<<
433.946 .0598360
434.870 .0527635
435.793 .0483506
436.715 .0457521
437.635 .0443194
438.555 .0459073
439.473 .0448926
440.389 .0442777
441.305 .0438657
442.219 .0435486
443.132 .0432789
444.044 .0430162
444.954 .0428016
445.863 .0426479
446.771 .0425342
447.678 .0424532
448.584 .0423794
449.488 .0423089
450.391 .0422353
451.293 .0421505
452.194 .0420586
453.094 .0419689
453.992 .0418901
454.890 .0418249
455.786 .0417831
456.681 .0417643
457.575 .0417509
458.468 .0417379
459.360 .0417187
460.250 .0416827
461.140 .0416293
462.028 .0415580
462.915 .0414686
463.801 .0413650
464.687 .0412489
465.571 .0411265
466.454 .0410004
467.335 .0408805
468.216 .0407633
469.096 .0406468
469.975 .0405371
470.853 .0404266
471.729 .0403129
472.605 .0402026
473.479 .0400965
474.353 .0399948
475.226 .0398988
476.097 .0398117
476.968 .0397344
477.838 .0396671
478.706 .0396121
479.574 .0395666
480.441 .0395314
481.306 .0395047
482.171 .0394798
483.035 .0394556
483.898 .0394318
484.760 .0394055
485.621 .0393778
486.481 .0393483
487.340 .0393171
488.198 .0392839
489.055 .0392500
489.912 .0392168
490.767 .0391852
491.622 .0391508
492.476 .0391152
493.329 .0390784
494.180 .0390390
495.032 .0389980
495.882 .0389528
496.731 .0389060
497.580 .0388578
498.427 .0388084
499.274 .0387541
500.120 .0386991
500.965 .0386463
501.809 .0385903
502.653 .0385302
503.495 .0384691
504.337 .0384050
505.178 .0383384
506.018 .0382717
506.858 .0382024
507.696 .0381327
508.534 .0380667
509.371 .0379982
510.208 .0379371
511.043 .0378849
511.878 .0378431
512.712 .0378075
513.545 .0377837
514.377 .0377661
515.209 .0377506
516.040 .0377436
516.870 .0377411
517.699 .0377435
518.528 .0377521
519.356 .0377623
520.183 .0377740
521.010 .0377898
521.836 .0378039
522.661 .0378047
523.485 .0377979
524.309 .0377786
525.132 .0377390
525.954 .0376856
526.776 .0376232
527.597 .0375545
528.417 .0374846
529.237 .0374163
530.056 .0373513
530.874 .0372969
531.692 .0372495
532.508 .0372021
533.325 .0371583
534.140 .0371154
534.955 .0370653
535.770 .0370104
536.583 .0369586
537.397 .0369057
538.209 .0368540
539.021 .0368027
539.832 .0367482
540.643 .0366960
541.453 .0366405
542.262 .0365751
543.071 .0365028
543.879 .0364229
544.687 .0363366
545.494 .0362482
546.300 .0361700
547.106 .0361041
547.911 .0360567
548.716 .0360337
549.520 .0360270
550.323 .0360353
551.126 .0360532
551.929 .0360715
552.731 .0360828
553.532 .0360818
554.332 .0360672
555.133 .0360432
555.932 .0360175
556.731 .0359915
557.530 .0359728
558.328 .0359628
559.125 .0359582
559.922 .0359560
560.719 .0359516
561.515 .0359408
562.310 .0359193
563.105 .0358919
563.899 .0358577
564.693 .0358186
565.487 .0357819
566.280 .0357475
567.072 .0357190
567.864 .0356921
568.655 .0356630
569.446 .0356299
570.236 .0355897
571.026 .0355401
571.816 .0354823
572.605 .0354208
573.393 .0353596
574.181 .0353008
574.969 .0352485
575.756 .0352052
576.543 .0351707
577.329 .0351424
578.115 .0351180
578.900 .0350950
579.685 .0350737
580.469 .0350515
581.253 .0350331
582.036 .0350162
582.820 .0350026
583.602 .0349941
584.384 .0349882
585.166 .0349851
585.947 .0349821
586.728 .0349775
587.509 .0349712
588.289 .0349608
589.069 .0349463
589.848 .0349269
590.627 .0349057
591.405 .0348826
592.183 .0348580
592.961 .0348334
593.738 .0348093
594.515 .0347846
595.291 .0347599
596.067 .0347358
596.843 .0347117
597.618 .0346877
598.393 .0346636
599.167 .0346392
599.941 .0346143
600.715 .0345888
601.488 .0345634
602.261 .0345382
603.034 .0345144
603.806 .0344918
604.578 .0344702
605.349 .0344497
606.121 .0344307
606.891 .0344125
607.662 .0343939
608.432 .0343754
609.201 .0343560
609.971 .0343355
610.740 .0343143
611.508 .0342927
612.277 .0342715
613.045 .0342505
613.812 .0342310
614.579 .0342121
615.346 .0341939
616.113 .0341768
616.879 .0341595
617.645 .0341429
618.411 .0341268
619.176 .0341107
619.941 .0340943
620.705 .0340785
621.470 .0340633
622.233 .0340479
622.997 .0340328
623.760 .0340177
624.523 .0340022
625.286 .0339860
626.048 .0339693
626.810 .0339506
627.572 .0339304
628.333 .0339088
629.095 .0338848
629.855 .0338598
630.616 .0338335
631.376 .0338070
632.136 .0337807
632.895 .0337554
633.655 .0337311
634.414 .0337079
635.172 .0336864
635.931 .0336661
636.689 .0336465
637.447 .0336285
638.204 .0336110
638.962 .0335946
639.718 .0335797
640.475 .0335664
641.231 .0335541
641.988 .0335426
642.743 .0335315
643.499 .0335205
644.254 .0335084
645.009 .0334948
645.764 .0334794
646.518 .0334633
647.272 .0334464
648.026 .0334283
648.780 .0334105
649.533 .0333935
650.286 .0333772
651.039 .0333614
651.792 .0333456
652.544 .0333303
653.296 .0333151
654.048 .0333000
654.799 .0332846
655.550 .0332693
656.301 .0332546
657.052 .0332401
657.802 .0332262
658.552 .0332128
659.302 .0331996
660.052 .0331863
660.801 .0331727
661.550 .0331585
662.299 .0331432
663.048 .0331268
663.796 .0331101
664.544 .0330930
665.292 .0330752
666.040 .0330574
666.787 .0330401
667.534 .0330234
668.281 .0330075
669.028 .0329920
669.774 .0329769
670.521 .0329622
671.266 .0329480
672.012 .0329342
672.758 .0329213
673.503 .0329096
674.248 .0328988
674.992 .0328888
675.737 .0328799
676.481 .0328711
677.225 .0328622
677.969 .0328530
678.712 .0328432
679.455 .0328327
680.199 .0328218
680.941 .0328107
681.684 .0327996
682.426 .0327887
683.168 .0327777
683.910 .0327664
684.652 .0327544
685.393 .0327416
686.134 .0327277
686.875 .0327131
687.616 .0326980
688.356 .0326826
689.097 .0326675
689.837 .0326531
690.576 .0326392
691.316 .0326255
692.055 .0326121
692.794 .0325989
693.533 .0325855
694.272 .0325718
695.010 .0325580
695.748 .0325442
696.486 .0325303
697.224 .0325166
697.962 .0325027
698.699 .0324888
699.436 .0324748
700.173 .0324609
700.909 .0324467
701.646 .0324327
702.382 .0324189
703.118 .0324050
703.853 .0323913
704.589 .0323775
705.324 .0323631
706.059 .0323479
706.794 .0323320
707.529 .0323158
708.263 .0322989
708.997 .0322821
709.731 .0322652
710.465 .0322488
711.198 .0322328
711.931 .0322167
712.664 .0322006
713.397 .0321843
714.130 .0321676
714.862 .0321497
715.594 .0321313
716.326 .0321130
717.058 .0320949
717.789 .0320776
718.520 .0320609
719.251 .0320452
719.982 .0320303
720.713 .0320161
721.443 .0320023
722.173 .0319883
722.903 .0319741
723.633 .0319595
724.362 .0319449
725.091 .0319302
725.820 .0319157
726.549 .0319018
727.278 .0318889
728.006 .0318769
728.734 .0318650
729.462 .0318537
730.190 .0318427
730.917 .0318316
731.644 .0318198
732.371 .0318073
733.098 .0317941
733.825 .0317802
734.551 .0317660
735.277 .0317511
736.003 .0317358
736.728 .0317204
737.454 .0317048
738.179 .0316891
738.904 .0316732
739.629 .0316573
740.353 .0316415
741.077 .0316261
741.801 .0316108
742.525 .0315954
743.249 .0315807
743.972 .0315664
744.695 .0315527
745.418 .0315393
746.141 .0315265
746.863 .0315144
747.585 .0315029
748.307 .0314918
749.029 .0314806
749.750 .0314689
750.472 .0314566
751.193 .0314434
751.913 .0314295
752.634 .0314148
753.354 .0313990
754.074 .0313825
754.794 .0313654
755.514 .0313470
756.233 .0313278
756.952 .0313074
757.671 .0312864
758.390 .0312645
759.108 .0312420
759.826 .0312196
760.544 .0311977
761.262 .0311770
761.979 .0311576
762.697 .0311391
763.414 .0311221
764.130 .0311057
764.847 .0310902
765.563 .0310754
766.279 .0310613
766.995 .0310478
767.710 .0310349
768.426 .0310227
769.141 .0310113
769.855 .0310000
770.570 .0309893
771.284 .0309788
771.998 .0309681
772.712 .0309573
773.426 .0309462
774.139 .0309350
774.852 .0309239
775.565 .0309126
776.277 .0309012
776.990 .0308892
777.702 .0308770
778.414 .0308640
779.125 .0308504
779.836 .0308365
780.547 .0308223
781.258 .0308080
781.969 .0307942
782.679 .0307805
783.389 .0307674
784.099 .0307546
784.808 .0307419
785.517 .0307291
786.226 .0307164
786.935 .0307032
787.643 .0306896
788.352 .0306760
789.060 .0306623
789.767 .0306483
790.475 .0306348
791.182 .0306211
791.889 .0306074
792.595 .0305940
793.301 .0305804
794.008 .0305663
794.713 .0305519
795.419 .0305372
796.124 .0305218
796.829 .0305057
797.534 .0304895
798.238 .0304728
798.942 .0304565
799.646 .0304406
800.350 .0304250
801.053 .0304100
801.756 .0303952
802.459 .0303801
803.162 .0303649
803.864 .0303494
804.566 .0303336
805.267 .0303174
805.969 .0303016
806.670 .0302862
807.371 .0302712
808.071 .0302572
808.772 .0302438
809.472 .0302304
810.171 .0302171
810.871 .0302031
811.570 .0301881
812.269 .0301720
812.967 .0301549
813.666 .0301368
814.364 .0301183
815.061 .0301001
815.759 .0300824
816.456 .0300661
817.153 .0300507
817.849 .0300355
818.545 .0300206
819.241 .0300056
819.937 .0299898
820.632 .0299730
821.327 .0299550
822.022 .0299356
822.717 .0299153
823.411 .0298946
824.105 .0298738
824.798 .0298531
825.491 .0298330
826.184 .0298125
826.877 .0297923
827.569 .0297719
828.261 .0297507
828.953 .0297291
829.645 .0297071
830.336 .0296845
831.027 .0296618
831.717 .0296399
832.407 .0296193
833.097 .0296009
833.787 .0295847
834.476 .0295704
835.165 .0295582
835.854 .0295478
836.542 .0295385
837.230 .0295298
837.918 .0295217
838.605 .0295134
839.292 .0295050
839.979 .0294966
840.665 .0294882
841.352 .0294804
842.037 .0294731
842.723 .0294659
843.408 .0294584
844.093 .0294503
844.777 .0294409
845.462 .0294299
846.145 .0294174
846.829 .0294032
847.512 .0293875
848.195 .0293710
848.878 .0293544
849.560 .0293376
850.242 .0293210
850.923 .0293048
851.605 .0292884
852.286 .0292717
852.966 .0292545
853.646 .0292371
854.326 .0292197
855.006 .0292023
855.685 .0291852
856.364 .0291686
857.043 .0291526
857.721 .0291369
858.399 .0291213
859.077 .0291058
859.754 .0290905
860.431 .0290750
861.107 .0290597
861.784 .0290449
862.459 .0290302
863.135 .0290158
863.810 .0290018
864.485 .0289880
865.160 .0289742
865.834 .0289603
866.508 .0289467
867.181 .0289333
867.854 .0289205
868.527 .0289084
869.199 .0288971
869.872 .0288869
870.543 .0288770
871.215 .0288674
871.886 .0288576
872.557 .0288478
873.227 .0288372
873.897 .0288263
874.567 .0288152
875.236 .0288037
875.905 .0287923
876.573 .0287812
877.242 .0287701
877.909 .0287593
878.577 .0287485
879.244 .0287373
879.911 .0287253
880.577 .0287125
881.243 .0286985
881.909 .0286835
882.575 .0286674
883.240 .0286506
883.904 .0286332
884.569 .0286159
885.232 .0285986
885.896 .0285816
886.559 .0285651
887.222 .0285489
887.885 .0285327
888.547 .0285162
889.208 .0284994
889.870 .0284825
890.531 .0284656
891.192 .0284494
891.852 .0284344
892.512 .0284209
893.171 .0284088
893.830 .0283989
894.489 .0283902
895.148 .0283824
895.806 .0283748
896.464 .0283670
897.121 .0283583
897.778 .0283484
898.434 .0283381
899.091 .0283269
899.747 .0283156
900.402 .0283038
901.057 .0282915
901.712 .0282790
902.366 .0282658
903.020 .0282517
903.674 .0282366
904.327 .0282208
904.980 .0282042
905.633 .0281871
906.285 .0281704
906.936 .0281543
907.588 .0281386
908.239 .0281240
908.889 .0281097
909.540 .0280955
910.190 .0280816
910.839 .0280677
911.488 .0280541
912.137 .0280407
912.785 .0280270
913.433 .0280133
914.081 .0279991
914.728 .0279846
915.375 .0279690
916.021 .0279524
916.668 .0279352
917.313 .0279169
917.959 .0278977
918.604 .0278784
919.248 .0278588
919.892 .0278398
920.536 .0278211
921.180 .0278028
921.823 .0277848
922.465 .0277668
923.108 .0277491
923.750 .0277315
924.391 .0277139
925.032 .0276967
925.673 .0276801
926.313 .0276643
926.953 .0276494
927.593 .0276353
928.232 .0276219
928.871 .0276094
929.510 .0275980
930.148 .0275872
930.786 .0275770
931.423 .0275675
932.060 .0275585
932.697 .0275494
933.333 .0275407
933.969 .0275320
934.604 .0275231
935.239 .0275144
935.874 .0275058
936.508 .0274978
937.142 .0274912
937.776 .0274855
938.409 .0274808
939.042 .0274765
939.674 .0274725
940.306 .0274670
940.938 .0274599
941.569 .0274508
942.200 .0274399
942.830 .0274274
943.460 .0274140
944.090 .0273999
944.720 .0273861
945.349 .0273729
945.977 .0273602
946.606 .0273471
947.233 .0273338
947.861 .0273191
948.488 .0273026
949.115 .0272842
949.741 .0272645
950.367 .0272440
950.993 .0272237
951.618 .0272048
952.243 .0271871
952.868 .0271708
953.492 .0271558
954.115 .0271419
954.739 .0271285
955.362 .0271149
955.984 .0271010
956.607 .0270867
957.229 .0270727
957.850 .0270588
958.471 .0270445
959.092 .0270307
959.713 .0270174
960.333 .0270038
960.952 .0269895
961.572 .0269747
962.191 .0269596
962.809 .0269441
963.428 .0269287
964.045 .0269131
964.663 .0268977
965.280 .0268828
965.897 .0268679
966.513 .0268527
967.129 .0268379
967.745 .0268232
968.361 .0268086
968.976 .0267945
969.590 .0267814
970.205 .0267688
970.818 .0267580
971.432 .0267488
972.045 .0267407
972.658 .0267336
973.271 .0267273
973.883 .0267209
974.495 .0267146
975.106 .0267076
975.717 .0267000
976.328 .0266916
976.938 .0266831
977.548 .0266742
978.158 .0266653
978.768 .0266568
979.377 .0266483
979.985 .0266401
980.594 .0266321
981.202 .0266238
981.809 .0266155
982.417 .0266072
983.024 .0265990
983.631 .0265908
984.237 .0265822
984.843 .0265736
985.449 .0265646
986.054 .0265552
986.659 .0265454
987.264 .0265352
987.868 .0265244
988.472 .0265139
989.076 .0265035
989.679 .0264935
990.282 .0264839
990.885 .0264743
991.487 .0264639
992.090 .0264525
992.691 .0264396
993.293 .0264247
993.894 .0264085
994.495 .0263919
995.095 .0263749
995.696 .0263584
996.296 .0263426
996.895 .0263281
997.494 .0263152
998.093 .0263032
998.692 .0262916
999.291 .0262804
999.889 .0262697
1000.487 .0262586
1001.084 .0262472
1001.681 .0262362
1002.278 .0262256
1002.875 .0262159
1003.471 .0262069
1004.067 .0261992
1004.663 .0261925
1005.258 .0261867
1005.854 .0261815
1006.449 .0261770
1007.043 .0261731
1007.638 .0261690
1008.232 .0261653
1008.826 .0261625
1009.419 .0261605
1010.012 .0261593
1010.605 .0261590
1011.198 .0261598
1011.791 .0261613
1012.383 .0261633
1012.975 .0261652
1013.566 .0261673
1014.158 .0261691
1014.749 .0261707
1015.340 .0261721
1015.931 .0261737
1016.521 .0261754
1017.111 .0261775
1017.701 .0261800
1018.291 .0261828
1018.880 .0261849
1019.470 .0261865
1020.059 .0261874
1020.647 .0261879
1021.236 .0261872
1021.824 .0261865
1022.412 .0261861
1023.000 .0261869
1023.588 .0261891
1024.175 .0261925
1024.762 .0261968
1025.349 .0262018
1025.936 .0262066
1026.523 .0262109
1027.109 .0262142
1027.695 .0262169
1028.281 .0262187
1028.867 .0262203
1029.452 .0262208
1030.038 .0262211
1030.623 .0262214
1031.208 .0262224
1031.792 .0262232
1032.377 .0262241
1032.961 .0262250
1033.546 .0262257
1034.130 .0262265
1034.714 .0262272
1035.297 .0262279
1035.881 .0262288
1036.464 .0262295
1037.047 .0262306
1037.630 .0262318
1038.213 .0262345
1038.796 .0262381
1039.378 .0262438
1039.961 .0262506
1040.543 .0262576
1041.125 .0262649
1041.707 .0262719
1042.289 .0262776
1042.871 .0262824
1043.452 .0262863
1044.034 .0262896
1044.615 .0262925
1045.196 .0262968
1045.777 .0263015
1046.358 .0263074
1046.939 .0263141
1047.520 .0263203
1048.101 .0263252
1048.681 .0263283
1049.262 .0263292
1049.842 .0263278
1050.422 .0263248
1051.002 .0263208
1051.582 .0263157
1052.162 .0263118
1052.742 .0263085
1053.322 .0263058
1053.902 .0263042
1054.482 .0263042
1055.061 .0263041
1055.641 .0263040
1056.220 .0263038
1056.800 .0263027
1057.379 .0263003
1057.958 .0262962
1058.538 .0262908
1059.117 .0262837
1059.696 .0262769
1060.275 .0262699
1060.854 .0262623
1061.433 .0262559
1062.012 .0262488
1062.592 .0262404
1063.171 .0262313
1063.750 .0262203
1064.329 .0262067
1064.908 .0261894
1065.487 .0261702
1066.066 .0261482
1066.645 .0261250
1067.224 .0261027
1067.803 .0260818
1068.382 .0260632
1068.961 .0260483
1069.540 .0260354
1070.119 .0260252
1070.698 .0260175
1071.278 .0260121
1071.857 .0260074
1072.436 .0260026
1073.016 .0259982
1073.595 .0259945
1074.175 .0259918
1074.754 .0259928
1075.334 .0259960
1075.913 .0260022
1076.493 .0260100
1077.073 .0260174
1077.653 .0260230
1078.233 .0260258
1078.813 .0260257
1079.393 .0260209
1079.974 .0260133
1080.554 .0260044
1081.135 .0259926
1081.716 .0259818
1082.296 .0259724
1082.877 .0259640
1083.458 .0259553
1084.040 .0259454
1084.621 .0259332
1085.202 .0259188
1085.784 .0259034
1086.366 .0258868
1086.948 .0258714
1087.530 .0258596
1088.112 .0258508
1088.695 .0258440
1089.277 .0258404
1089.860 .0258377
1090.443 .0258344
1091.026 .0258302
1091.610 .0258237
1092.193 .0258165
1092.777 .0258091
1093.361 .0258038
1093.946 .0258011
1094.530 .0258006
1095.115 .0258034
1095.700 .0258051
1096.285 .0258073
1096.871 .0258082
1097.456 .0258056
1098.042 .0258016
1098.628 .0257969
1099.215 .0257920
1099.802 .0257868
1100.389 .0257845
1100.976 .0257848
1101.564 .0257866
1102.152 .0257898
1102.740 .0257925
1103.329 .0257937
1103.917 .0257930
1104.507 .0257883
1105.096 .0257778
1105.686 .0257662
1106.276 .0257532
1106.867 .0257391
1107.457 .0257264
1108.049 .0257155
1108.640 .0257066
1109.232 .0256984
1109.825 .0256936
1110.417 .0256887
1111.010 .0256841
1111.604 .0256805
1112.198 .0256774
1112.792 .0256761
1113.387 .0256772
1113.982 .0256827
1114.577 .0256948
1115.173 .0257152
1115.769 .0257408
1116.366 .0257717
1116.963 .0258096
1117.561 .0258497
1118.159 .0258900
1118.758 .0259291
1119.357 .0259673
1119.957 .0260017
1120.557 .0260343
1121.157 .0260645
1121.758 .0260949
1122.360 .0261283
1122.962 .0261624
1123.564 .0261978
1124.167 .0262352
1124.771 .0262718
1125.375 .0263066
1125.980 .0263423
1126.585 .0263751
1127.191 .0264038
1127.797 .0264326
1128.404 .0264602
1129.012 .0264858
1129.620 .0265137
1130.229 .0265437
1130.838 .0265745
1131.448 .0266066
1132.058 .0266398
1132.669 .0266698
1133.281 .0267006
1133.894 .0267296
1134.507 .0267568
1135.120 .0267890
1135.735 .0268279
1136.350 .0268696
1136.965 .0269175
1137.582 .0269706
1138.199 .0270261
1138.816 .0270807
1139.435 .0271319
1140.054 .0271796
1140.674 .0272319
1141.294 .0272867
1141.916 .0273135
1142.538 .0272980
1143.160 .0273682
1143.784 .0276749
1144.408 .0277219
1145.033 .0268791
