Measurement Sequence started on: 14-45-04-498
Integration time: 36
Scans to Average: 2 
>>>>>Begin Spectral Data<<<<<
433.946 .0508601
434.870 .0503406
435.793 .0467367
436.715 .0461820
437.635 .0452664
438.555 .0453354
439.473 .0446839
440.389 .0441560
441.305 .0438050
442.219 .0435195
443.132 .0433057
444.044 .0431400
444.954 .0430308
445.863 .0429591
446.771 .0429240
447.678 .0429076
448.584 .0429080
449.488 .0429081
450.391 .0429044
451.293 .0428964
452.194 .0428794
453.094 .0428498
453.992 .0428062
454.890 .0427390
455.786 .0426511
456.681 .0425419
457.575 .0424154
458.468 .0422789
459.360 .0421355
460.250 .0419850
461.140 .0418274
462.028 .0416724
462.915 .0415164
463.801 .0413588
464.687 .0411984
465.571 .0410375
466.454 .0408813
467.335 .0407310
468.216 .0405908
469.096 .0404657
469.975 .0403568
470.853 .0402648
471.729 .0401871
472.605 .0401168
473.479 .0400494
474.353 .0399829
475.226 .0399171
476.097 .0398516
476.968 .0397874
477.838 .0397256
478.706 .0396673
479.574 .0396152
480.441 .0395670
481.306 .0395198
482.171 .0394734
483.035 .0394250
483.898 .0393742
484.760 .0393207
485.621 .0392637
486.481 .0392056
487.340 .0391504
488.198 .0391004
489.055 .0390531
489.912 .0390087
490.767 .0389667
491.622 .0389252
492.476 .0388832
493.329 .0388403
494.180 .0387941
495.032 .0387464
495.882 .0386983
496.731 .0386492
497.580 .0386001
498.427 .0385525
499.274 .0385029
500.120 .0384536
500.965 .0384004
501.809 .0383435
502.653 .0382797
503.495 .0382141
504.337 .0381458
505.178 .0380753
506.018 .0380017
506.858 .0379250
507.696 .0378473
508.534 .0377737
509.371 .0377006
510.208 .0376325
511.043 .0375706
511.878 .0375159
512.712 .0374657
513.545 .0374226
514.377 .0373815
515.209 .0373438
516.040 .0373086
516.870 .0372735
517.699 .0372347
518.528 .0371965
519.356 .0371607
520.183 .0371273
521.010 .0370989
521.836 .0370731
522.661 .0370446
523.485 .0370152
524.309 .0369778
525.132 .0369261
525.954 .0368633
526.776 .0367908
527.597 .0367137
528.417 .0366411
529.237 .0365787
530.056 .0365225
530.874 .0364806
531.692 .0364538
532.508 .0364350
533.325 .0364193
534.140 .0364063
534.955 .0363914
535.770 .0363766
536.583 .0363596
537.397 .0363397
538.209 .0363220
539.021 .0363100
539.832 .0362934
540.643 .0362707
541.453 .0362423
542.262 .0362106
543.071 .0361697
543.879 .0361264
544.687 .0360786
545.494 .0360288
546.300 .0359771
547.106 .0359227
547.911 .0358700
548.716 .0358191
549.520 .0357679
550.323 .0357185
551.126 .0356695
551.929 .0356231
552.731 .0355747
553.532 .0355273
554.332 .0354807
555.133 .0354343
555.932 .0353848
556.731 .0353325
557.530 .0352809
558.328 .0352334
559.125 .0351922
559.922 .0351586
560.719 .0351352
561.515 .0351201
562.310 .0351134
563.105 .0351110
563.899 .0351113
564.693 .0351099
565.487 .0351063
566.280 .0350992
567.072 .0350901
567.864 .0350783
568.655 .0350644
569.446 .0350490
570.236 .0350328
571.026 .0350122
571.816 .0349849
572.605 .0349526
573.393 .0349159
574.181 .0348721
574.969 .0348229
575.756 .0347697
576.543 .0347144
577.329 .0346593
578.115 .0346052
578.900 .0345508
579.685 .0344986
580.469 .0344506
581.253 .0344055
582.036 .0343634
582.820 .0343247
583.602 .0342902
584.384 .0342586
585.166 .0342304
585.947 .0342031
586.728 .0341756
587.509 .0341501
588.289 .0341248
589.069 .0340998
589.848 .0340748
590.627 .0340500
591.405 .0340264
592.183 .0340044
592.961 .0339836
593.738 .0339628
594.515 .0339436
595.291 .0339258
596.067 .0339072
596.843 .0338871
597.618 .0338653
598.393 .0338420
599.167 .0338176
599.941 .0337912
600.715 .0337631
601.488 .0337354
602.261 .0337085
603.034 .0336833
603.806 .0336609
604.578 .0336407
605.349 .0336220
606.121 .0336044
606.891 .0335875
607.662 .0335702
608.432 .0335516
609.201 .0335325
609.971 .0335120
610.740 .0334911
611.508 .0334692
612.277 .0334475
613.045 .0334269
613.812 .0334076
614.579 .0333883
615.346 .0333698
616.113 .0333510
616.879 .0333320
617.645 .0333122
618.411 .0332916
619.176 .0332696
619.941 .0332470
620.705 .0332230
621.470 .0331987
622.233 .0331743
622.997 .0331504
623.760 .0331261
624.523 .0331029
625.286 .0330791
626.048 .0330549
626.810 .0330291
627.572 .0330022
628.333 .0329730
629.095 .0329423
629.855 .0329096
630.616 .0328759
631.376 .0328421
632.136 .0328090
632.895 .0327766
633.655 .0327463
634.414 .0327181
635.172 .0326918
635.931 .0326673
636.689 .0326453
637.447 .0326249
638.204 .0326065
638.962 .0325895
639.718 .0325747
640.475 .0325618
641.231 .0325506
641.988 .0325405
642.743 .0325313
643.499 .0325225
644.254 .0325132
645.009 .0325027
645.764 .0324915
646.518 .0324790
647.272 .0324649
648.026 .0324496
648.780 .0324333
649.533 .0324164
650.286 .0323989
651.039 .0323807
651.792 .0323624
652.544 .0323439
653.296 .0323249
654.048 .0323056
654.799 .0322863
655.550 .0322666
656.301 .0322469
657.052 .0322275
657.802 .0322084
658.552 .0321899
659.302 .0321714
660.052 .0321532
660.801 .0321351
661.550 .0321173
662.299 .0320996
663.048 .0320814
663.796 .0320637
664.544 .0320459
665.292 .0320283
666.040 .0320109
666.787 .0319938
667.534 .0319773
668.281 .0319616
669.028 .0319465
669.774 .0319322
670.521 .0319190
671.266 .0319066
672.012 .0318957
672.758 .0318857
673.503 .0318764
674.248 .0318675
674.992 .0318582
675.737 .0318489
676.481 .0318390
677.225 .0318284
677.969 .0318171
678.712 .0318056
679.455 .0317941
680.199 .0317820
680.941 .0317695
681.684 .0317572
682.426 .0317441
683.168 .0317304
683.910 .0317156
684.652 .0316995
685.393 .0316828
686.134 .0316662
686.875 .0316494
687.616 .0316337
688.356 .0316195
689.097 .0316069
689.837 .0315958
690.576 .0315865
691.316 .0315782
692.055 .0315706
692.794 .0315635
693.533 .0315567
694.272 .0315493
695.010 .0315422
695.748 .0315347
696.486 .0315274
697.224 .0315201
697.962 .0315122
698.699 .0315037
699.436 .0314949
700.173 .0314854
700.909 .0314752
701.646 .0314642
702.382 .0314532
703.118 .0314416
703.853 .0314300
704.589 .0314179
705.324 .0314056
706.059 .0313929
706.794 .0313794
707.529 .0313649
708.263 .0313500
708.997 .0313348
709.731 .0313196
710.465 .0313050
711.198 .0312908
711.931 .0312771
712.664 .0312639
713.397 .0312506
714.130 .0312369
714.862 .0312222
715.594 .0312065
716.326 .0311899
717.058 .0311729
717.789 .0311557
718.520 .0311389
719.251 .0311227
719.982 .0311071
720.713 .0310915
721.443 .0310756
722.173 .0310588
722.903 .0310410
723.633 .0310220
724.362 .0310018
725.091 .0309804
725.820 .0309587
726.549 .0309369
727.278 .0309159
728.006 .0308953
728.734 .0308754
729.462 .0308558
730.190 .0308371
730.917 .0308191
731.644 .0308019
732.371 .0307859
733.098 .0307720
733.825 .0307599
734.551 .0307499
735.277 .0307414
736.003 .0307345
736.728 .0307288
737.454 .0307239
738.179 .0307187
738.904 .0307132
739.629 .0307070
740.353 .0307005
741.077 .0306935
741.801 .0306867
742.525 .0306796
743.249 .0306723
743.972 .0306650
744.695 .0306576
745.418 .0306492
746.141 .0306403
746.863 .0306305
747.585 .0306203
748.307 .0306092
749.029 .0305975
749.750 .0305857
750.472 .0305744
751.193 .0305631
751.913 .0305516
752.634 .0305396
753.354 .0305274
754.074 .0305142
754.794 .0304998
755.514 .0304845
756.233 .0304684
756.952 .0304514
757.671 .0304345
758.390 .0304174
759.108 .0304005
759.826 .0303843
760.544 .0303686
761.262 .0303535
761.979 .0303389
762.697 .0303244
763.414 .0303104
764.130 .0302972
764.847 .0302851
765.563 .0302739
766.279 .0302642
766.995 .0302560
767.710 .0302484
768.426 .0302414
769.141 .0302343
769.855 .0302266
770.570 .0302181
771.284 .0302080
771.998 .0301963
772.712 .0301838
773.426 .0301704
774.139 .0301569
774.852 .0301432
775.565 .0301299
776.277 .0301165
776.990 .0301030
777.702 .0300891
778.414 .0300747
779.125 .0300599
779.836 .0300447
780.547 .0300288
781.258 .0300132
781.969 .0299976
782.679 .0299824
783.389 .0299675
784.099 .0299534
784.808 .0299396
785.517 .0299262
786.226 .0299132
786.935 .0299005
787.643 .0298884
788.352 .0298775
789.060 .0298669
789.767 .0298569
790.475 .0298468
791.182 .0298369
791.889 .0298267
792.595 .0298166
793.301 .0298063
794.008 .0297957
794.713 .0297853
795.419 .0297754
796.124 .0297656
796.829 .0297563
797.534 .0297471
798.238 .0297377
798.942 .0297278
799.646 .0297170
800.350 .0297047
801.053 .0296915
801.756 .0296775
802.459 .0296629
803.162 .0296477
803.864 .0296330
804.566 .0296185
805.267 .0296044
805.969 .0295911
806.670 .0295785
807.371 .0295668
808.071 .0295562
808.772 .0295465
809.472 .0295377
810.171 .0295295
810.871 .0295223
811.570 .0295155
812.269 .0295093
812.967 .0295035
813.666 .0294977
814.364 .0294921
815.061 .0294872
815.759 .0294825
816.456 .0294783
817.153 .0294741
817.849 .0294698
818.545 .0294646
819.241 .0294586
819.937 .0294512
820.632 .0294426
821.327 .0294325
822.022 .0294212
822.717 .0294088
823.411 .0293961
824.105 .0293833
824.798 .0293711
825.491 .0293593
826.184 .0293480
826.877 .0293366
827.569 .0293249
828.261 .0293127
828.953 .0292992
829.645 .0292842
830.336 .0292678
831.027 .0292505
831.717 .0292327
832.407 .0292147
833.097 .0291975
833.787 .0291812
834.476 .0291657
835.165 .0291509
835.854 .0291364
836.542 .0291220
837.230 .0291072
837.918 .0290919
838.605 .0290762
839.292 .0290606
839.979 .0290453
840.665 .0290314
841.352 .0290189
842.037 .0290083
842.723 .0289989
843.408 .0289905
844.093 .0289824
844.777 .0289742
845.462 .0289651
846.145 .0289547
846.829 .0289431
847.512 .0289303
848.195 .0289164
848.878 .0289023
849.560 .0288876
850.242 .0288727
850.923 .0288572
851.605 .0288410
852.286 .0288238
852.966 .0288057
853.646 .0287866
854.326 .0287672
855.006 .0287477
855.685 .0287281
856.364 .0287086
857.043 .0286891
857.721 .0286697
858.399 .0286499
859.077 .0286295
859.754 .0286085
860.431 .0285868
861.107 .0285654
861.784 .0285441
862.459 .0285237
863.135 .0285048
863.810 .0284872
864.485 .0284710
865.160 .0284558
865.834 .0284415
866.508 .0284281
867.181 .0284158
867.854 .0284046
868.527 .0283944
869.199 .0283855
869.872 .0283782
870.543 .0283721
871.215 .0283669
871.886 .0283626
872.557 .0283580
873.227 .0283535
873.897 .0283483
874.567 .0283426
875.236 .0283367
875.905 .0283308
876.573 .0283254
877.242 .0283197
877.909 .0283138
878.577 .0283076
879.244 .0283008
879.911 .0282934
880.577 .0282856
881.243 .0282776
881.909 .0282696
882.575 .0282624
883.240 .0282560
883.904 .0282505
884.569 .0282455
885.232 .0282407
885.896 .0282353
886.559 .0282291
887.222 .0282221
887.885 .0282143
888.547 .0282065
889.208 .0281988
889.870 .0281913
890.531 .0281845
891.192 .0281785
891.852 .0281732
892.512 .0281684
893.171 .0281642
893.830 .0281604
894.489 .0281568
895.148 .0281535
895.806 .0281509
896.464 .0281493
897.121 .0281488
897.778 .0281489
898.434 .0281495
899.091 .0281504
899.747 .0281512
900.402 .0281519
901.057 .0281521
901.712 .0281515
902.366 .0281498
903.020 .0281473
903.674 .0281436
904.327 .0281382
904.980 .0281313
905.633 .0281227
906.285 .0281126
906.936 .0281009
907.588 .0280879
908.239 .0280743
908.889 .0280609
909.540 .0280473
910.190 .0280331
910.839 .0280188
911.488 .0280037
912.137 .0279877
912.785 .0279705
913.433 .0279521
914.081 .0279326
914.728 .0279129
915.375 .0278929
916.021 .0278728
916.668 .0278530
917.313 .0278334
917.959 .0278138
918.604 .0277942
919.248 .0277740
919.892 .0277534
920.536 .0277327
921.180 .0277123
921.823 .0276919
922.465 .0276718
923.108 .0276519
923.750 .0276319
924.391 .0276118
925.032 .0275910
925.673 .0275696
926.313 .0275480
926.953 .0275262
927.593 .0275040
928.232 .0274819
928.871 .0274599
929.510 .0274381
930.148 .0274160
930.786 .0273935
931.423 .0273699
932.060 .0273457
932.697 .0273207
933.333 .0272951
933.969 .0272696
934.604 .0272447
935.239 .0272205
935.874 .0271974
936.508 .0271755
937.142 .0271546
937.776 .0271350
938.409 .0271160
939.042 .0270973
939.674 .0270784
940.306 .0270589
940.938 .0270387
941.569 .0270183
942.200 .0269978
942.830 .0269771
943.460 .0269566
944.090 .0269367
944.720 .0269171
945.349 .0268982
945.977 .0268799
946.606 .0268623
947.233 .0268448
947.861 .0268276
948.488 .0268099
949.115 .0267923
949.741 .0267751
950.367 .0267584
950.993 .0267428
951.618 .0267288
952.243 .0267163
952.868 .0267055
953.492 .0266962
954.115 .0266885
954.739 .0266816
955.362 .0266752
955.984 .0266691
956.607 .0266629
957.229 .0266571
957.850 .0266517
958.471 .0266471
959.092 .0266435
959.713 .0266406
960.333 .0266378
960.952 .0266355
961.572 .0266331
962.191 .0266310
962.809 .0266288
963.428 .0266268
964.045 .0266246
964.663 .0266227
965.280 .0266212
965.897 .0266200
966.513 .0266192
967.129 .0266189
967.745 .0266187
968.361 .0266188
968.976 .0266188
969.590 .0266186
970.205 .0266185
970.818 .0266188
971.432 .0266192
972.045 .0266199
972.658 .0266206
973.271 .0266208
973.883 .0266204
974.495 .0266191
975.106 .0266168
975.717 .0266138
976.328 .0266104
976.938 .0266068
977.548 .0266034
978.158 .0266007
978.768 .0265983
979.377 .0265965
979.985 .0265945
980.594 .0265922
981.202 .0265895
981.809 .0265864
982.417 .0265831
983.024 .0265799
983.631 .0265779
984.237 .0265765
984.843 .0265762
985.449 .0265767
986.054 .0265771
986.659 .0265777
987.264 .0265780
987.868 .0265779
988.472 .0265781
989.076 .0265786
989.679 .0265797
990.282 .0265818
990.885 .0265853
991.487 .0265888
992.090 .0265929
992.691 .0265969
993.293 .0266001
993.894 .0266020
994.495 .0266035
995.095 .0266044
995.696 .0266051
996.296 .0266055
996.895 .0266054
997.494 .0266051
998.093 .0266039
998.692 .0266011
999.291 .0265972
999.889 .0265914
1000.487 .0265842
1001.084 .0265755
1001.681 .0265662
1002.278 .0265563
1002.875 .0265464
1003.471 .0265368
1004.067 .0265276
1004.663 .0265192
1005.258 .0265110
1005.854 .0265030
1006.449 .0264958
1007.043 .0264890
1007.638 .0264819
1008.232 .0264749
1008.826 .0264673
1009.419 .0264590
1010.012 .0264499
1010.605 .0264401
1011.198 .0264297
1011.791 .0264189
1012.383 .0264076
1012.975 .0263959
1013.566 .0263838
1014.158 .0263716
1014.749 .0263586
1015.340 .0263453
1015.931 .0263312
1016.521 .0263162
1017.111 .0263007
1017.701 .0262855
1018.291 .0262710
1018.880 .0262578
1019.470 .0262461
1020.059 .0262359
1020.647 .0262269
1021.236 .0262186
1021.824 .0262107
1022.412 .0262028
1023.000 .0261950
1023.588 .0261869
1024.175 .0261786
1024.762 .0261706
1025.349 .0261623
1025.936 .0261542
1026.523 .0261464
1027.109 .0261383
1027.695 .0261302
1028.281 .0261214
1028.867 .0261126
1029.452 .0261032
1030.038 .0260943
1030.623 .0260857
1031.208 .0260776
1031.792 .0260709
1032.377 .0260650
1032.961 .0260594
1033.546 .0260552
1034.130 .0260516
1034.714 .0260487
1035.297 .0260468
1035.881 .0260455
1036.464 .0260441
1037.047 .0260432
1037.630 .0260417
1038.213 .0260401
1038.796 .0260379
1039.378 .0260357
1039.961 .0260324
1040.543 .0260288
1041.125 .0260245
1041.707 .0260184
1042.289 .0260124
1042.871 .0260059
1043.452 .0259982
1044.034 .0259897
1044.615 .0259806
1045.196 .0259714
1045.777 .0259624
1046.358 .0259542
1046.939 .0259463
1047.520 .0259390
1048.101 .0259315
1048.681 .0259230
1049.262 .0259138
1049.842 .0259043
1050.422 .0258950
1051.002 .0258865
1051.582 .0258797
1052.162 .0258743
1052.742 .0258718
1053.322 .0258719
1053.902 .0258744
1054.482 .0258786
1055.061 .0258828
1055.641 .0258861
1056.220 .0258885
1056.800 .0258900
1057.379 .0258902
1057.958 .0258908
1058.538 .0258925
1059.117 .0258947
1059.696 .0258983
1060.275 .0259030
1060.854 .0259079
1061.433 .0259133
1062.012 .0259185
1062.592 .0259223
1063.171 .0259252
1063.750 .0259273
1064.329 .0259284
1064.908 .0259300
1065.487 .0259322
1066.066 .0259351
1066.645 .0259380
1067.224 .0259434
1067.803 .0259501
1068.382 .0259585
1068.961 .0259695
1069.540 .0259817
1070.119 .0259940
1070.698 .0260063
1071.278 .0260164
1071.857 .0260243
1072.436 .0260292
1073.016 .0260327
1073.595 .0260339
1074.175 .0260360
1074.754 .0260388
1075.334 .0260434
1075.913 .0260503
1076.493 .0260597
1077.073 .0260675
1077.653 .0260741
1078.233 .0260774
1078.813 .0260760
1079.393 .0260701
1079.974 .0260615
1080.554 .0260505
1081.135 .0260409
1081.716 .0260335
1082.296 .0260307
1082.877 .0260312
1083.458 .0260359
1084.040 .0260406
1084.621 .0260452
1085.202 .0260482
1085.784 .0260479
1086.366 .0260448
1086.948 .0260418
1087.530 .0260387
1088.112 .0260385
1088.695 .0260420
1089.277 .0260513
1089.860 .0260651
1090.443 .0260827
1091.026 .0261021
1091.610 .0261224
1092.193 .0261416
1092.777 .0261589
1093.361 .0261728
1093.946 .0261848
1094.530 .0261948
1095.115 .0262034
1095.700 .0262117
1096.285 .0262201
1096.871 .0262287
1097.456 .0262374
1098.042 .0262445
1098.628 .0262506
1099.215 .0262532
1099.802 .0262556
1100.389 .0262560
1100.976 .0262547
1101.564 .0262527
1102.152 .0262493
1102.740 .0262458
1103.329 .0262415
1103.917 .0262367
1104.507 .0262316
1105.096 .0262272
1105.686 .0262245
1106.276 .0262219
1106.867 .0262216
1107.457 .0262236
1108.049 .0262269
1108.640 .0262315
1109.232 .0262367
1109.825 .0262404
1110.417 .0262430
1111.010 .0262447
1111.604 .0262442
1112.198 .0262441
1112.792 .0262437
1113.387 .0262475
1113.982 .0262544
1114.577 .0262659
1115.173 .0262806
1115.769 .0262962
1116.366 .0263136
1116.963 .0263299
1117.561 .0263416
1118.159 .0263530
1118.758 .0263607
1119.357 .0263684
1119.957 .0263759
1120.557 .0263868
1121.157 .0264017
1121.758 .0264201
1122.360 .0264404
1122.962 .0264607
1123.564 .0264788
1124.167 .0264974
1124.771 .0265115
1125.375 .0265241
1125.980 .0265351
1126.585 .0265462
1127.191 .0265586
1127.797 .0265766
1128.404 .0265971
1129.012 .0266245
1129.620 .0266577
1130.229 .0266953
1130.838 .0267364
1131.448 .0267780
1132.058 .0268204
1132.669 .0268623
1133.281 .0269003
1133.894 .0269357
1134.507 .0269659
1135.120 .0269946
1135.735 .0270198
1136.350 .0270449
1136.965 .0270732
1137.582 .0271039
1138.199 .0271416
1138.816 .0271805
1139.435 .0272162
1140.054 .0272531
1140.674 .0272907
1141.294 .0273193
1141.916 .0273717
1142.538 .0272569
1143.160 .0273682
1143.784 .0275363
1144.408 .0273479
1145.033 .0281734
