Measurement Sequence started on: 14-45-04-498
Integration time: 36
Scans to Average: 2 
>>>>>Begin Spectral Data<<<<<
433.946 .0392284
434.870 .0450386
435.793 .0434975
436.715 .0422227
437.635 .0399893
438.555 .0402992
439.473 .0398129
440.389 .0392164
441.305 .0387575
442.219 .0383964
443.132 .0381441
444.044 .0379290
444.954 .0377716
445.863 .0376575
446.771 .0375850
447.678 .0375420
448.584 .0375243
449.488 .0375249
450.391 .0375306
451.293 .0375421
452.194 .0375613
453.094 .0375727
453.992 .0375864
454.890 .0375921
455.786 .0375989
456.681 .0376009
457.575 .0375986
458.468 .0375853
459.360 .0375664
460.250 .0375436
461.140 .0375061
462.028 .0374599
462.915 .0374057
463.801 .0373373
464.687 .0372610
465.571 .0371786
466.454 .0370903
467.335 .0369958
468.216 .0369064
469.096 .0368153
469.975 .0367304
470.853 .0366482
471.729 .0365693
472.605 .0364942
473.479 .0364264
474.353 .0363639
475.226 .0363050
476.097 .0362555
476.968 .0362136
477.838 .0361727
478.706 .0361392
479.574 .0361071
480.441 .0360800
481.306 .0360571
482.171 .0360374
483.035 .0360186
483.898 .0360024
484.760 .0359846
485.621 .0359654
486.481 .0359429
487.340 .0359168
488.198 .0358831
489.055 .0358438
489.912 .0357977
490.767 .0357464
491.622 .0356922
492.476 .0356375
493.329 .0355829
494.180 .0355320
495.032 .0354826
495.882 .0354370
496.731 .0353959
497.580 .0353593
498.427 .0353250
499.274 .0352947
500.120 .0352658
500.965 .0352372
501.809 .0352097
502.653 .0351828
503.495 .0351570
504.337 .0351329
505.178 .0351068
506.018 .0350787
506.858 .0350465
507.696 .0350106
508.534 .0349648
509.371 .0349084
510.208 .0348402
511.043 .0347638
511.878 .0346814
512.712 .0345975
513.545 .0345127
514.377 .0344359
515.209 .0343698
516.040 .0343140
516.870 .0342690
517.699 .0342370
518.528 .0342145
519.356 .0342037
520.183 .0341992
521.010 .0342041
521.836 .0342128
522.661 .0342311
523.485 .0342553
524.309 .0342819
525.132 .0343070
525.954 .0343279
526.776 .0343397
527.597 .0343507
528.417 .0343492
529.237 .0343363
530.056 .0343097
530.874 .0342742
531.692 .0342288
532.508 .0341738
533.325 .0341115
534.140 .0340470
534.955 .0339807
535.770 .0339134
536.583 .0338406
537.397 .0337757
538.209 .0337225
539.021 .0336773
539.832 .0336363
540.643 .0335980
541.453 .0335583
542.262 .0335188
543.071 .0334714
543.879 .0334145
544.687 .0333508
545.494 .0332816
546.300 .0332112
547.106 .0331429
547.911 .0330832
548.716 .0330333
549.520 .0329920
550.323 .0329623
551.126 .0329345
551.929 .0329097
552.731 .0328864
553.532 .0328645
554.332 .0328426
555.133 .0328210
555.932 .0327993
556.731 .0327809
557.530 .0327669
558.328 .0327561
559.125 .0327461
559.922 .0327398
560.719 .0327311
561.515 .0327169
562.310 .0326976
563.105 .0326753
563.899 .0326477
564.693 .0326175
565.487 .0325863
566.280 .0325548
567.072 .0325234
567.864 .0324934
568.655 .0324609
569.446 .0324259
570.236 .0323887
571.026 .0323460
571.816 .0323025
572.605 .0322596
573.393 .0322174
574.181 .0321785
574.969 .0321455
575.756 .0321178
576.543 .0320942
577.329 .0320742
578.115 .0320563
578.900 .0320360
579.685 .0320136
580.469 .0319876
581.253 .0319594
582.036 .0319305
582.820 .0319001
583.602 .0318695
584.384 .0318431
585.166 .0318179
585.947 .0317939
586.728 .0317704
587.509 .0317457
588.289 .0317201
589.069 .0316922
589.848 .0316632
590.627 .0316340
591.405 .0316055
592.183 .0315793
592.961 .0315546
593.738 .0315327
594.515 .0315140
595.291 .0314974
596.067 .0314838
596.843 .0314713
597.618 .0314586
598.393 .0314464
599.167 .0314344
599.941 .0314216
600.715 .0314085
601.488 .0313955
602.261 .0313827
603.034 .0313693
603.806 .0313559
604.578 .0313418
605.349 .0313272
606.121 .0313127
606.891 .0312969
607.662 .0312790
608.432 .0312602
609.201 .0312395
609.971 .0312178
610.740 .0311957
611.508 .0311723
612.277 .0311474
613.045 .0311222
613.812 .0310962
614.579 .0310692
615.346 .0310422
616.113 .0310161
616.879 .0309908
617.645 .0309672
618.411 .0309447
619.176 .0309237
619.941 .0309051
620.705 .0308885
621.470 .0308724
622.233 .0308573
622.997 .0308425
623.760 .0308283
624.523 .0308144
625.286 .0308007
626.048 .0307877
626.810 .0307754
627.572 .0307633
628.333 .0307514
629.095 .0307397
629.855 .0307281
630.616 .0307158
631.376 .0307037
632.136 .0306907
632.895 .0306770
633.655 .0306633
634.414 .0306496
635.172 .0306366
635.931 .0306245
636.689 .0306124
637.447 .0306014
638.204 .0305913
638.962 .0305813
639.718 .0305711
640.475 .0305607
641.231 .0305492
641.988 .0305355
642.743 .0305198
643.499 .0305021
644.254 .0304823
645.009 .0304614
645.764 .0304389
646.518 .0304163
647.272 .0303939
648.026 .0303715
648.780 .0303493
649.533 .0303279
650.286 .0303066
651.039 .0302853
651.792 .0302640
652.544 .0302433
653.296 .0302236
654.048 .0302052
654.799 .0301889
655.550 .0301746
656.301 .0301629
657.052 .0301534
657.802 .0301457
658.552 .0301392
659.302 .0301329
660.052 .0301267
660.801 .0301191
661.550 .0301103
662.299 .0301001
663.048 .0300885
663.796 .0300765
664.544 .0300638
665.292 .0300508
666.040 .0300380
666.787 .0300260
667.534 .0300140
668.281 .0300017
669.028 .0299898
669.774 .0299773
670.521 .0299642
671.266 .0299505
672.012 .0299364
672.758 .0299226
673.503 .0299095
674.248 .0298973
674.992 .0298861
675.737 .0298765
676.481 .0298681
677.225 .0298603
677.969 .0298525
678.712 .0298443
679.455 .0298353
680.199 .0298252
680.941 .0298147
681.684 .0298033
682.426 .0297918
683.168 .0297808
683.910 .0297702
684.652 .0297598
685.393 .0297497
686.134 .0297400
686.875 .0297300
687.616 .0297199
688.356 .0297091
689.097 .0296978
689.837 .0296865
690.576 .0296753
691.316 .0296636
692.055 .0296521
692.794 .0296409
693.533 .0296293
694.272 .0296173
695.010 .0296052
695.748 .0295928
696.486 .0295800
697.224 .0295676
697.962 .0295549
698.699 .0295423
699.436 .0295302
700.173 .0295181
700.909 .0295061
701.646 .0294939
702.382 .0294814
703.118 .0294688
703.853 .0294564
704.589 .0294440
705.324 .0294318
706.059 .0294202
706.794 .0294089
707.529 .0293979
708.263 .0293869
708.997 .0293760
709.731 .0293646
710.465 .0293527
711.198 .0293398
711.931 .0293261
712.664 .0293116
713.397 .0292965
714.130 .0292812
714.862 .0292664
715.594 .0292520
716.326 .0292383
717.058 .0292253
717.789 .0292128
718.520 .0292004
719.251 .0291878
719.982 .0291746
720.713 .0291609
721.443 .0291467
722.173 .0291324
722.903 .0291179
723.633 .0291039
724.362 .0290907
725.091 .0290782
725.820 .0290667
726.549 .0290558
727.278 .0290452
728.006 .0290345
728.734 .0290234
729.462 .0290112
730.190 .0289987
730.917 .0289857
731.644 .0289723
732.371 .0289590
733.098 .0289459
733.825 .0289331
734.551 .0289206
735.277 .0289083
736.003 .0288960
736.728 .0288833
737.454 .0288708
738.179 .0288579
738.904 .0288452
739.629 .0288328
740.353 .0288207
741.077 .0288092
741.801 .0287984
742.525 .0287878
743.249 .0287776
743.972 .0287678
744.695 .0287586
745.418 .0287494
746.141 .0287407
746.863 .0287322
747.585 .0287243
748.307 .0287165
749.029 .0287087
749.750 .0287007
750.472 .0286926
751.193 .0286841
751.913 .0286752
752.634 .0286659
753.354 .0286566
754.074 .0286476
754.794 .0286390
755.514 .0286306
756.233 .0286226
756.952 .0286144
757.671 .0286066
758.390 .0285985
759.108 .0285901
759.826 .0285816
760.544 .0285733
761.262 .0285651
761.979 .0285571
762.697 .0285491
763.414 .0285412
764.130 .0285331
764.847 .0285255
765.563 .0285176
766.279 .0285100
766.995 .0285026
767.710 .0284952
768.426 .0284880
769.141 .0284813
769.855 .0284746
770.570 .0284678
771.284 .0284605
771.998 .0284527
772.712 .0284444
773.426 .0284356
774.139 .0284262
774.852 .0284167
775.565 .0284071
776.277 .0283975
776.990 .0283881
777.702 .0283787
778.414 .0283698
779.125 .0283610
779.836 .0283521
780.547 .0283429
781.258 .0283335
781.969 .0283241
782.679 .0283149
783.389 .0283060
784.099 .0282975
784.808 .0282889
785.517 .0282808
786.226 .0282728
786.935 .0282649
787.643 .0282568
788.352 .0282485
789.060 .0282398
789.767 .0282307
790.475 .0282208
791.182 .0282105
791.889 .0282001
792.595 .0281895
793.301 .0281784
794.008 .0281670
794.713 .0281555
795.419 .0281438
796.124 .0281320
796.829 .0281199
797.534 .0281076
798.238 .0280952
798.942 .0280827
799.646 .0280702
800.350 .0280576
801.053 .0280451
801.756 .0280324
802.459 .0280195
803.162 .0280064
803.864 .0279929
804.566 .0279794
805.267 .0279658
805.969 .0279519
806.670 .0279378
807.371 .0279235
808.071 .0279100
808.772 .0278971
809.472 .0278847
810.171 .0278732
810.871 .0278627
811.570 .0278526
812.269 .0278430
812.967 .0278332
813.666 .0278231
814.364 .0278127
815.061 .0278016
815.759 .0277903
816.456 .0277787
817.153 .0277675
817.849 .0277566
818.545 .0277460
819.241 .0277362
819.937 .0277259
820.632 .0277154
821.327 .0277046
822.022 .0276928
822.717 .0276800
823.411 .0276665
824.105 .0276528
824.798 .0276397
825.491 .0276274
826.184 .0276164
826.877 .0276073
827.569 .0276002
828.261 .0275949
828.953 .0275909
829.645 .0275876
830.336 .0275848
831.027 .0275819
831.717 .0275787
832.407 .0275753
833.097 .0275718
833.787 .0275683
834.476 .0275649
835.165 .0275621
835.854 .0275598
836.542 .0275576
837.230 .0275554
837.918 .0275526
838.605 .0275487
839.292 .0275438
839.979 .0275378
840.665 .0275309
841.352 .0275235
842.037 .0275156
842.723 .0275076
843.408 .0274997
844.093 .0274919
844.777 .0274843
845.462 .0274764
846.145 .0274683
846.829 .0274596
847.512 .0274504
848.195 .0274409
848.878 .0274313
849.560 .0274214
850.242 .0274115
850.923 .0274011
851.605 .0273905
852.286 .0273792
852.966 .0273677
853.646 .0273556
854.326 .0273429
855.006 .0273296
855.685 .0273159
856.364 .0273021
857.043 .0272884
857.721 .0272742
858.399 .0272599
859.077 .0272450
859.754 .0272293
860.431 .0272130
861.107 .0271962
861.784 .0271789
862.459 .0271613
863.135 .0271432
863.810 .0271251
864.485 .0271067
865.160 .0270892
865.834 .0270723
866.508 .0270567
867.181 .0270419
867.854 .0270278
868.527 .0270145
869.199 .0270019
869.872 .0269892
870.543 .0269765
871.215 .0269637
871.886 .0269504
872.557 .0269364
873.227 .0269222
873.897 .0269078
874.567 .0268933
875.236 .0268786
875.905 .0268635
876.573 .0268479
877.242 .0268324
877.909 .0268165
878.577 .0268011
879.244 .0267861
879.911 .0267713
880.577 .0267570
881.243 .0267431
881.909 .0267298
882.575 .0267164
883.240 .0267032
883.904 .0266902
884.569 .0266774
885.232 .0266647
885.896 .0266527
886.559 .0266417
887.222 .0266319
887.885 .0266227
888.547 .0266141
889.208 .0266055
889.870 .0265964
890.531 .0265867
891.192 .0265762
891.852 .0265654
892.512 .0265552
893.171 .0265456
893.830 .0265375
894.489 .0265313
895.148 .0265268
895.806 .0265239
896.464 .0265224
897.121 .0265213
897.778 .0265201
898.434 .0265188
899.091 .0265172
899.747 .0265154
900.402 .0265135
901.057 .0265115
901.712 .0265091
902.366 .0265067
903.020 .0265042
903.674 .0265011
904.327 .0264975
904.980 .0264935
905.633 .0264887
906.285 .0264837
906.936 .0264786
907.588 .0264732
908.239 .0264679
908.889 .0264624
909.540 .0264567
910.190 .0264505
910.839 .0264441
911.488 .0264374
912.137 .0264305
912.785 .0264235
913.433 .0264165
914.081 .0264091
914.728 .0264022
915.375 .0263953
916.021 .0263882
916.668 .0263811
917.313 .0263739
917.959 .0263665
918.604 .0263588
919.248 .0263509
919.892 .0263428
920.536 .0263343
921.180 .0263259
921.823 .0263169
922.465 .0263077
923.108 .0262986
923.750 .0262896
924.391 .0262804
925.032 .0262713
925.673 .0262624
926.313 .0262533
926.953 .0262441
927.593 .0262344
928.232 .0262234
928.871 .0262114
929.510 .0261983
930.148 .0261837
930.786 .0261681
931.423 .0261523
932.060 .0261360
932.697 .0261196
933.333 .0261038
933.969 .0260882
934.604 .0260730
935.239 .0260581
935.874 .0260424
936.508 .0260258
937.142 .0260089
937.776 .0259909
938.409 .0259722
939.042 .0259535
939.674 .0259345
940.306 .0259157
940.938 .0258976
941.569 .0258800
942.200 .0258621
942.830 .0258441
943.460 .0258258
944.090 .0258064
944.720 .0257867
945.349 .0257664
945.977 .0257462
946.606 .0257269
947.233 .0257081
947.861 .0256896
948.488 .0256714
949.115 .0256535
949.741 .0256354
950.367 .0256171
950.993 .0255987
951.618 .0255798
952.243 .0255611
952.868 .0255427
953.492 .0255247
954.115 .0255070
954.739 .0254897
955.362 .0254724
955.984 .0254551
956.607 .0254374
957.229 .0254196
957.850 .0254017
958.471 .0253842
959.092 .0253666
959.713 .0253488
960.333 .0253308
960.952 .0253134
961.572 .0252961
962.191 .0252795
962.809 .0252633
963.428 .0252484
964.045 .0252341
964.663 .0252211
965.280 .0252087
965.897 .0251969
966.513 .0251857
967.129 .0251752
967.745 .0251641
968.361 .0251532
968.976 .0251421
969.590 .0251312
970.205 .0251203
970.818 .0251099
971.432 .0250994
972.045 .0250889
972.658 .0250786
973.271 .0250677
973.883 .0250561
974.495 .0250443
975.106 .0250314
975.717 .0250181
976.328 .0250044
976.938 .0249906
977.548 .0249773
978.158 .0249656
978.768 .0249552
979.377 .0249461
979.985 .0249383
980.594 .0249318
981.202 .0249259
981.809 .0249206
982.417 .0249154
983.024 .0249106
983.631 .0249067
984.237 .0249031
984.843 .0248997
985.449 .0248970
986.054 .0248945
986.659 .0248918
987.264 .0248891
987.868 .0248862
988.472 .0248833
989.076 .0248808
989.679 .0248789
990.282 .0248774
990.885 .0248767
991.487 .0248764
992.090 .0248761
992.691 .0248761
993.293 .0248765
993.894 .0248768
994.495 .0248779
995.095 .0248798
995.696 .0248825
996.296 .0248857
996.895 .0248897
997.494 .0248938
998.093 .0248970
998.692 .0248996
999.291 .0249010
999.889 .0249016
1000.487 .0249015
1001.084 .0249010
1001.681 .0249000
1002.278 .0248989
1002.875 .0248977
1003.471 .0248957
1004.067 .0248936
1004.663 .0248918
1005.258 .0248896
1005.854 .0248878
1006.449 .0248870
1007.043 .0248871
1007.638 .0248882
1008.232 .0248904
1008.826 .0248931
1009.419 .0248961
1010.012 .0248989
1010.605 .0249014
1011.198 .0249036
1011.791 .0249062
1012.383 .0249093
1012.975 .0249129
1013.566 .0249174
1014.158 .0249226
1014.749 .0249280
1015.340 .0249337
1015.931 .0249389
1016.521 .0249436
1017.111 .0249473
1017.701 .0249502
1018.291 .0249529
1018.880 .0249550
1019.470 .0249573
1020.059 .0249603
1020.647 .0249638
1021.236 .0249679
1021.824 .0249716
1022.412 .0249757
1023.000 .0249798
1023.588 .0249843
1024.175 .0249884
1024.762 .0249922
1025.349 .0249962
1025.936 .0250001
1026.523 .0250035
1027.109 .0250065
1027.695 .0250091
1028.281 .0250106
1028.867 .0250110
1029.452 .0250105
1030.038 .0250083
1030.623 .0250054
1031.208 .0250021
1031.792 .0249992
1032.377 .0249968
1032.961 .0249948
1033.546 .0249932
1034.130 .0249929
1034.714 .0249930
1035.297 .0249925
1035.881 .0249921
1036.464 .0249924
1037.047 .0249936
1037.630 .0249957
1038.213 .0249993
1038.796 .0250057
1039.378 .0250139
1039.961 .0250243
1040.543 .0250347
1041.125 .0250451
1041.707 .0250539
1042.289 .0250601
1042.871 .0250639
1043.452 .0250654
1044.034 .0250642
1044.615 .0250619
1045.196 .0250591
1045.777 .0250566
1046.358 .0250533
1046.939 .0250500
1047.520 .0250457
1048.101 .0250409
1048.681 .0250333
1049.262 .0250240
1049.842 .0250124
1050.422 .0250009
1051.002 .0249891
1051.582 .0249779
1052.162 .0249684
1052.742 .0249601
1053.322 .0249527
1053.902 .0249459
1054.482 .0249385
1055.061 .0249306
1055.641 .0249209
1056.220 .0249110
1056.800 .0248997
1057.379 .0248879
1057.958 .0248752
1058.538 .0248631
1059.117 .0248518
1059.696 .0248409
1060.275 .0248304
1060.854 .0248205
1061.433 .0248122
1062.012 .0248046
1062.592 .0247977
1063.171 .0247929
1063.750 .0247890
1064.329 .0247864
1064.908 .0247830
1065.487 .0247793
1066.066 .0247745
1066.645 .0247688
1067.224 .0247618
1067.803 .0247537
1068.382 .0247446
1068.961 .0247341
1069.540 .0247227
1070.119 .0247103
1070.698 .0246962
1071.278 .0246799
1071.857 .0246613
1072.436 .0246420
1073.016 .0246213
1073.595 .0246011
1074.175 .0245814
1074.754 .0245642
1075.334 .0245489
1075.913 .0245356
1076.493 .0245235
1077.073 .0245142
1077.653 .0245073
1078.233 .0245017
1078.813 .0244976
1079.393 .0244951
1079.974 .0244936
1080.554 .0244944
1081.135 .0244971
1081.716 .0245024
1082.296 .0245082
1082.877 .0245156
1083.458 .0245222
1084.040 .0245289
1084.621 .0245339
1085.202 .0245374
1085.784 .0245394
1086.366 .0245408
1086.948 .0245405
1087.530 .0245390
1088.112 .0245377
1088.695 .0245374
1089.277 .0245373
1089.860 .0245376
1090.443 .0245378
1091.026 .0245382
1091.610 .0245374
1092.193 .0245368
1092.777 .0245358
1093.361 .0245348
1093.946 .0245319
1094.530 .0245288
1095.115 .0245252
1095.700 .0245207
1096.285 .0245150
1096.871 .0245101
1097.456 .0245052
1098.042 .0245011
1098.628 .0244966
1099.215 .0244907
1099.802 .0244860
1100.389 .0244820
1100.976 .0244760
1101.564 .0244684
1102.152 .0244588
1102.740 .0244471
1103.329 .0244334
1103.917 .0244210
1104.507 .0244095
1105.096 .0244010
1105.686 .0243970
1106.276 .0243963
1106.867 .0243973
1107.457 .0244010
1108.049 .0244049
1108.640 .0244091
1109.232 .0244150
1109.825 .0244203
1110.417 .0244256
1111.010 .0244327
1111.604 .0244429
1112.198 .0244566
1112.792 .0244718
1113.387 .0244905
1113.982 .0245098
1114.577 .0245305
1115.173 .0245497
1115.769 .0245654
1116.366 .0245781
1116.963 .0245890
1117.561 .0245987
1118.159 .0246074
1118.758 .0246176
1119.357 .0246313
1119.957 .0246474
1120.557 .0246673
1121.157 .0246903
1121.758 .0247139
1122.360 .0247370
1122.962 .0247590
1123.564 .0247777
1124.167 .0247948
1124.771 .0248110
1125.375 .0248285
1125.980 .0248505
1126.585 .0248785
1127.191 .0249096
1127.797 .0249439
1128.404 .0249820
1129.012 .0250206
1129.620 .0250576
1130.229 .0250922
1130.838 .0251202
1131.448 .0251417
1132.058 .0251608
1132.669 .0251771
1133.281 .0251938
1133.894 .0252149
1134.507 .0252425
1135.120 .0252748
1135.735 .0253110
1136.350 .0253494
1136.965 .0253897
1137.582 .0254327
1138.199 .0254742
1138.816 .0255111
1139.435 .0255510
1140.054 .0255938
1140.674 .0256415
1141.294 .0256816
1141.916 .0257380
1142.538 .0258320
1143.160 .0259079
1143.784 .0259686
1144.408 .0256862
1145.033 .0262314
