Measurement Sequence started on: 14-45-04-498
Integration time: 36
Scans to Average: 2 
>>>>>Begin Spectral Data<<<<<
433.946 .0477701
434.870 .0443281
435.793 .0400209
436.715 .0377735
437.635 .0381442
438.555 .0396776
439.473 .0392943
440.389 .0391428
441.305 .0391400
442.219 .0391748
443.132 .0391960
444.044 .0392244
444.954 .0392904
445.863 .0394102
446.771 .0395900
447.678 .0397998
448.584 .0400021
449.488 .0401717
450.391 .0402921
451.293 .0403690
452.194 .0404013
453.094 .0403947
453.992 .0403787
454.890 .0403591
455.786 .0403490
456.681 .0403464
457.575 .0403487
458.468 .0403418
459.360 .0403222
460.250 .0402779
461.140 .0401980
462.028 .0400939
462.915 .0399634
463.801 .0398133
464.687 .0396570
465.571 .0395086
466.454 .0393762
467.335 .0392610
468.216 .0391741
469.096 .0391040
469.975 .0390462
470.853 .0389948
471.729 .0389403
472.605 .0388874
473.479 .0388306
474.353 .0387702
475.226 .0387116
476.097 .0386612
476.968 .0386213
477.838 .0385937
478.706 .0385807
479.574 .0385782
480.441 .0385810
481.306 .0385853
482.171 .0385863
483.035 .0385827
483.898 .0385736
484.760 .0385580
485.621 .0385356
486.481 .0385137
487.340 .0384860
488.198 .0384583
489.055 .0384317
489.912 .0384039
490.767 .0383744
491.622 .0383401
492.476 .0382996
493.329 .0382561
494.180 .0382100
495.032 .0381650
495.882 .0381194
496.731 .0380792
497.580 .0380408
498.427 .0380074
499.274 .0379743
500.120 .0379438
500.965 .0379113
501.809 .0378791
502.653 .0378421
503.495 .0378005
504.337 .0377557
505.178 .0377089
506.018 .0376614
506.858 .0376122
507.696 .0375626
508.534 .0375141
509.371 .0374611
510.208 .0374086
511.043 .0373551
511.878 .0373033
512.712 .0372454
513.545 .0371926
514.377 .0371449
515.209 .0371030
516.040 .0370688
516.870 .0370454
517.699 .0370352
518.528 .0370326
519.356 .0370340
520.183 .0370322
521.010 .0370331
521.836 .0370279
522.661 .0370071
523.485 .0369797
524.309 .0369479
525.132 .0369108
525.954 .0368641
526.776 .0368191
527.597 .0367735
528.417 .0367213
529.237 .0366631
530.056 .0365909
530.874 .0365159
531.692 .0364334
532.508 .0363457
533.325 .0362589
534.140 .0361803
534.955 .0361118
535.770 .0360498
536.583 .0360012
537.397 .0359631
538.209 .0359288
539.021 .0358898
539.832 .0358460
540.643 .0357976
541.453 .0357402
542.262 .0356795
543.071 .0356207
543.879 .0355645
544.687 .0355177
545.494 .0354802
546.300 .0354511
547.106 .0354276
547.911 .0354088
548.716 .0353849
549.520 .0353514
550.323 .0353133
551.126 .0352684
551.929 .0352169
552.731 .0351652
553.532 .0351115
554.332 .0350572
555.133 .0350044
555.932 .0349494
556.731 .0348871
557.530 .0348214
558.328 .0347519
559.125 .0346767
559.922 .0346009
560.719 .0345295
561.515 .0344673
562.310 .0344139
563.105 .0343761
563.899 .0343471
564.693 .0343237
565.487 .0343042
566.280 .0342813
567.072 .0342573
567.864 .0342312
568.655 .0342032
569.446 .0341753
570.236 .0341533
571.026 .0341396
571.816 .0341277
572.605 .0341220
573.393 .0341183
574.181 .0341128
574.969 .0341047
575.756 .0340928
576.543 .0340771
577.329 .0340601
578.115 .0340404
578.900 .0340160
579.685 .0339907
580.469 .0339647
581.253 .0339351
582.036 .0339043
582.820 .0338720
583.602 .0338362
584.384 .0337976
585.166 .0337572
585.947 .0337133
586.728 .0336684
587.509 .0336201
588.289 .0335693
589.069 .0335189
589.848 .0334687
590.627 .0334192
591.405 .0333716
592.183 .0333279
592.961 .0332863
593.738 .0332471
594.515 .0332098
595.291 .0331737
596.067 .0331389
596.843 .0331040
597.618 .0330698
598.393 .0330360
599.167 .0330029
599.941 .0329695
600.715 .0329372
601.488 .0329060
602.261 .0328752
603.034 .0328448
603.806 .0328144
604.578 .0327850
605.349 .0327565
606.121 .0327292
606.891 .0327031
607.662 .0326776
608.432 .0326544
609.201 .0326319
609.971 .0326108
610.740 .0325900
611.508 .0325694
612.277 .0325490
613.045 .0325293
613.812 .0325104
614.579 .0324918
615.346 .0324744
616.113 .0324591
616.879 .0324453
617.645 .0324337
618.411 .0324240
619.176 .0324149
619.941 .0324067
620.705 .0323985
621.470 .0323877
622.233 .0323747
622.997 .0323591
623.760 .0323410
624.523 .0323207
625.286 .0322990
626.048 .0322763
626.810 .0322526
627.572 .0322297
628.333 .0322055
629.095 .0321799
629.855 .0321530
630.616 .0321234
631.376 .0320910
632.136 .0320564
632.895 .0320192
633.655 .0319808
634.414 .0319427
635.172 .0319059
635.931 .0318698
636.689 .0318364
637.447 .0318052
638.204 .0317756
638.962 .0317468
639.718 .0317185
640.475 .0316895
641.231 .0316609
641.988 .0316311
642.743 .0316010
643.499 .0315706
644.254 .0315406
645.009 .0315110
645.764 .0314820
646.518 .0314543
647.272 .0314271
648.026 .0314009
648.780 .0313766
649.533 .0313529
650.286 .0313302
651.039 .0313079
651.792 .0312863
652.544 .0312655
653.296 .0312438
654.048 .0312220
654.799 .0312007
655.550 .0311798
656.301 .0311593
657.052 .0311392
657.802 .0311208
658.552 .0311041
659.302 .0310886
660.052 .0310750
660.801 .0310626
661.550 .0310522
662.299 .0310428
663.048 .0310342
663.796 .0310263
664.544 .0310188
665.292 .0310117
666.040 .0310052
666.787 .0309986
667.534 .0309918
668.281 .0309843
669.028 .0309759
669.774 .0309663
670.521 .0309548
671.266 .0309418
672.012 .0309280
672.758 .0309133
673.503 .0308982
674.248 .0308825
674.992 .0308665
675.737 .0308505
676.481 .0308337
677.225 .0308162
677.969 .0307973
678.712 .0307779
679.455 .0307587
680.199 .0307396
680.941 .0307214
681.684 .0307045
682.426 .0306888
683.168 .0306740
683.910 .0306593
684.652 .0306445
685.393 .0306291
686.134 .0306135
686.875 .0305971
687.616 .0305804
688.356 .0305640
689.097 .0305484
689.837 .0305328
690.576 .0305172
691.316 .0305013
692.055 .0304843
692.794 .0304663
693.533 .0304473
694.272 .0304269
695.010 .0304060
695.748 .0303846
696.486 .0303633
697.224 .0303420
697.962 .0303212
698.699 .0303004
699.436 .0302793
700.173 .0302579
700.909 .0302359
701.646 .0302142
702.382 .0301929
703.118 .0301728
703.853 .0301545
704.589 .0301385
705.324 .0301248
706.059 .0301138
706.794 .0301052
707.529 .0300988
708.263 .0300942
708.997 .0300910
709.731 .0300881
710.465 .0300855
711.198 .0300822
711.931 .0300787
712.664 .0300752
713.397 .0300711
714.130 .0300666
714.862 .0300626
715.594 .0300590
716.326 .0300559
717.058 .0300532
717.789 .0300507
718.520 .0300483
719.251 .0300455
719.982 .0300413
720.713 .0300359
721.443 .0300297
722.173 .0300226
722.903 .0300147
723.633 .0300073
724.362 .0300002
725.091 .0299932
725.820 .0299872
726.549 .0299814
727.278 .0299756
728.006 .0299696
728.734 .0299628
729.462 .0299549
730.190 .0299459
730.917 .0299353
731.644 .0299237
732.371 .0299123
733.098 .0299022
733.825 .0298928
734.551 .0298850
735.277 .0298787
736.003 .0298733
736.728 .0298683
737.454 .0298634
738.179 .0298573
738.904 .0298505
739.629 .0298420
740.353 .0298326
741.077 .0298218
741.801 .0298103
742.525 .0297981
743.249 .0297862
743.972 .0297737
744.695 .0297611
745.418 .0297477
746.141 .0297338
746.863 .0297192
747.585 .0297042
748.307 .0296880
749.029 .0296714
749.750 .0296542
750.472 .0296365
751.193 .0296183
751.913 .0296006
752.634 .0295827
753.354 .0295658
754.074 .0295500
754.794 .0295355
755.514 .0295216
756.233 .0295087
756.952 .0294958
757.671 .0294825
758.390 .0294679
759.108 .0294517
759.826 .0294336
760.544 .0294148
761.262 .0293958
761.979 .0293773
762.697 .0293602
763.414 .0293453
764.130 .0293323
764.847 .0293215
765.563 .0293118
766.279 .0293024
766.995 .0292927
767.710 .0292825
768.426 .0292714
769.141 .0292593
769.855 .0292470
770.570 .0292349
771.284 .0292241
771.998 .0292147
772.712 .0292066
773.426 .0292003
774.139 .0291953
774.852 .0291914
775.565 .0291875
776.277 .0291835
776.990 .0291790
777.702 .0291745
778.414 .0291699
779.125 .0291656
779.836 .0291624
780.547 .0291602
781.258 .0291594
781.969 .0291600
782.679 .0291617
783.389 .0291639
784.099 .0291661
784.808 .0291677
785.517 .0291678
786.226 .0291667
786.935 .0291640
787.643 .0291606
788.352 .0291567
789.060 .0291523
789.767 .0291479
790.475 .0291430
791.182 .0291387
791.889 .0291339
792.595 .0291284
793.301 .0291227
794.008 .0291168
794.713 .0291106
795.419 .0291048
796.124 .0291001
796.829 .0290962
797.534 .0290934
798.238 .0290917
798.942 .0290905
799.646 .0290900
800.350 .0290898
801.053 .0290895
801.756 .0290885
802.459 .0290877
803.162 .0290864
803.864 .0290852
804.566 .0290847
805.267 .0290842
805.969 .0290837
806.670 .0290838
807.371 .0290842
808.071 .0290845
808.772 .0290853
809.472 .0290861
810.171 .0290862
810.871 .0290862
811.570 .0290854
812.269 .0290828
812.967 .0290792
813.666 .0290741
814.364 .0290667
815.061 .0290575
815.759 .0290474
816.456 .0290362
817.153 .0290246
817.849 .0290128
818.545 .0290005
819.241 .0289883
819.937 .0289761
820.632 .0289629
821.327 .0289495
822.022 .0289360
822.717 .0289220
823.411 .0289072
824.105 .0288929
824.798 .0288785
825.491 .0288640
826.184 .0288495
826.877 .0288346
827.569 .0288187
828.261 .0288018
828.953 .0287838
829.645 .0287646
830.336 .0287444
831.027 .0287233
831.717 .0287012
832.407 .0286792
833.097 .0286567
833.787 .0286340
834.476 .0286116
835.165 .0285898
835.854 .0285686
836.542 .0285487
837.230 .0285301
837.918 .0285134
838.605 .0284983
839.292 .0284845
839.979 .0284714
840.665 .0284591
841.352 .0284469
842.037 .0284347
842.723 .0284222
843.408 .0284092
844.093 .0283955
844.777 .0283817
845.462 .0283675
846.145 .0283529
846.829 .0283385
847.512 .0283246
848.195 .0283102
848.878 .0282961
849.560 .0282819
850.242 .0282678
850.923 .0282540
851.605 .0282402
852.286 .0282259
852.966 .0282119
853.646 .0281983
854.326 .0281851
855.006 .0281722
855.685 .0281598
856.364 .0281477
857.043 .0281362
857.721 .0281249
858.399 .0281141
859.077 .0281039
859.754 .0280952
860.431 .0280872
861.107 .0280806
861.784 .0280750
862.459 .0280700
863.135 .0280661
863.810 .0280620
864.485 .0280577
865.160 .0280531
865.834 .0280482
866.508 .0280437
867.181 .0280397
867.854 .0280367
868.527 .0280340
869.199 .0280316
869.872 .0280293
870.543 .0280256
871.215 .0280200
871.886 .0280130
872.557 .0280043
873.227 .0279942
873.897 .0279833
874.567 .0279725
875.236 .0279628
875.905 .0279546
876.573 .0279471
877.242 .0279404
877.909 .0279338
878.577 .0279277
879.244 .0279203
879.911 .0279128
880.577 .0279050
881.243 .0278971
881.909 .0278894
882.575 .0278825
883.240 .0278761
883.904 .0278703
884.569 .0278643
885.232 .0278584
885.896 .0278516
886.559 .0278446
887.222 .0278369
887.885 .0278289
888.547 .0278210
889.208 .0278134
889.870 .0278056
890.531 .0277987
891.192 .0277923
891.852 .0277865
892.512 .0277810
893.171 .0277765
893.830 .0277726
894.489 .0277696
895.148 .0277675
895.806 .0277668
896.464 .0277668
897.121 .0277679
897.778 .0277695
898.434 .0277718
899.091 .0277743
899.747 .0277766
900.402 .0277782
901.057 .0277798
901.712 .0277808
902.366 .0277812
903.020 .0277809
903.674 .0277801
904.327 .0277783
904.980 .0277756
905.633 .0277717
906.285 .0277664
906.936 .0277599
907.588 .0277522
908.239 .0277433
908.889 .0277333
909.540 .0277222
910.190 .0277104
910.839 .0276980
911.488 .0276856
912.137 .0276723
912.785 .0276582
913.433 .0276440
914.081 .0276289
914.728 .0276134
915.375 .0275967
916.021 .0275796
916.668 .0275621
917.313 .0275448
917.959 .0275273
918.604 .0275103
919.248 .0274942
919.892 .0274782
920.536 .0274621
921.180 .0274461
921.823 .0274295
922.465 .0274122
923.108 .0273939
923.750 .0273754
924.391 .0273554
925.032 .0273357
925.673 .0273156
926.313 .0272953
926.953 .0272753
927.593 .0272551
928.232 .0272340
928.871 .0272125
929.510 .0271900
930.148 .0271657
930.786 .0271399
931.423 .0271137
932.060 .0270869
932.697 .0270606
933.333 .0270349
933.969 .0270100
934.604 .0269856
935.239 .0269622
935.874 .0269383
936.508 .0269143
937.142 .0268906
937.776 .0268664
938.409 .0268421
939.042 .0268179
939.674 .0267942
940.306 .0267716
940.938 .0267498
941.569 .0267291
942.200 .0267085
942.830 .0266883
943.460 .0266678
944.090 .0266470
944.720 .0266264
945.349 .0266054
945.977 .0265843
946.606 .0265632
947.233 .0265413
947.861 .0265193
948.488 .0264968
949.115 .0264742
949.741 .0264517
950.367 .0264298
950.993 .0264080
951.618 .0263877
952.243 .0263691
952.868 .0263523
953.492 .0263366
954.115 .0263223
954.739 .0263084
955.362 .0262951
955.984 .0262833
956.607 .0262726
957.229 .0262633
957.850 .0262567
958.471 .0262510
959.092 .0262463
959.713 .0262418
960.333 .0262367
960.952 .0262303
961.572 .0262229
962.191 .0262138
962.809 .0262035
963.428 .0261927
964.045 .0261821
964.663 .0261721
965.280 .0261630
965.897 .0261545
966.513 .0261456
967.129 .0261366
967.745 .0261270
968.361 .0261161
968.976 .0261050
969.590 .0260939
970.205 .0260837
970.818 .0260746
971.432 .0260667
972.045 .0260607
972.658 .0260564
973.271 .0260534
973.883 .0260510
974.495 .0260486
975.106 .0260456
975.717 .0260422
976.328 .0260381
976.938 .0260345
977.548 .0260316
978.158 .0260299
978.768 .0260298
979.377 .0260315
979.985 .0260348
980.594 .0260382
981.202 .0260420
981.809 .0260458
982.417 .0260486
983.024 .0260505
983.631 .0260517
984.237 .0260524
984.843 .0260527
985.449 .0260523
986.054 .0260507
986.659 .0260476
987.264 .0260430
987.868 .0260357
988.472 .0260273
989.076 .0260180
989.679 .0260090
990.282 .0260006
990.885 .0259942
991.487 .0259891
992.090 .0259857
992.691 .0259835
993.293 .0259819
993.894 .0259808
994.495 .0259803
995.095 .0259804
995.696 .0259816
996.296 .0259845
996.895 .0259897
997.494 .0259968
998.093 .0260063
998.692 .0260167
999.291 .0260282
999.889 .0260402
1000.487 .0260517
1001.084 .0260622
1001.681 .0260725
1002.278 .0260816
1002.875 .0260898
1003.471 .0260975
1004.067 .0261040
1004.663 .0261094
1005.258 .0261131
1005.854 .0261153
1006.449 .0261159
1007.043 .0261141
1007.638 .0261106
1008.232 .0261052
1008.826 .0260990
1009.419 .0260918
1010.012 .0260833
1010.605 .0260753
1011.198 .0260676
1011.791 .0260600
1012.383 .0260524
1012.975 .0260449
1013.566 .0260382
1014.158 .0260318
1014.749 .0260262
1015.340 .0260223
1015.931 .0260200
1016.521 .0260200
1017.111 .0260232
1017.701 .0260277
1018.291 .0260344
1018.880 .0260411
1019.470 .0260474
1020.059 .0260529
1020.647 .0260566
1021.236 .0260590
1021.824 .0260609
1022.412 .0260631
1023.000 .0260661
1023.588 .0260694
1024.175 .0260751
1024.762 .0260809
1025.349 .0260871
1025.936 .0260931
1026.523 .0260980
1027.109 .0261017
1027.695 .0261055
1028.281 .0261085
1028.867 .0261112
1029.452 .0261141
1030.038 .0261168
1030.623 .0261190
1031.208 .0261207
1031.792 .0261213
1032.377 .0261206
1032.961 .0261186
1033.546 .0261159
1034.130 .0261114
1034.714 .0261067
1035.297 .0261017
1035.881 .0260957
1036.464 .0260886
1037.047 .0260798
1037.630 .0260694
1038.213 .0260570
1038.796 .0260442
1039.378 .0260309
1039.961 .0260180
1040.543 .0260063
1041.125 .0259968
1041.707 .0259888
1042.289 .0259827
1042.871 .0259796
1043.452 .0259780
1044.034 .0259775
1044.615 .0259779
1045.196 .0259776
1045.777 .0259770
1046.358 .0259761
1046.939 .0259748
1047.520 .0259721
1048.101 .0259699
1048.681 .0259676
1049.262 .0259652
1049.842 .0259636
1050.422 .0259617
1051.002 .0259577
1051.582 .0259519
1052.162 .0259433
1052.742 .0259302
1053.322 .0259138
1053.902 .0258948
1054.482 .0258736
1055.061 .0258520
1055.641 .0258309
1056.220 .0258112
1056.800 .0257936
1057.379 .0257775
1057.958 .0257615
1058.538 .0257455
1059.117 .0257290
1059.696 .0257103
1060.275 .0256906
1060.854 .0256706
1061.433 .0256510
1062.012 .0256335
1062.592 .0256184
1063.171 .0256061
1063.750 .0255969
1064.329 .0255898
1064.908 .0255836
1065.487 .0255770
1066.066 .0255696
1066.645 .0255615
1067.224 .0255536
1067.803 .0255462
1068.382 .0255398
1068.961 .0255355
1069.540 .0255335
1070.119 .0255330
1070.698 .0255328
1071.278 .0255321
1071.857 .0255303
1072.436 .0255270
1073.016 .0255220
1073.595 .0255161
1074.175 .0255097
1074.754 .0255045
1075.334 .0255004
1075.913 .0254971
1076.493 .0254941
1077.073 .0254909
1077.653 .0254877
1078.233 .0254832
1078.813 .0254768
1079.393 .0254699
1079.974 .0254627
1080.554 .0254570
1081.135 .0254497
1081.716 .0254403
1082.296 .0254301
1082.877 .0254186
1083.458 .0254042
1084.040 .0253892
1084.621 .0253738
1085.202 .0253593
1085.784 .0253465
1086.366 .0253357
1086.948 .0253262
1087.530 .0253181
1088.112 .0253118
1088.695 .0253050
1089.277 .0252978
1089.860 .0252911
1090.443 .0252830
1091.026 .0252779
1091.610 .0252750
1092.193 .0252731
1092.777 .0252735
1093.361 .0252765
1093.946 .0252813
1094.530 .0252833
1095.115 .0252845
1095.700 .0252834
1096.285 .0252806
1096.871 .0252762
1097.456 .0252711
1098.042 .0252666
1098.628 .0252639
1099.215 .0252616
1099.802 .0252602
1100.389 .0252599
1100.976 .0252605
1101.564 .0252589
1102.152 .0252572
1102.740 .0252528
1103.329 .0252495
1103.917 .0252459
1104.507 .0252467
1105.096 .0252508
1105.686 .0252601
1106.276 .0252730
1106.867 .0252902
1107.457 .0253114
1108.049 .0253336
1108.640 .0253559
1109.232 .0253774
1109.825 .0253943
1110.417 .0254094
1111.010 .0254191
1111.604 .0254272
1112.198 .0254330
1112.792 .0254391
1113.387 .0254423
1113.982 .0254451
1114.577 .0254502
1115.173 .0254569
1115.769 .0254655
1116.366 .0254772
1116.963 .0254898
1117.561 .0255022
1118.159 .0255154
1118.758 .0255298
1119.357 .0255442
1119.957 .0255623
1120.557 .0255817
1121.157 .0256044
1121.758 .0256317
1122.360 .0256637
1122.962 .0256977
1123.564 .0257311
1124.167 .0257626
1124.771 .0257879
1125.375 .0258046
1125.980 .0258147
1126.585 .0258200
1127.191 .0258232
1127.797 .0258294
1128.404 .0258404
1129.012 .0258570
1129.620 .0258846
1130.229 .0259241
1130.838 .0259725
1131.448 .0260253
1132.058 .0260865
1132.669 .0261532
1133.281 .0262210
1133.894 .0262925
1134.507 .0263655
1135.120 .0264398
1135.735 .0265157
1136.350 .0265884
1136.965 .0266528
1137.582 .0267116
1138.199 .0267631
1138.816 .0267991
1139.435 .0268208
1140.054 .0268329
1140.674 .0268276
1141.294 .0267929
1141.916 .0267355
1142.538 .0267267
1143.160 .0267755
1143.784 .0266410
1144.408 .0261393
1145.033 .0260124
