Measurement Sequence started on: 14-45-04-498
Integration time: 36
Scans to Average: 2 
>>>>>Begin Spectral Data<<<<<
433.946 .0540992
434.870 .0502754
435.793 .0439332
436.715 .0454468
437.635 .0440540
438.555 .0451212
439.473 .0445197
440.389 .0441574
441.305 .0440050
442.219 .0438171
443.132 .0436868
444.044 .0435627
444.954 .0434742
445.863 .0434226
446.771 .0433739
447.678 .0433142
448.584 .0432415
449.488 .0431441
450.391 .0430333
451.293 .0429110
452.194 .0427994
453.094 .0426967
453.992 .0426007
454.890 .0425029
455.786 .0424155
456.681 .0423141
457.575 .0422141
458.468 .0421120
459.360 .0420125
460.250 .0419078
461.140 .0418137
462.028 .0417276
462.915 .0416473
463.801 .0415676
464.687 .0414912
465.571 .0414124
466.454 .0413393
467.335 .0412660
468.216 .0411977
469.096 .0411368
469.975 .0410932
470.853 .0410522
471.729 .0410164
472.605 .0409797
473.479 .0409379
474.353 .0408891
475.226 .0408369
476.097 .0407834
476.968 .0407318
477.838 .0406818
478.706 .0406386
479.574 .0405962
480.441 .0405610
481.306 .0405227
482.171 .0404823
483.035 .0404344
483.898 .0403792
484.760 .0403128
485.621 .0402448
486.481 .0401781
487.340 .0401180
488.198 .0400703
489.055 .0400326
489.912 .0400019
490.767 .0399743
491.622 .0399460
492.476 .0399189
493.329 .0398854
494.180 .0398494
495.032 .0398101
495.882 .0397731
496.731 .0397388
497.580 .0397110
498.427 .0396885
499.274 .0396687
500.120 .0396515
500.965 .0396293
501.809 .0395995
502.653 .0395589
503.495 .0395105
504.337 .0394532
505.178 .0393919
506.018 .0393278
506.858 .0392549
507.696 .0391902
508.534 .0391278
509.371 .0390678
510.208 .0390125
511.043 .0389623
511.878 .0389140
512.712 .0388692
513.545 .0388277
514.377 .0387876
515.209 .0387532
516.040 .0387262
516.870 .0387027
517.699 .0386843
518.528 .0386677
519.356 .0386503
520.183 .0386263
521.010 .0386051
521.836 .0385664
522.661 .0385158
523.485 .0384452
524.309 .0383554
525.132 .0382411
525.954 .0381027
526.776 .0379479
527.597 .0377844
528.417 .0376082
529.237 .0374312
530.056 .0372500
530.874 .0370693
531.692 .0368856
532.508 .0367084
533.325 .0365421
534.140 .0363937
534.955 .0362632
535.770 .0361597
536.583 .0360894
537.397 .0360622
538.209 .0360649
539.021 .0361073
539.832 .0361873
540.643 .0362941
541.453 .0364185
542.262 .0365523
543.071 .0366871
543.879 .0368137
544.687 .0369208
545.494 .0370010
546.300 .0370564
547.106 .0370837
547.911 .0370838
548.716 .0370734
549.520 .0370537
550.323 .0370258
551.126 .0369897
551.929 .0369514
552.731 .0369012
553.532 .0368439
554.332 .0367771
555.133 .0367036
555.932 .0366312
556.731 .0365545
557.530 .0364739
558.328 .0364001
559.125 .0363363
559.922 .0362824
560.719 .0362386
561.515 .0362087
562.310 .0361829
563.105 .0361677
563.899 .0361553
564.693 .0361466
565.487 .0361371
566.280 .0361266
567.072 .0361098
567.864 .0360874
568.655 .0360602
569.446 .0360255
570.236 .0359865
571.026 .0359476
571.816 .0359037
572.605 .0358629
573.393 .0358201
574.181 .0357800
574.969 .0357390
575.756 .0356966
576.543 .0356494
577.329 .0355978
578.115 .0355407
578.900 .0354807
579.685 .0354155
580.469 .0353535
581.253 .0352947
582.036 .0352416
582.820 .0351924
583.602 .0351496
584.384 .0351117
585.166 .0350775
585.947 .0350436
586.728 .0350116
587.509 .0349771
588.289 .0349434
589.069 .0349090
589.848 .0348760
590.627 .0348438
591.405 .0348144
592.183 .0347869
592.961 .0347627
593.738 .0347395
594.515 .0347158
595.291 .0346899
596.067 .0346627
596.843 .0346319
597.618 .0345961
598.393 .0345577
599.167 .0345174
599.941 .0344758
600.715 .0344349
601.488 .0343945
602.261 .0343555
603.034 .0343178
603.806 .0342818
604.578 .0342456
605.349 .0342104
606.121 .0341774
606.891 .0341449
607.662 .0341149
608.432 .0340877
609.201 .0340635
609.971 .0340421
610.740 .0340232
611.508 .0340051
612.277 .0339857
613.045 .0339653
613.812 .0339431
614.579 .0339189
615.346 .0338945
616.113 .0338705
616.879 .0338479
617.645 .0338278
618.411 .0338101
619.176 .0337931
619.941 .0337768
620.705 .0337594
621.470 .0337396
622.233 .0337163
622.997 .0336911
623.760 .0336644
624.523 .0336376
625.286 .0336118
626.048 .0335876
626.810 .0335647
627.572 .0335429
628.333 .0335208
629.095 .0334977
629.855 .0334720
630.616 .0334442
631.376 .0334134
632.136 .0333808
632.895 .0333474
633.655 .0333149
634.414 .0332835
635.172 .0332540
635.931 .0332256
636.689 .0331984
637.447 .0331724
638.204 .0331478
638.962 .0331226
639.718 .0330980
640.475 .0330735
641.231 .0330492
641.988 .0330245
642.743 .0330005
643.499 .0329756
644.254 .0329504
645.009 .0329242
645.764 .0328969
646.518 .0328688
647.272 .0328411
648.026 .0328134
648.780 .0327870
649.533 .0327610
650.286 .0327358
651.039 .0327116
651.792 .0326891
652.544 .0326680
653.296 .0326484
654.048 .0326308
654.799 .0326144
655.550 .0325997
656.301 .0325866
657.052 .0325748
657.802 .0325646
658.552 .0325551
659.302 .0325458
660.052 .0325368
660.801 .0325278
661.550 .0325181
662.299 .0325088
663.048 .0324998
663.796 .0324904
664.544 .0324799
665.292 .0324684
666.040 .0324561
666.787 .0324425
667.534 .0324278
668.281 .0324110
669.028 .0323932
669.774 .0323744
670.521 .0323540
671.266 .0323333
672.012 .0323118
672.758 .0322900
673.503 .0322676
674.248 .0322449
674.992 .0322222
675.737 .0321995
676.481 .0321779
677.225 .0321572
677.969 .0321369
678.712 .0321166
679.455 .0320961
680.199 .0320760
680.941 .0320564
681.684 .0320371
682.426 .0320180
683.168 .0320000
683.910 .0319828
684.652 .0319663
685.393 .0319503
686.134 .0319352
686.875 .0319199
687.616 .0319042
688.356 .0318874
689.097 .0318690
689.837 .0318498
690.576 .0318304
691.316 .0318107
692.055 .0317908
692.794 .0317708
693.533 .0317511
694.272 .0317317
695.010 .0317131
695.748 .0316941
696.486 .0316747
697.224 .0316558
697.962 .0316365
698.699 .0316166
699.436 .0315971
700.173 .0315779
700.909 .0315593
701.646 .0315414
702.382 .0315242
703.118 .0315070
703.853 .0314910
704.589 .0314763
705.324 .0314618
706.059 .0314470
706.794 .0314321
707.529 .0314163
708.263 .0314004
708.997 .0313844
709.731 .0313678
710.465 .0313524
711.198 .0313386
711.931 .0313258
712.664 .0313136
713.397 .0313024
714.130 .0312912
714.862 .0312793
715.594 .0312664
716.326 .0312528
717.058 .0312388
717.789 .0312256
718.520 .0312131
719.251 .0312021
719.982 .0311927
720.713 .0311842
721.443 .0311761
722.173 .0311679
722.903 .0311576
723.633 .0311455
724.362 .0311312
725.091 .0311159
725.820 .0310994
726.549 .0310836
727.278 .0310682
728.006 .0310545
728.734 .0310416
729.462 .0310291
730.190 .0310161
730.917 .0310029
731.644 .0309881
732.371 .0309723
733.098 .0309559
733.825 .0309399
734.551 .0309245
735.277 .0309113
736.003 .0308999
736.728 .0308907
737.454 .0308833
738.179 .0308767
738.904 .0308699
739.629 .0308627
740.353 .0308543
741.077 .0308449
741.801 .0308346
742.525 .0308239
743.249 .0308130
743.972 .0308030
744.695 .0307937
745.418 .0307853
746.141 .0307769
746.863 .0307689
747.585 .0307600
748.307 .0307501
749.029 .0307383
749.750 .0307249
750.472 .0307106
751.193 .0306957
751.913 .0306811
752.634 .0306674
753.354 .0306545
754.074 .0306425
754.794 .0306305
755.514 .0306181
756.233 .0306045
756.952 .0305894
757.671 .0305733
758.390 .0305553
759.108 .0305366
759.826 .0305173
760.544 .0304983
761.262 .0304802
761.979 .0304627
762.697 .0304453
763.414 .0304278
764.130 .0304100
764.847 .0303916
765.563 .0303724
766.279 .0303533
766.995 .0303348
767.710 .0303175
768.426 .0303012
769.141 .0302865
769.855 .0302729
770.570 .0302613
771.284 .0302504
771.998 .0302397
772.712 .0302288
773.426 .0302175
774.139 .0302054
774.852 .0301926
775.565 .0301795
776.277 .0301667
776.990 .0301541
777.702 .0301416
778.414 .0301290
779.125 .0301168
779.836 .0301046
780.547 .0300926
781.258 .0300803
781.969 .0300677
782.679 .0300544
783.389 .0300412
784.099 .0300278
784.808 .0300150
785.517 .0300034
786.226 .0299929
786.935 .0299837
787.643 .0299762
788.352 .0299699
789.060 .0299645
789.767 .0299602
790.475 .0299568
791.182 .0299531
791.889 .0299492
792.595 .0299452
793.301 .0299405
794.008 .0299357
794.713 .0299307
795.419 .0299255
796.124 .0299209
796.829 .0299167
797.534 .0299126
798.238 .0299092
798.942 .0299066
799.646 .0299044
800.350 .0299024
801.053 .0299011
801.756 .0298995
802.459 .0298978
803.162 .0298961
803.864 .0298940
804.566 .0298922
805.267 .0298906
805.969 .0298884
806.670 .0298860
807.371 .0298832
808.071 .0298797
808.772 .0298756
809.472 .0298714
810.171 .0298667
810.871 .0298618
811.570 .0298566
812.269 .0298512
812.967 .0298452
813.666 .0298387
814.364 .0298312
815.061 .0298230
815.759 .0298136
816.456 .0298031
817.153 .0297916
817.849 .0297795
818.545 .0297670
819.241 .0297537
819.937 .0297394
820.632 .0297242
821.327 .0297071
822.022 .0296878
822.717 .0296666
823.411 .0296439
824.105 .0296198
824.798 .0295952
825.491 .0295708
826.184 .0295469
826.877 .0295242
827.569 .0295027
828.261 .0294822
828.953 .0294630
829.645 .0294453
830.336 .0294286
831.027 .0294138
831.717 .0294013
832.407 .0293907
833.097 .0293821
833.787 .0293748
834.476 .0293678
835.165 .0293607
835.854 .0293524
836.542 .0293422
837.230 .0293299
837.918 .0293159
838.605 .0293000
839.292 .0292829
839.979 .0292647
840.665 .0292452
841.352 .0292247
842.037 .0292036
842.723 .0291807
843.408 .0291564
844.093 .0291311
844.777 .0291051
845.462 .0290785
846.145 .0290521
846.829 .0290256
847.512 .0290005
848.195 .0289770
848.878 .0289551
849.560 .0289345
850.242 .0289157
850.923 .0288979
851.605 .0288808
852.286 .0288646
852.966 .0288489
853.646 .0288334
854.326 .0288185
855.006 .0288038
855.685 .0287891
856.364 .0287745
857.043 .0287605
857.721 .0287474
858.399 .0287356
859.077 .0287248
859.754 .0287141
860.431 .0287044
861.107 .0286950
861.784 .0286853
862.459 .0286752
863.135 .0286643
863.810 .0286523
864.485 .0286395
865.160 .0286266
865.834 .0286135
866.508 .0286005
867.181 .0285882
867.854 .0285760
868.527 .0285644
869.199 .0285527
869.872 .0285406
870.543 .0285290
871.215 .0285178
871.886 .0285065
872.557 .0284958
873.227 .0284860
873.897 .0284778
874.567 .0284714
875.236 .0284666
875.905 .0284628
876.573 .0284607
877.242 .0284596
877.909 .0284593
878.577 .0284594
879.244 .0284603
879.911 .0284611
880.577 .0284620
881.243 .0284624
881.909 .0284617
882.575 .0284599
883.240 .0284576
883.904 .0284545
884.569 .0284508
885.232 .0284460
885.896 .0284408
886.559 .0284357
887.222 .0284308
887.885 .0284254
888.547 .0284198
889.208 .0284141
889.870 .0284083
890.531 .0284024
891.192 .0283959
891.852 .0283893
892.512 .0283827
893.171 .0283756
893.830 .0283678
894.489 .0283595
895.148 .0283504
895.806 .0283410
896.464 .0283323
897.121 .0283239
897.778 .0283163
898.434 .0283098
899.091 .0283047
899.747 .0283005
900.402 .0282972
901.057 .0282939
901.712 .0282906
902.366 .0282874
903.020 .0282837
903.674 .0282793
904.327 .0282751
904.980 .0282712
905.633 .0282676
906.285 .0282640
906.936 .0282603
907.588 .0282561
908.239 .0282518
908.889 .0282473
909.540 .0282418
910.190 .0282355
910.839 .0282285
911.488 .0282208
912.137 .0282124
912.785 .0282027
913.433 .0281919
914.081 .0281802
914.728 .0281686
915.375 .0281565
916.021 .0281438
916.668 .0281312
917.313 .0281183
917.959 .0281051
918.604 .0280910
919.248 .0280760
919.892 .0280592
920.536 .0280413
921.180 .0280215
921.823 .0279999
922.465 .0279773
923.108 .0279544
923.750 .0279313
924.391 .0279086
925.032 .0278864
925.673 .0278645
926.313 .0278431
926.953 .0278223
927.593 .0278009
928.232 .0277789
928.871 .0277559
929.510 .0277319
930.148 .0277063
930.786 .0276802
931.423 .0276536
932.060 .0276269
932.697 .0276005
933.333 .0275740
933.969 .0275472
934.604 .0275205
935.239 .0274932
935.874 .0274653
936.508 .0274365
937.142 .0274078
937.776 .0273786
938.409 .0273497
939.042 .0273212
939.674 .0272934
940.306 .0272652
940.938 .0272373
941.569 .0272087
942.200 .0271793
942.830 .0271489
943.460 .0271181
944.090 .0270866
944.720 .0270548
945.349 .0270237
945.977 .0269937
946.606 .0269648
947.233 .0269375
947.861 .0269113
948.488 .0268864
949.115 .0268628
949.741 .0268409
950.367 .0268202
950.993 .0268009
951.618 .0267827
952.243 .0267652
952.868 .0267479
953.492 .0267308
954.115 .0267135
954.739 .0266958
955.362 .0266780
955.984 .0266602
956.607 .0266424
957.229 .0266257
957.850 .0266103
958.471 .0265957
959.092 .0265818
959.713 .0265680
960.333 .0265538
960.952 .0265396
961.572 .0265259
962.191 .0265127
962.809 .0265005
963.428 .0264903
964.045 .0264817
964.663 .0264750
965.280 .0264700
965.897 .0264660
966.513 .0264625
967.129 .0264593
967.745 .0264553
968.361 .0264510
968.976 .0264461
969.590 .0264413
970.205 .0264363
970.818 .0264319
971.432 .0264277
972.045 .0264244
972.658 .0264215
973.271 .0264187
973.883 .0264155
974.495 .0264118
975.106 .0264070
975.717 .0264023
976.328 .0263973
976.938 .0263926
977.548 .0263887
978.158 .0263860
978.768 .0263836
979.377 .0263816
979.985 .0263794
980.594 .0263762
981.202 .0263716
981.809 .0263661
982.417 .0263601
983.024 .0263548
983.631 .0263513
984.237 .0263498
984.843 .0263505
985.449 .0263529
986.054 .0263555
986.659 .0263580
987.264 .0263598
987.868 .0263605
988.472 .0263602
989.076 .0263593
989.679 .0263584
990.282 .0263581
990.885 .0263592
991.487 .0263607
992.090 .0263624
992.691 .0263635
993.293 .0263639
993.894 .0263635
994.495 .0263628
995.095 .0263620
995.696 .0263622
996.296 .0263638
996.895 .0263664
997.494 .0263701
998.093 .0263747
998.692 .0263797
999.291 .0263848
999.889 .0263892
1000.487 .0263938
1001.084 .0263987
1001.681 .0264048
1002.278 .0264118
1002.875 .0264198
1003.471 .0264288
1004.067 .0264378
1004.663 .0264460
1005.258 .0264532
1005.854 .0264592
1006.449 .0264640
1007.043 .0264678
1007.638 .0264705
1008.232 .0264724
1008.826 .0264737
1009.419 .0264747
1010.012 .0264751
1010.605 .0264746
1011.198 .0264736
1011.791 .0264718
1012.383 .0264699
1012.975 .0264683
1013.566 .0264669
1014.158 .0264668
1014.749 .0264679
1015.340 .0264704
1015.931 .0264739
1016.521 .0264786
1017.111 .0264840
1017.701 .0264900
1018.291 .0264954
1018.880 .0265001
1019.470 .0265047
1020.059 .0265094
1020.647 .0265130
1021.236 .0265161
1021.824 .0265186
1022.412 .0265199
1023.000 .0265197
1023.588 .0265176
1024.175 .0265123
1024.762 .0265052
1025.349 .0264960
1025.936 .0264851
1026.523 .0264729
1027.109 .0264612
1027.695 .0264493
1028.281 .0264382
1028.867 .0264278
1029.452 .0264177
1030.038 .0264082
1030.623 .0263995
1031.208 .0263911
1031.792 .0263820
1032.377 .0263731
1032.961 .0263644
1033.546 .0263566
1034.130 .0263498
1034.714 .0263432
1035.297 .0263368
1035.881 .0263298
1036.464 .0263229
1037.047 .0263144
1037.630 .0263043
1038.213 .0262934
1038.796 .0262825
1039.378 .0262715
1039.961 .0262601
1040.543 .0262496
1041.125 .0262407
1041.707 .0262342
1042.289 .0262282
1042.871 .0262217
1043.452 .0262148
1044.034 .0262078
1044.615 .0261998
1045.196 .0261906
1045.777 .0261823
1046.358 .0261742
1046.939 .0261674
1047.520 .0261621
1048.101 .0261575
1048.681 .0261538
1049.262 .0261497
1049.842 .0261449
1050.422 .0261378
1051.002 .0261278
1051.582 .0261153
1052.162 .0261013
1052.742 .0260871
1053.322 .0260723
1053.902 .0260567
1054.482 .0260421
1055.061 .0260290
1055.641 .0260162
1056.220 .0260031
1056.800 .0259901
1057.379 .0259772
1057.958 .0259644
1058.538 .0259512
1059.117 .0259392
1059.696 .0259278
1060.275 .0259175
1060.854 .0259068
1061.433 .0258957
1062.012 .0258850
1062.592 .0258751
1063.171 .0258664
1063.750 .0258595
1064.329 .0258530
1064.908 .0258472
1065.487 .0258397
1066.066 .0258310
1066.645 .0258202
1067.224 .0258067
1067.803 .0257901
1068.382 .0257710
1068.961 .0257509
1069.540 .0257312
1070.119 .0257147
1070.698 .0257031
1071.278 .0256952
1071.857 .0256912
1072.436 .0256898
1073.016 .0256888
1073.595 .0256877
1074.175 .0256871
1074.754 .0256853
1075.334 .0256829
1075.913 .0256811
1076.493 .0256797
1077.073 .0256793
1077.653 .0256814
1078.233 .0256830
1078.813 .0256836
1079.393 .0256829
1079.974 .0256779
1080.554 .0256664
1081.135 .0256509
1081.716 .0256317
1082.296 .0256089
1082.877 .0255831
1083.458 .0255560
1084.040 .0255269
1084.621 .0254984
1085.202 .0254710
1085.784 .0254462
1086.366 .0254251
1086.948 .0254089
1087.530 .0253967
1088.112 .0253896
1088.695 .0253857
1089.277 .0253855
1089.860 .0253863
1090.443 .0253878
1091.026 .0253894
1091.610 .0253908
1092.193 .0253924
1092.777 .0253974
1093.361 .0254058
1093.946 .0254177
1094.530 .0254317
1095.115 .0254461
1095.700 .0254576
1096.285 .0254656
1096.871 .0254686
1097.456 .0254654
1098.042 .0254574
1098.628 .0254484
1099.215 .0254367
1099.802 .0254261
1100.389 .0254191
1100.976 .0254166
1101.564 .0254162
1102.152 .0254163
1102.740 .0254154
1103.329 .0254126
1103.917 .0254082
1104.507 .0254031
1105.096 .0253981
1105.686 .0253968
1106.276 .0253988
1106.867 .0254039
1107.457 .0254129
1108.049 .0254283
1108.640 .0254455
1109.232 .0254628
1109.825 .0254813
1110.417 .0255009
1111.010 .0255190
1111.604 .0255391
1112.198 .0255618
1112.792 .0255888
1113.387 .0256223
1113.982 .0256595
1114.577 .0257012
1115.173 .0257494
1115.769 .0257998
1116.366 .0258495
1116.963 .0258963
1117.561 .0259390
1118.159 .0259735
1118.758 .0259988
1119.357 .0260150
1119.957 .0260236
1120.557 .0260272
1121.157 .0260257
1121.758 .0260206
1122.360 .0260188
1122.962 .0260151
1123.564 .0260101
1124.167 .0260058
1124.771 .0259990
1125.375 .0259894
1125.980 .0259770
1126.585 .0259616
1127.191 .0259498
1127.797 .0259437
1128.404 .0259450
1129.012 .0259572
1129.620 .0259845
1130.229 .0260245
1130.838 .0260701
1131.448 .0261212
1132.058 .0261727
1132.669 .0262181
1133.281 .0262583
1133.894 .0262879
1134.507 .0263133
1135.120 .0263375
1135.735 .0263641
1136.350 .0263994
1136.965 .0264478
1137.582 .0265084
1138.199 .0265768
1138.816 .0266550
1139.435 .0267396
1140.054 .0268324
1140.674 .0269414
1141.294 .0270742
1141.916 .0272386
1142.538 .0271688
1143.160 .0274578
1143.784 .0278362
1144.408 .0282988
1145.033 .0286360
