Measurement Sequence started on: 14-45-04-498
Integration time: 36
Scans to Average: 2 
>>>>>Begin Spectral Data<<<<<
433.946 .0387040
434.870 .0499859
435.793 .0409647
436.715 .0406607
437.635 .0400620
438.555 .0406691
439.473 .0403829
440.389 .0398954
441.305 .0397433
442.219 .0395918
443.132 .0394611
444.044 .0393527
444.954 .0392445
445.863 .0391763
446.771 .0391202
447.678 .0390665
448.584 .0390102
449.488 .0389318
450.391 .0388228
451.293 .0386797
452.194 .0385290
453.094 .0383691
453.992 .0382164
454.890 .0380930
455.786 .0379929
456.681 .0379148
457.575 .0378652
458.468 .0378419
459.360 .0378280
460.250 .0378170
461.140 .0378034
462.028 .0377887
462.915 .0377650
463.801 .0377318
464.687 .0376939
465.571 .0376615
466.454 .0376403
467.335 .0376267
468.216 .0376283
469.096 .0376432
469.975 .0376595
470.853 .0376753
471.729 .0376792
472.605 .0376680
473.479 .0376355
474.353 .0375803
475.226 .0375064
476.097 .0374209
476.968 .0373329
477.838 .0372468
478.706 .0371693
479.574 .0371049
480.441 .0370521
481.306 .0370087
482.171 .0369708
483.035 .0369298
483.898 .0368840
484.760 .0368341
485.621 .0367796
486.481 .0367249
487.340 .0366753
488.198 .0366349
489.055 .0366103
489.912 .0366004
490.767 .0366044
491.622 .0366127
492.476 .0366251
493.329 .0366364
494.180 .0366424
495.032 .0366410
495.882 .0366334
496.731 .0366245
497.580 .0366206
498.427 .0366176
499.274 .0366181
500.120 .0366218
500.965 .0366265
501.809 .0366273
502.653 .0366216
503.495 .0366073
504.337 .0365856
505.178 .0365591
506.018 .0365325
506.858 .0365041
507.696 .0364799
508.534 .0364538
509.371 .0364273
510.208 .0363976
511.043 .0363584
511.878 .0363068
512.712 .0362509
513.545 .0361913
514.377 .0361297
515.209 .0360686
516.040 .0360129
516.870 .0359630
517.699 .0359247
518.528 .0358916
519.356 .0358654
520.183 .0358387
521.010 .0358184
521.836 .0357942
522.661 .0357642
523.485 .0357256
524.309 .0356778
525.132 .0356248
525.954 .0355675
526.776 .0355059
527.597 .0354424
528.417 .0353800
529.237 .0353289
530.056 .0352807
530.874 .0352408
531.692 .0352023
532.508 .0351636
533.325 .0351246
534.140 .0350817
534.955 .0350333
535.770 .0349839
536.583 .0349396
537.397 .0348984
538.209 .0348594
539.021 .0348204
539.832 .0347827
540.643 .0347473
541.453 .0347073
542.262 .0346627
543.071 .0346123
543.879 .0345554
544.687 .0344903
545.494 .0344211
546.300 .0343548
547.106 .0342835
547.911 .0342117
548.716 .0341398
549.520 .0340650
550.323 .0339947
551.126 .0339262
551.929 .0338633
552.731 .0338106
553.532 .0337663
554.332 .0337273
555.133 .0336922
555.932 .0336641
556.731 .0336364
557.530 .0336093
558.328 .0335823
559.125 .0335450
559.922 .0335042
560.719 .0334588
561.515 .0334079
562.310 .0333525
563.105 .0332974
563.899 .0332430
564.693 .0331908
565.487 .0331411
566.280 .0330925
567.072 .0330456
567.864 .0329947
568.655 .0329386
569.446 .0328761
570.236 .0328065
571.026 .0327312
571.816 .0326543
572.605 .0325852
573.393 .0325249
574.181 .0324764
574.969 .0324407
575.756 .0324182
576.543 .0324077
577.329 .0323993
578.115 .0323922
578.900 .0323827
579.685 .0323704
580.469 .0323555
581.253 .0323409
582.036 .0323289
582.820 .0323213
583.602 .0323186
584.384 .0323199
585.166 .0323238
585.947 .0323267
586.728 .0323262
587.509 .0323226
588.289 .0323136
589.069 .0322989
589.848 .0322806
590.627 .0322614
591.405 .0322404
592.183 .0322182
592.961 .0321944
593.738 .0321672
594.515 .0321363
595.291 .0321002
596.067 .0320603
596.843 .0320168
597.618 .0319718
598.393 .0319258
599.167 .0318800
599.941 .0318350
600.715 .0317910
601.488 .0317484
602.261 .0317067
603.034 .0316646
603.806 .0316217
604.578 .0315786
605.349 .0315367
606.121 .0314962
606.891 .0314578
607.662 .0314219
608.432 .0313897
609.201 .0313592
609.971 .0313309
610.740 .0313038
611.508 .0312776
612.277 .0312526
613.045 .0312273
613.812 .0312032
614.579 .0311804
615.346 .0311596
616.113 .0311422
616.879 .0311264
617.645 .0311128
618.411 .0311009
619.176 .0310895
619.941 .0310789
620.705 .0310691
621.470 .0310595
622.233 .0310501
622.997 .0310417
623.760 .0310341
624.523 .0310265
625.286 .0310197
626.048 .0310143
626.810 .0310077
627.572 .0310007
628.333 .0309922
629.095 .0309815
629.855 .0309709
630.616 .0309589
631.376 .0309452
632.136 .0309308
632.895 .0309155
633.655 .0308987
634.414 .0308800
635.172 .0308606
635.931 .0308397
636.689 .0308182
637.447 .0307960
638.204 .0307722
638.962 .0307479
639.718 .0307240
640.475 .0306996
641.231 .0306755
641.988 .0306513
642.743 .0306264
643.499 .0306019
644.254 .0305773
645.009 .0305526
645.764 .0305286
646.518 .0305056
647.272 .0304831
648.026 .0304601
648.780 .0304369
649.533 .0304127
650.286 .0303888
651.039 .0303648
651.792 .0303396
652.544 .0303144
653.296 .0302893
654.048 .0302643
654.799 .0302401
655.550 .0302159
656.301 .0301919
657.052 .0301683
657.802 .0301445
658.552 .0301198
659.302 .0300948
660.052 .0300705
660.801 .0300464
661.550 .0300229
662.299 .0300004
663.048 .0299780
663.796 .0299571
664.544 .0299371
665.292 .0299172
666.040 .0298980
666.787 .0298786
667.534 .0298594
668.281 .0298404
669.028 .0298227
669.774 .0298052
670.521 .0297890
671.266 .0297741
672.012 .0297602
672.758 .0297468
673.503 .0297349
674.248 .0297242
674.992 .0297149
675.737 .0297068
676.481 .0296994
677.225 .0296933
677.969 .0296886
678.712 .0296839
679.455 .0296797
680.199 .0296750
680.941 .0296704
681.684 .0296649
682.426 .0296591
683.168 .0296534
683.910 .0296473
684.652 .0296409
685.393 .0296342
686.134 .0296272
686.875 .0296203
687.616 .0296126
688.356 .0296051
689.097 .0295979
689.837 .0295905
690.576 .0295829
691.316 .0295759
692.055 .0295694
692.794 .0295632
693.533 .0295571
694.272 .0295514
695.010 .0295458
695.748 .0295401
696.486 .0295342
697.224 .0295279
697.962 .0295215
698.699 .0295146
699.436 .0295064
700.173 .0294975
700.909 .0294878
701.646 .0294767
702.382 .0294648
703.118 .0294517
703.853 .0294380
704.589 .0294231
705.324 .0294075
706.059 .0293914
706.794 .0293744
707.529 .0293572
708.263 .0293400
708.997 .0293233
709.731 .0293074
710.465 .0292922
711.198 .0292778
711.931 .0292636
712.664 .0292497
713.397 .0292347
714.130 .0292185
714.862 .0292009
715.594 .0291823
716.326 .0291628
717.058 .0291434
717.789 .0291247
718.520 .0291063
719.251 .0290882
719.982 .0290698
720.713 .0290503
721.443 .0290295
722.173 .0290066
722.903 .0289819
723.633 .0289564
724.362 .0289308
725.091 .0289058
725.820 .0288828
726.549 .0288622
727.278 .0288438
728.006 .0288270
728.734 .0288110
729.462 .0287952
730.190 .0287798
730.917 .0287647
731.644 .0287504
732.371 .0287379
733.098 .0287282
733.825 .0287213
734.551 .0287179
735.277 .0287173
736.003 .0287184
736.728 .0287211
737.454 .0287245
738.179 .0287276
738.904 .0287300
739.629 .0287320
740.353 .0287336
741.077 .0287352
741.801 .0287370
742.525 .0287384
743.249 .0287397
743.972 .0287410
744.695 .0287415
745.418 .0287411
746.141 .0287402
746.863 .0287389
747.585 .0287374
748.307 .0287360
749.029 .0287342
749.750 .0287322
750.472 .0287303
751.193 .0287280
751.913 .0287253
752.634 .0287224
753.354 .0287192
754.074 .0287153
754.794 .0287109
755.514 .0287057
756.233 .0286997
756.952 .0286926
757.671 .0286845
758.390 .0286753
759.108 .0286650
759.826 .0286538
760.544 .0286424
761.262 .0286317
761.979 .0286213
762.697 .0286119
763.414 .0286039
764.130 .0285973
764.847 .0285923
765.563 .0285886
766.279 .0285862
766.995 .0285846
767.710 .0285833
768.426 .0285816
769.141 .0285802
769.855 .0285787
770.570 .0285767
771.284 .0285740
771.998 .0285706
772.712 .0285662
773.426 .0285602
774.139 .0285532
774.852 .0285446
775.565 .0285350
776.277 .0285248
776.990 .0285139
777.702 .0285035
778.414 .0284937
779.125 .0284852
779.836 .0284782
780.547 .0284728
781.258 .0284684
781.969 .0284650
782.679 .0284628
783.389 .0284611
784.099 .0284591
784.808 .0284568
785.517 .0284541
786.226 .0284505
786.935 .0284459
787.643 .0284402
788.352 .0284331
789.060 .0284247
789.767 .0284143
790.475 .0284018
791.182 .0283876
791.889 .0283722
792.595 .0283556
793.301 .0283381
794.008 .0283204
794.713 .0283026
795.419 .0282849
796.124 .0282679
796.829 .0282513
797.534 .0282349
798.238 .0282191
798.942 .0282037
799.646 .0281888
800.350 .0281744
801.053 .0281608
801.756 .0281475
802.459 .0281349
803.162 .0281226
803.864 .0281105
804.566 .0280991
805.267 .0280880
805.969 .0280768
806.670 .0280657
807.371 .0280553
808.071 .0280459
808.772 .0280374
809.472 .0280302
810.171 .0280241
810.871 .0280190
811.570 .0280150
812.269 .0280114
812.967 .0280080
813.666 .0280048
814.364 .0280012
815.061 .0279972
815.759 .0279926
816.456 .0279874
817.153 .0279814
817.849 .0279745
818.545 .0279667
819.241 .0279575
819.937 .0279469
820.632 .0279356
821.327 .0279233
822.022 .0279108
822.717 .0278979
823.411 .0278848
824.105 .0278719
824.798 .0278593
825.491 .0278466
826.184 .0278344
826.877 .0278225
827.569 .0278112
828.261 .0278004
828.953 .0277907
829.645 .0277817
830.336 .0277741
831.027 .0277680
831.717 .0277634
832.407 .0277601
833.097 .0277578
833.787 .0277560
834.476 .0277545
835.165 .0277532
835.854 .0277519
836.542 .0277502
837.230 .0277491
837.918 .0277480
838.605 .0277470
839.292 .0277466
839.979 .0277467
840.665 .0277475
841.352 .0277494
842.037 .0277516
842.723 .0277540
843.408 .0277563
844.093 .0277582
844.777 .0277589
845.462 .0277587
846.145 .0277570
846.829 .0277530
847.512 .0277478
848.195 .0277420
848.878 .0277354
849.560 .0277292
850.242 .0277240
850.923 .0277196
851.605 .0277158
852.286 .0277116
852.966 .0277063
853.646 .0276999
854.326 .0276922
855.006 .0276823
855.685 .0276708
856.364 .0276592
857.043 .0276478
857.721 .0276378
858.399 .0276305
859.077 .0276247
859.754 .0276205
860.431 .0276167
861.107 .0276124
861.784 .0276067
862.459 .0275993
863.135 .0275900
863.810 .0275796
864.485 .0275689
865.160 .0275585
865.834 .0275486
866.508 .0275409
867.181 .0275352
867.854 .0275305
868.527 .0275262
869.199 .0275217
869.872 .0275160
870.543 .0275089
871.215 .0274994
871.886 .0274886
872.557 .0274764
873.227 .0274635
873.897 .0274502
874.567 .0274369
875.236 .0274237
875.905 .0274102
876.573 .0273960
877.242 .0273808
877.909 .0273634
878.577 .0273439
879.244 .0273220
879.911 .0272983
880.577 .0272729
881.243 .0272464
881.909 .0272199
882.575 .0271939
883.240 .0271688
883.904 .0271451
884.569 .0271224
885.232 .0271005
885.896 .0270789
886.559 .0270571
887.222 .0270350
887.885 .0270126
888.547 .0269901
889.208 .0269679
889.870 .0269467
890.531 .0269267
891.192 .0269081
891.852 .0268910
892.512 .0268750
893.171 .0268600
893.830 .0268459
894.489 .0268323
895.148 .0268187
895.806 .0268054
896.464 .0267918
897.121 .0267786
897.778 .0267656
898.434 .0267534
899.091 .0267423
899.747 .0267325
900.402 .0267239
901.057 .0267160
901.712 .0267092
902.366 .0267027
903.020 .0266959
903.674 .0266887
904.327 .0266806
904.980 .0266718
905.633 .0266623
906.285 .0266530
906.936 .0266439
907.588 .0266356
908.239 .0266278
908.889 .0266206
909.540 .0266135
910.190 .0266061
910.839 .0265977
911.488 .0265880
912.137 .0265770
912.785 .0265647
913.433 .0265512
914.081 .0265377
914.728 .0265242
915.375 .0265118
916.021 .0265002
916.668 .0264894
917.313 .0264788
917.959 .0264682
918.604 .0264574
919.248 .0264464
919.892 .0264348
920.536 .0264234
921.180 .0264119
921.823 .0264011
922.465 .0263909
923.108 .0263817
923.750 .0263730
924.391 .0263649
925.032 .0263572
925.673 .0263499
926.313 .0263422
926.953 .0263347
927.593 .0263264
928.232 .0263177
928.871 .0263084
929.510 .0262981
930.148 .0262865
930.786 .0262745
931.423 .0262618
932.060 .0262489
932.697 .0262362
933.333 .0262245
933.969 .0262133
934.604 .0262032
935.239 .0261935
935.874 .0261833
936.508 .0261733
937.142 .0261631
937.776 .0261522
938.409 .0261420
939.042 .0261320
939.674 .0261228
940.306 .0261144
940.938 .0261074
941.569 .0261011
942.200 .0260951
942.830 .0260889
943.460 .0260815
944.090 .0260727
944.720 .0260629
945.349 .0260523
945.977 .0260421
946.606 .0260327
947.233 .0260240
947.861 .0260158
948.488 .0260080
949.115 .0260000
949.741 .0259922
950.367 .0259839
950.993 .0259753
951.618 .0259669
952.243 .0259590
952.868 .0259521
953.492 .0259467
954.115 .0259429
954.739 .0259402
955.362 .0259379
955.984 .0259358
956.607 .0259335
957.229 .0259312
957.850 .0259296
958.471 .0259286
959.092 .0259287
959.713 .0259296
960.333 .0259308
960.952 .0259323
961.572 .0259340
962.191 .0259352
962.809 .0259360
963.428 .0259365
964.045 .0259364
964.663 .0259355
965.280 .0259342
965.897 .0259325
966.513 .0259301
967.129 .0259269
967.745 .0259227
968.361 .0259167
968.976 .0259097
969.590 .0259016
970.205 .0258931
970.818 .0258843
971.432 .0258754
972.045 .0258662
972.658 .0258570
973.271 .0258469
973.883 .0258356
974.495 .0258229
975.106 .0258095
975.717 .0257946
976.328 .0257780
976.938 .0257608
977.548 .0257436
978.158 .0257267
978.768 .0257111
979.377 .0256965
979.985 .0256830
980.594 .0256710
981.202 .0256598
981.809 .0256495
982.417 .0256408
983.024 .0256326
983.631 .0256255
984.237 .0256192
984.843 .0256130
985.449 .0256065
986.054 .0255996
986.659 .0255934
987.264 .0255862
987.868 .0255776
988.472 .0255681
989.076 .0255570
989.679 .0255457
990.282 .0255332
990.885 .0255199
991.487 .0255065
992.090 .0254926
992.691 .0254780
993.293 .0254632
993.894 .0254484
994.495 .0254343
995.095 .0254198
995.696 .0254060
996.296 .0253928
996.895 .0253797
997.494 .0253680
998.093 .0253575
998.692 .0253478
999.291 .0253390
999.889 .0253290
1000.487 .0253186
1001.084 .0253074
1001.681 .0252949
1002.278 .0252810
1002.875 .0252656
1003.471 .0252491
1004.067 .0252322
1004.663 .0252151
1005.258 .0251996
1005.854 .0251849
1006.449 .0251717
1007.043 .0251601
1007.638 .0251490
1008.232 .0251391
1008.826 .0251298
1009.419 .0251205
1010.012 .0251113
1010.605 .0251015
1011.198 .0250913
1011.791 .0250804
1012.383 .0250696
1012.975 .0250594
1013.566 .0250496
1014.158 .0250403
1014.749 .0250313
1015.340 .0250231
1015.931 .0250163
1016.521 .0250105
1017.111 .0250047
1017.701 .0249991
1018.291 .0249932
1018.880 .0249876
1019.470 .0249817
1020.059 .0249760
1020.647 .0249710
1021.236 .0249665
1021.824 .0249632
1022.412 .0249610
1023.000 .0249596
1023.588 .0249595
1024.175 .0249604
1024.762 .0249610
1025.349 .0249599
1025.936 .0249569
1026.523 .0249519
1027.109 .0249455
1027.695 .0249377
1028.281 .0249288
1028.867 .0249201
1029.452 .0249135
1030.038 .0249095
1030.623 .0249073
1031.208 .0249073
1031.792 .0249082
1032.377 .0249091
1032.961 .0249085
1033.546 .0249056
1034.130 .0249010
1034.714 .0248954
1035.297 .0248891
1035.881 .0248829
1036.464 .0248778
1037.047 .0248740
1037.630 .0248711
1038.213 .0248699
1038.796 .0248688
1039.378 .0248676
1039.961 .0248667
1040.543 .0248664
1041.125 .0248658
1041.707 .0248656
1042.289 .0248650
1042.871 .0248647
1043.452 .0248652
1044.034 .0248658
1044.615 .0248658
1045.196 .0248676
1045.777 .0248712
1046.358 .0248760
1046.939 .0248821
1047.520 .0248898
1048.101 .0248977
1048.681 .0249045
1049.262 .0249085
1049.842 .0249085
1050.422 .0249048
1051.002 .0248974
1051.582 .0248866
1052.162 .0248752
1052.742 .0248650
1053.322 .0248569
1053.902 .0248528
1054.482 .0248526
1055.061 .0248565
1055.641 .0248626
1056.220 .0248699
1056.800 .0248774
1057.379 .0248843
1057.958 .0248909
1058.538 .0248970
1059.117 .0249040
1059.696 .0249131
1060.275 .0249232
1060.854 .0249359
1061.433 .0249501
1062.012 .0249638
1062.592 .0249762
1063.171 .0249865
1063.750 .0249936
1064.329 .0249965
1064.908 .0249951
1065.487 .0249893
1066.066 .0249807
1066.645 .0249701
1067.224 .0249587
1067.803 .0249465
1068.382 .0249367
1068.961 .0249289
1069.540 .0249220
1070.119 .0249167
1070.698 .0249124
1071.278 .0249086
1071.857 .0249066
1072.436 .0249048
1073.016 .0249046
1073.595 .0249050
1074.175 .0249099
1074.754 .0249170
1075.334 .0249273
1075.913 .0249411
1076.493 .0249591
1077.073 .0249792
1077.653 .0250019
1078.233 .0250239
1078.813 .0250444
1079.393 .0250638
1079.974 .0250798
1080.554 .0250910
1081.135 .0250987
1081.716 .0251031
1082.296 .0251053
1082.877 .0251047
1083.458 .0251032
1084.040 .0251002
1084.621 .0250972
1085.202 .0250958
1085.784 .0250942
1086.366 .0250937
1086.948 .0250944
1087.530 .0250955
1088.112 .0250981
1088.695 .0251023
1089.277 .0251085
1089.860 .0251186
1090.443 .0251318
1091.026 .0251492
1091.610 .0251695
1092.193 .0251937
1092.777 .0252194
1093.361 .0252466
1093.946 .0252714
1094.530 .0252919
1095.115 .0253077
1095.700 .0253188
1096.285 .0253234
1096.871 .0253256
1097.456 .0253269
1098.042 .0253288
1098.628 .0253312
1099.215 .0253372
1099.802 .0253449
1100.389 .0253572
1100.976 .0253699
1101.564 .0253820
1102.152 .0253901
1102.740 .0253962
1103.329 .0253962
1103.917 .0253929
1104.507 .0253874
1105.096 .0253804
1105.686 .0253709
1106.276 .0253624
1106.867 .0253522
1107.457 .0253405
1108.049 .0253241
1108.640 .0253051
1109.232 .0252792
1109.825 .0252535
1110.417 .0252263
1111.010 .0252025
1111.604 .0251855
1112.198 .0251786
1112.792 .0251774
1113.387 .0251836
1113.982 .0251926
1114.577 .0252027
1115.173 .0252105
1115.769 .0252166
1116.366 .0252182
1116.963 .0252193
1117.561 .0252224
1118.159 .0252292
1118.758 .0252396
1119.357 .0252551
1119.957 .0252711
1120.557 .0252881
1121.157 .0253049
1121.758 .0253199
1122.360 .0253331
1122.962 .0253471
1123.564 .0253620
1124.167 .0253785
1124.771 .0253985
1125.375 .0254214
1125.980 .0254488
1126.585 .0254779
1127.191 .0255073
1127.797 .0255355
1128.404 .0255658
1129.012 .0255995
1129.620 .0256360
1130.229 .0256775
1130.838 .0257210
1131.448 .0257615
1132.058 .0258008
1132.669 .0258347
1133.281 .0258641
1133.894 .0258900
1134.507 .0259146
1135.120 .0259388
1135.735 .0259711
1136.350 .0260109
1136.965 .0260621
1137.582 .0261236
1138.199 .0261911
1138.816 .0262558
1139.435 .0263176
1140.054 .0263758
1140.674 .0264304
1141.294 .0264837
1141.916 .0265288
1142.538 .0264870
1143.160 .0265957
1143.784 .0267439
1144.408 .0268374
1145.033 .0266104
