Measurement Sequence started on: 14-45-04-498
Integration time: 36
Scans to Average: 2 
>>>>>Begin Spectral Data<<<<<
433.946 .0524919
434.870 .0525679
435.793 .0493681
436.715 .0483190
437.635 .0475964
438.555 .0481557
439.473 .0476925
440.389 .0473276
441.305 .0471218
442.219 .0469787
443.132 .0468900
444.044 .0468316
444.954 .0468271
445.863 .0468444
446.771 .0468850
447.678 .0469217
448.584 .0469489
449.488 .0469497
450.391 .0469195
451.293 .0468654
452.194 .0468007
453.094 .0467264
453.992 .0466502
454.890 .0465704
455.786 .0464902
456.681 .0464035
457.575 .0463062
458.468 .0461932
459.360 .0460724
460.250 .0459447
461.140 .0458063
462.028 .0456713
462.915 .0455406
463.801 .0454122
464.687 .0452848
465.571 .0451603
466.454 .0450357
467.335 .0449075
468.216 .0447816
469.096 .0446539
469.975 .0445375
470.853 .0444266
471.729 .0443185
472.605 .0442196
473.479 .0441282
474.353 .0440389
475.226 .0439473
476.097 .0438587
476.968 .0437675
477.838 .0436739
478.706 .0435838
479.574 .0434959
480.441 .0434143
481.306 .0433387
482.171 .0432671
483.035 .0431986
483.898 .0431372
484.760 .0430788
485.621 .0430273
486.481 .0429869
487.340 .0429530
488.198 .0429283
489.055 .0429116
489.912 .0429045
490.767 .0428992
491.622 .0428958
492.476 .0428963
493.329 .0428969
494.180 .0429007
495.032 .0429045
495.882 .0429129
496.731 .0429248
497.580 .0429381
498.427 .0429517
499.274 .0429576
500.120 .0429582
500.965 .0429479
501.809 .0429257
502.653 .0428903
503.495 .0428450
504.337 .0427907
505.178 .0427286
506.018 .0426618
506.858 .0425865
507.696 .0425072
508.534 .0424253
509.371 .0423414
510.208 .0422536
511.043 .0421693
511.878 .0420871
512.712 .0420054
513.545 .0419285
514.377 .0418530
515.209 .0417802
516.040 .0417144
516.870 .0416485
517.699 .0415852
518.528 .0415216
519.356 .0414691
520.183 .0414231
521.010 .0413892
521.836 .0413676
522.661 .0413494
523.485 .0413344
524.309 .0413168
525.132 .0412860
525.954 .0412444
526.776 .0411852
527.597 .0411155
528.417 .0410305
529.237 .0409408
530.056 .0408465
530.874 .0407548
531.692 .0406727
532.508 .0405963
533.325 .0405250
534.140 .0404573
534.955 .0403865
535.770 .0403116
536.583 .0402327
537.397 .0401566
538.209 .0400844
539.021 .0400205
539.832 .0399625
540.643 .0399164
541.453 .0398807
542.262 .0398543
543.071 .0398325
543.879 .0398150
544.687 .0398009
545.494 .0397844
546.300 .0397720
547.106 .0397614
547.911 .0397548
548.716 .0397555
549.520 .0397523
550.323 .0397495
551.126 .0397411
551.929 .0397289
552.731 .0397109
553.532 .0396880
554.332 .0396638
555.133 .0396373
555.932 .0396143
556.731 .0395935
557.530 .0395728
558.328 .0395572
559.125 .0395420
559.922 .0395259
560.719 .0395074
561.515 .0394870
562.310 .0394625
563.105 .0394376
563.899 .0394133
564.693 .0393895
565.487 .0393651
566.280 .0393394
567.072 .0393136
567.864 .0392826
568.655 .0392465
569.446 .0392050
570.236 .0391551
571.026 .0390999
571.816 .0390371
572.605 .0389703
573.393 .0389023
574.181 .0388349
574.969 .0387683
575.756 .0387029
576.543 .0386424
577.329 .0385849
578.115 .0385297
578.900 .0384782
579.685 .0384282
580.469 .0383808
581.253 .0383352
582.036 .0382902
582.820 .0382461
583.602 .0382049
584.384 .0381657
585.166 .0381286
585.947 .0380930
586.728 .0380590
587.509 .0380261
588.289 .0379959
589.069 .0379674
589.848 .0379395
590.627 .0379126
591.405 .0378871
592.183 .0378617
592.961 .0378382
593.738 .0378149
594.515 .0377926
595.291 .0377711
596.067 .0377501
596.843 .0377279
597.618 .0377050
598.393 .0376813
599.167 .0376576
599.941 .0376332
600.715 .0376089
601.488 .0375849
602.261 .0375617
603.034 .0375389
603.806 .0375163
604.578 .0374939
605.349 .0374719
606.121 .0374496
606.891 .0374280
607.662 .0374062
608.432 .0373852
609.201 .0373648
609.971 .0373449
610.740 .0373250
611.508 .0373046
612.277 .0372827
613.045 .0372596
613.812 .0372346
614.579 .0372075
615.346 .0371788
616.113 .0371496
616.879 .0371199
617.645 .0370903
618.411 .0370606
619.176 .0370309
619.941 .0370005
620.705 .0369699
621.470 .0369383
622.233 .0369062
622.997 .0368741
623.760 .0368424
624.523 .0368123
625.286 .0367838
626.048 .0367568
626.810 .0367317
627.572 .0367077
628.333 .0366849
629.095 .0366620
629.855 .0366393
630.616 .0366168
631.376 .0365945
632.136 .0365728
632.895 .0365518
633.655 .0365318
634.414 .0365127
635.172 .0364937
635.931 .0364749
636.689 .0364548
637.447 .0364339
638.204 .0364120
638.962 .0363895
639.718 .0363666
640.475 .0363434
641.231 .0363203
641.988 .0362977
642.743 .0362754
643.499 .0362528
644.254 .0362298
645.009 .0362064
645.764 .0361819
646.518 .0361566
647.272 .0361309
648.026 .0361053
648.780 .0360800
649.533 .0360556
650.286 .0360317
651.039 .0360082
651.792 .0359848
652.544 .0359613
653.296 .0359375
654.048 .0359134
654.799 .0358891
655.550 .0358646
656.301 .0358408
657.052 .0358183
657.802 .0357969
658.552 .0357772
659.302 .0357588
660.052 .0357410
660.801 .0357231
661.550 .0357043
662.299 .0356847
663.048 .0356635
663.796 .0356419
664.544 .0356193
665.292 .0355962
666.040 .0355739
666.787 .0355524
667.534 .0355313
668.281 .0355110
669.028 .0354908
669.774 .0354700
670.521 .0354479
671.266 .0354246
672.012 .0354001
672.758 .0353750
673.503 .0353501
674.248 .0353255
674.992 .0353020
675.737 .0352808
676.481 .0352616
677.225 .0352448
677.969 .0352305
678.712 .0352176
679.455 .0352055
680.199 .0351937
680.941 .0351821
681.684 .0351706
682.426 .0351587
683.168 .0351474
683.910 .0351367
684.652 .0351261
685.393 .0351160
686.134 .0351063
686.875 .0350969
687.616 .0350871
688.356 .0350767
689.097 .0350650
689.837 .0350522
690.576 .0350388
691.316 .0350243
692.055 .0350093
692.794 .0349944
693.533 .0349793
694.272 .0349638
695.010 .0349488
695.748 .0349338
696.486 .0349187
697.224 .0349042
697.962 .0348897
698.699 .0348754
699.436 .0348613
700.173 .0348479
700.909 .0348344
701.646 .0348215
702.382 .0348084
703.118 .0347944
703.853 .0347798
704.589 .0347645
705.324 .0347480
706.059 .0347309
706.794 .0347133
707.529 .0346955
708.263 .0346775
708.997 .0346601
709.731 .0346424
710.465 .0346252
711.198 .0346082
711.931 .0345912
712.664 .0345738
713.397 .0345562
714.130 .0345379
714.862 .0345199
715.594 .0345017
716.326 .0344839
717.058 .0344664
717.789 .0344500
718.520 .0344339
719.251 .0344178
719.982 .0344018
720.713 .0343856
721.443 .0343684
722.173 .0343501
722.903 .0343305
723.633 .0343101
724.362 .0342891
725.091 .0342680
725.820 .0342469
726.549 .0342261
727.278 .0342056
728.006 .0341855
728.734 .0341653
729.462 .0341452
730.190 .0341253
730.917 .0341057
731.644 .0340867
732.371 .0340679
733.098 .0340500
733.825 .0340331
734.551 .0340174
735.277 .0340028
736.003 .0339889
736.728 .0339759
737.454 .0339638
738.179 .0339526
738.904 .0339420
739.629 .0339322
740.353 .0339229
741.077 .0339140
741.801 .0339048
742.525 .0338952
743.249 .0338850
743.972 .0338748
744.695 .0338649
745.418 .0338551
746.141 .0338458
746.863 .0338371
747.585 .0338292
748.307 .0338215
749.029 .0338136
749.750 .0338052
750.472 .0337962
751.193 .0337862
751.913 .0337746
752.634 .0337624
753.354 .0337499
754.074 .0337372
754.794 .0337246
755.514 .0337121
756.233 .0336997
756.952 .0336872
757.671 .0336750
758.390 .0336626
759.108 .0336507
759.826 .0336394
760.544 .0336285
761.262 .0336185
761.979 .0336098
762.697 .0336022
763.414 .0335955
764.130 .0335895
764.847 .0335836
765.563 .0335776
766.279 .0335719
766.995 .0335661
767.710 .0335605
768.426 .0335549
769.141 .0335497
769.855 .0335441
770.570 .0335382
771.284 .0335313
771.998 .0335231
772.712 .0335136
773.426 .0335027
774.139 .0334896
774.852 .0334749
775.565 .0334594
776.277 .0334433
776.990 .0334267
777.702 .0334103
778.414 .0333941
779.125 .0333779
779.836 .0333616
780.547 .0333449
781.258 .0333275
781.969 .0333102
782.679 .0332924
783.389 .0332743
784.099 .0332566
784.808 .0332398
785.517 .0332241
786.226 .0332097
786.935 .0331965
787.643 .0331844
788.352 .0331733
789.060 .0331628
789.767 .0331524
790.475 .0331419
791.182 .0331313
791.889 .0331208
792.595 .0331105
793.301 .0331001
794.008 .0330896
794.713 .0330793
795.419 .0330692
796.124 .0330589
796.829 .0330486
797.534 .0330381
798.238 .0330277
798.942 .0330172
799.646 .0330067
800.350 .0329962
801.053 .0329859
801.756 .0329758
802.459 .0329651
803.162 .0329541
803.864 .0329425
804.566 .0329309
805.267 .0329192
805.969 .0329080
806.670 .0328970
807.371 .0328869
808.071 .0328774
808.772 .0328684
809.472 .0328593
810.171 .0328506
810.871 .0328415
811.570 .0328324
812.269 .0328232
812.967 .0328145
813.666 .0328066
814.364 .0328001
815.061 .0327951
815.759 .0327917
816.456 .0327894
817.153 .0327880
817.849 .0327863
818.545 .0327845
819.241 .0327816
819.937 .0327775
820.632 .0327724
821.327 .0327660
822.022 .0327587
822.717 .0327509
823.411 .0327428
824.105 .0327347
824.798 .0327266
825.491 .0327183
826.184 .0327093
826.877 .0326999
827.569 .0326895
828.261 .0326780
828.953 .0326650
829.645 .0326509
830.336 .0326350
831.027 .0326189
831.717 .0326024
832.407 .0325859
833.097 .0325701
833.787 .0325548
834.476 .0325396
835.165 .0325246
835.854 .0325092
836.542 .0324935
837.230 .0324773
837.918 .0324614
838.605 .0324451
839.292 .0324292
839.979 .0324139
840.665 .0323995
841.352 .0323857
842.037 .0323727
842.723 .0323600
843.408 .0323474
844.093 .0323348
844.777 .0323216
845.462 .0323081
846.145 .0322944
846.829 .0322805
847.512 .0322665
848.195 .0322522
848.878 .0322376
849.560 .0322224
850.242 .0322064
850.923 .0321895
851.605 .0321715
852.286 .0321523
852.966 .0321324
853.646 .0321118
854.326 .0320912
855.006 .0320710
855.685 .0320514
856.364 .0320326
857.043 .0320143
857.721 .0319968
858.399 .0319795
859.077 .0319623
859.754 .0319449
860.431 .0319272
861.107 .0319092
861.784 .0318910
862.459 .0318725
863.135 .0318544
863.810 .0318370
864.485 .0318204
865.160 .0318049
865.834 .0317904
866.508 .0317767
867.181 .0317638
867.854 .0317514
868.527 .0317390
869.199 .0317263
869.872 .0317133
870.543 .0316997
871.215 .0316854
871.886 .0316710
872.557 .0316561
873.227 .0316416
873.897 .0316275
874.567 .0316137
875.236 .0316003
875.905 .0315874
876.573 .0315746
877.242 .0315615
877.909 .0315477
878.577 .0315334
879.244 .0315184
879.911 .0315033
880.577 .0314878
881.243 .0314728
881.909 .0314588
882.575 .0314460
883.240 .0314342
883.904 .0314238
884.569 .0314144
885.232 .0314060
885.896 .0313977
886.559 .0313900
887.222 .0313819
887.885 .0313740
888.547 .0313655
889.208 .0313571
889.870 .0313489
890.531 .0313407
891.192 .0313326
891.852 .0313250
892.512 .0313178
893.171 .0313110
893.830 .0313047
894.489 .0312992
895.148 .0312939
895.806 .0312890
896.464 .0312841
897.121 .0312794
897.778 .0312747
898.434 .0312702
899.091 .0312655
899.747 .0312611
900.402 .0312567
901.057 .0312521
901.712 .0312476
902.366 .0312428
903.020 .0312379
903.674 .0312318
904.327 .0312245
904.980 .0312161
905.633 .0312062
906.285 .0311953
906.936 .0311836
907.588 .0311715
908.239 .0311594
908.889 .0311477
909.540 .0311360
910.190 .0311241
910.839 .0311126
911.488 .0311012
912.137 .0310895
912.785 .0310778
913.433 .0310666
914.081 .0310557
914.728 .0310461
915.375 .0310369
916.021 .0310278
916.668 .0310192
917.313 .0310105
917.959 .0310006
918.604 .0309902
919.248 .0309792
919.892 .0309672
920.536 .0309554
921.180 .0309437
921.823 .0309320
922.465 .0309202
923.108 .0309078
923.750 .0308947
924.391 .0308804
925.032 .0308648
925.673 .0308477
926.313 .0308299
926.953 .0308118
927.593 .0307928
928.232 .0307729
928.871 .0307526
929.510 .0307311
930.148 .0307077
930.786 .0306819
931.423 .0306535
932.060 .0306232
932.697 .0305909
933.333 .0305571
933.969 .0305223
934.604 .0304870
935.239 .0304515
935.874 .0304154
936.508 .0303790
937.142 .0303426
937.776 .0303060
938.409 .0302702
939.042 .0302350
939.674 .0302002
940.306 .0301662
940.938 .0301327
941.569 .0300992
942.200 .0300657
942.830 .0300313
943.460 .0299964
944.090 .0299607
944.720 .0299246
945.349 .0298880
945.977 .0298511
946.606 .0298146
947.233 .0297776
947.861 .0297400
948.488 .0297016
949.115 .0296621
949.741 .0296219
950.367 .0295819
950.993 .0295421
951.618 .0295035
952.243 .0294667
952.868 .0294317
953.492 .0293989
954.115 .0293681
954.739 .0293394
955.362 .0293125
955.984 .0292871
956.607 .0292630
957.229 .0292398
957.850 .0292184
958.471 .0291979
959.092 .0291785
959.713 .0291599
960.333 .0291416
960.952 .0291239
961.572 .0291071
962.191 .0290914
962.809 .0290776
963.428 .0290657
964.045 .0290552
964.663 .0290460
965.280 .0290380
965.897 .0290304
966.513 .0290228
967.129 .0290150
967.745 .0290070
968.361 .0289987
968.976 .0289905
969.590 .0289821
970.205 .0289743
970.818 .0289676
971.432 .0289612
972.045 .0289547
972.658 .0289484
973.271 .0289414
973.883 .0289339
974.495 .0289257
975.106 .0289168
975.717 .0289073
976.328 .0288975
976.938 .0288879
977.548 .0288789
978.158 .0288711
978.768 .0288646
979.377 .0288588
979.985 .0288545
980.594 .0288501
981.202 .0288455
981.809 .0288409
982.417 .0288361
983.024 .0288316
983.631 .0288271
984.237 .0288232
984.843 .0288202
985.449 .0288182
986.054 .0288169
986.659 .0288162
987.264 .0288167
987.868 .0288178
988.472 .0288194
989.076 .0288220
989.679 .0288258
990.282 .0288305
990.885 .0288360
991.487 .0288422
992.090 .0288487
992.691 .0288550
993.293 .0288610
993.894 .0288667
994.495 .0288723
995.095 .0288777
995.696 .0288833
996.296 .0288891
996.895 .0288949
997.494 .0289002
998.093 .0289050
998.692 .0289090
999.291 .0289123
999.889 .0289145
1000.487 .0289162
1001.084 .0289185
1001.681 .0289208
1002.278 .0289235
1002.875 .0289272
1003.471 .0289315
1004.067 .0289361
1004.663 .0289409
1005.258 .0289462
1005.854 .0289514
1006.449 .0289573
1007.043 .0289637
1007.638 .0289711
1008.232 .0289800
1008.826 .0289894
1009.419 .0289986
1010.012 .0290082
1010.605 .0290173
1011.198 .0290248
1011.791 .0290313
1012.383 .0290361
1012.975 .0290398
1013.566 .0290420
1014.158 .0290433
1014.749 .0290441
1015.340 .0290449
1015.931 .0290456
1016.521 .0290457
1017.111 .0290458
1017.701 .0290458
1018.291 .0290448
1018.880 .0290442
1019.470 .0290431
1020.059 .0290424
1020.647 .0290417
1021.236 .0290422
1021.824 .0290440
1022.412 .0290477
1023.000 .0290531
1023.588 .0290601
1024.175 .0290686
1024.762 .0290779
1025.349 .0290870
1025.936 .0290954
1026.523 .0291025
1027.109 .0291085
1027.695 .0291124
1028.281 .0291152
1028.867 .0291162
1029.452 .0291169
1030.038 .0291163
1030.623 .0291151
1031.208 .0291135
1031.792 .0291116
1032.377 .0291094
1032.961 .0291068
1033.546 .0291039
1034.130 .0291009
1034.714 .0290977
1035.297 .0290945
1035.881 .0290911
1036.464 .0290886
1037.047 .0290861
1037.630 .0290838
1038.213 .0290817
1038.796 .0290806
1039.378 .0290796
1039.961 .0290786
1040.543 .0290776
1041.125 .0290761
1041.707 .0290739
1042.289 .0290706
1042.871 .0290664
1043.452 .0290612
1044.034 .0290553
1044.615 .0290488
1045.196 .0290420
1045.777 .0290359
1046.358 .0290299
1046.939 .0290240
1047.520 .0290184
1048.101 .0290127
1048.681 .0290059
1049.262 .0289982
1049.842 .0289899
1050.422 .0289805
1051.002 .0289707
1051.582 .0289604
1052.162 .0289500
1052.742 .0289396
1053.322 .0289298
1053.902 .0289192
1054.482 .0289081
1055.061 .0288970
1055.641 .0288854
1056.220 .0288739
1056.800 .0288627
1057.379 .0288518
1057.958 .0288420
1058.538 .0288331
1059.117 .0288257
1059.696 .0288192
1060.275 .0288148
1060.854 .0288113
1061.433 .0288085
1062.012 .0288065
1062.592 .0288053
1063.171 .0288046
1063.750 .0288049
1064.329 .0288052
1064.908 .0288036
1065.487 .0287988
1066.066 .0287906
1066.645 .0287776
1067.224 .0287612
1067.803 .0287405
1068.382 .0287174
1068.961 .0286934
1069.540 .0286701
1070.119 .0286473
1070.698 .0286266
1071.278 .0286079
1071.857 .0285899
1072.436 .0285718
1073.016 .0285534
1073.595 .0285343
1074.175 .0285167
1074.754 .0285016
1075.334 .0284897
1075.913 .0284816
1076.493 .0284796
1077.073 .0284812
1077.653 .0284863
1078.233 .0284932
1078.813 .0285009
1079.393 .0285078
1079.974 .0285135
1080.554 .0285169
1081.135 .0285187
1081.716 .0285198
1082.296 .0285191
1082.877 .0285164
1083.458 .0285125
1084.040 .0285062
1084.621 .0284965
1085.202 .0284846
1085.784 .0284711
1086.366 .0284559
1086.948 .0284411
1087.530 .0284280
1088.112 .0284171
1088.695 .0284075
1089.277 .0283990
1089.860 .0283913
1090.443 .0283839
1091.026 .0283773
1091.610 .0283703
1092.193 .0283647
1092.777 .0283609
1093.361 .0283600
1093.946 .0283609
1094.530 .0283656
1095.115 .0283743
1095.700 .0283847
1096.285 .0283958
1096.871 .0284066
1097.456 .0284176
1098.042 .0284291
1098.628 .0284395
1099.215 .0284494
1099.802 .0284585
1100.389 .0284666
1100.976 .0284732
1101.564 .0284782
1102.152 .0284826
1102.740 .0284878
1103.329 .0284923
1103.917 .0284963
1104.507 .0284978
1105.096 .0284976
1105.686 .0284957
1106.276 .0284896
1106.867 .0284807
1107.457 .0284671
1108.049 .0284499
1108.640 .0284321
1109.232 .0284150
1109.825 .0284020
1110.417 .0283939
1111.010 .0283913
1111.604 .0283932
1112.198 .0283987
1112.792 .0284064
1113.387 .0284150
1113.982 .0284249
1114.577 .0284382
1115.173 .0284533
1115.769 .0284712
1116.366 .0284943
1116.963 .0285244
1117.561 .0285588
1118.159 .0285971
1118.758 .0286379
1119.357 .0286790
1119.957 .0287167
1120.557 .0287521
1121.157 .0287833
1121.758 .0288126
1122.360 .0288406
1122.962 .0288664
1123.564 .0288924
1124.167 .0289225
1124.771 .0289547
1125.375 .0289876
1125.980 .0290249
1126.585 .0290669
1127.191 .0291083
1127.797 .0291518
1128.404 .0291952
1129.012 .0292374
1129.620 .0292776
1130.229 .0293135
1130.838 .0293449
1131.448 .0293714
1132.058 .0293978
1132.669 .0294215
1133.281 .0294460
1133.894 .0294739
1134.507 .0295049
1135.120 .0295399
1135.735 .0295787
1136.350 .0296169
1136.965 .0296545
1137.582 .0296908
1138.199 .0297291
1138.816 .0297686
1139.435 .0298154
1140.054 .0298732
1140.674 .0299411
1141.294 .0300124
1141.916 .0300984
1142.538 .0302049
1143.160 .0303768
1143.784 .0303947
1144.408 .0302972
1145.033 .0306583
