Measurement Sequence started on: 14-45-04-498
Integration time: 36
Scans to Average: 2 
>>>>>Begin Spectral Data<<<<<
433.946 .0498727
434.870 .0516297
435.793 .0493868
436.715 .0488472
437.635 .0473285
438.555 .0481554
439.473 .0477894
440.389 .0474143
441.305 .0471460
442.219 .0469152
443.132 .0467492
444.044 .0465972
444.954 .0464907
445.863 .0464303
446.771 .0464172
447.678 .0464070
448.584 .0463915
449.488 .0463752
450.391 .0463527
451.293 .0463153
452.194 .0462759
453.094 .0462304
453.992 .0461736
454.890 .0461115
455.786 .0460451
456.681 .0459636
457.575 .0458637
458.468 .0457431
459.360 .0456037
460.250 .0454510
461.140 .0452876
462.028 .0451245
462.915 .0449687
463.801 .0448213
464.687 .0446790
465.571 .0445414
466.454 .0444118
467.335 .0442858
468.216 .0441642
469.096 .0440483
469.975 .0439365
470.853 .0438316
471.729 .0437337
472.605 .0436457
473.479 .0435728
474.353 .0435087
475.226 .0434521
476.097 .0433991
476.968 .0433470
477.838 .0432913
478.706 .0432304
479.574 .0431662
480.441 .0430984
481.306 .0430284
482.171 .0429565
483.035 .0428842
483.898 .0428158
484.760 .0427518
485.621 .0426903
486.481 .0426300
487.340 .0425718
488.198 .0425118
489.055 .0424503
489.912 .0423905
490.767 .0423321
491.622 .0422738
492.476 .0422199
493.329 .0421731
494.180 .0421326
495.032 .0421038
495.882 .0420853
496.731 .0420766
497.580 .0420782
498.427 .0420832
499.274 .0420871
500.120 .0420907
500.965 .0420948
501.809 .0420910
502.653 .0420793
503.495 .0420626
504.337 .0420349
505.178 .0419989
506.018 .0419582
506.858 .0419071
507.696 .0418515
508.534 .0417947
509.371 .0417319
510.208 .0416695
511.043 .0416110
511.878 .0415520
512.712 .0414979
513.545 .0414461
514.377 .0413994
515.209 .0413498
516.040 .0413078
516.870 .0412702
517.699 .0412370
518.528 .0412180
519.356 .0412073
520.183 .0412041
521.010 .0412155
521.836 .0412246
522.661 .0412291
523.485 .0412226
524.309 .0412028
525.132 .0411651
525.954 .0411158
526.776 .0410525
527.597 .0409871
528.417 .0409163
529.237 .0408488
530.056 .0407790
530.874 .0407122
531.692 .0406424
532.508 .0405595
533.325 .0404683
534.140 .0403674
534.955 .0402516
535.770 .0401327
536.583 .0400027
537.397 .0398712
538.209 .0397365
539.021 .0395999
539.832 .0394610
540.643 .0393200
541.453 .0391781
542.262 .0390378
543.071 .0389015
543.879 .0387769
544.687 .0386667
545.494 .0385799
546.300 .0385186
547.106 .0384783
547.911 .0384585
548.716 .0384575
549.520 .0384673
550.323 .0384833
551.126 .0385006
551.929 .0385193
552.731 .0385378
553.532 .0385553
554.332 .0385726
555.133 .0385890
555.932 .0386033
556.731 .0386128
557.530 .0386156
558.328 .0386084
559.125 .0385879
559.922 .0385543
560.719 .0385107
561.515 .0384585
562.310 .0383994
563.105 .0383385
563.899 .0382807
564.693 .0382268
565.487 .0381768
566.280 .0381299
567.072 .0380866
567.864 .0380437
568.655 .0379978
569.446 .0379485
570.236 .0378963
571.026 .0378423
571.816 .0377872
572.605 .0377317
573.393 .0376751
574.181 .0376199
574.969 .0375658
575.756 .0375111
576.543 .0374559
577.329 .0373991
578.115 .0373401
578.900 .0372812
579.685 .0372213
580.469 .0371625
581.253 .0371087
582.036 .0370612
582.820 .0370187
583.602 .0369802
584.384 .0369451
585.166 .0369126
585.947 .0368805
586.728 .0368499
587.509 .0368175
588.289 .0367850
589.069 .0367525
589.848 .0367205
590.627 .0366887
591.405 .0366570
592.183 .0366250
592.961 .0365932
593.738 .0365589
594.515 .0365229
595.291 .0364836
596.067 .0364428
596.843 .0364009
597.618 .0363580
598.393 .0363147
599.167 .0362726
599.941 .0362306
600.715 .0361908
601.488 .0361527
602.261 .0361169
603.034 .0360824
603.806 .0360497
604.578 .0360179
605.349 .0359860
606.121 .0359545
606.891 .0359229
607.662 .0358905
608.432 .0358586
609.201 .0358266
609.971 .0357952
610.740 .0357649
611.508 .0357355
612.277 .0357065
613.045 .0356783
613.812 .0356503
614.579 .0356216
615.346 .0355924
616.113 .0355634
616.879 .0355342
617.645 .0355058
618.411 .0354789
619.176 .0354527
619.941 .0354277
620.705 .0354034
621.470 .0353783
622.233 .0353526
622.997 .0353261
623.760 .0352978
624.523 .0352685
625.286 .0352390
626.048 .0352088
626.810 .0351783
627.572 .0351481
628.333 .0351181
629.095 .0350872
629.855 .0350558
630.616 .0350235
631.376 .0349907
632.136 .0349583
632.895 .0349265
633.655 .0348962
634.414 .0348687
635.172 .0348433
635.931 .0348192
636.689 .0347964
637.447 .0347742
638.204 .0347511
638.962 .0347270
639.718 .0347016
640.475 .0346752
641.231 .0346479
641.988 .0346202
642.743 .0345924
643.499 .0345654
644.254 .0345378
645.009 .0345091
645.764 .0344800
646.518 .0344502
647.272 .0344194
648.026 .0343879
648.780 .0343568
649.533 .0343258
650.286 .0342960
651.039 .0342667
651.792 .0342381
652.544 .0342108
653.296 .0341836
654.048 .0341560
654.799 .0341288
655.550 .0341016
656.301 .0340745
657.052 .0340476
657.802 .0340222
658.552 .0339978
659.302 .0339747
660.052 .0339527
660.801 .0339315
661.550 .0339108
662.299 .0338905
663.048 .0338691
663.796 .0338480
664.544 .0338271
665.292 .0338063
666.040 .0337866
666.787 .0337680
667.534 .0337507
668.281 .0337347
669.028 .0337193
669.774 .0337044
670.521 .0336896
671.266 .0336748
672.012 .0336599
672.758 .0336451
673.503 .0336307
674.248 .0336167
674.992 .0336032
675.737 .0335902
676.481 .0335772
677.225 .0335636
677.969 .0335488
678.712 .0335326
679.455 .0335153
680.199 .0334971
680.941 .0334776
681.684 .0334581
682.426 .0334384
683.168 .0334185
683.910 .0333980
684.652 .0333769
685.393 .0333551
686.134 .0333326
686.875 .0333087
687.616 .0332837
688.356 .0332582
689.097 .0332327
689.837 .0332071
690.576 .0331823
691.316 .0331583
692.055 .0331349
692.794 .0331114
693.533 .0330880
694.272 .0330645
695.010 .0330412
695.748 .0330174
696.486 .0329934
697.224 .0329689
697.962 .0329441
698.699 .0329190
699.436 .0328942
700.173 .0328698
700.909 .0328458
701.646 .0328226
702.382 .0328006
703.118 .0327793
703.853 .0327597
704.589 .0327412
705.324 .0327242
706.059 .0327090
706.794 .0326945
707.529 .0326809
708.263 .0326685
708.997 .0326576
709.731 .0326470
710.465 .0326371
711.198 .0326279
711.931 .0326189
712.664 .0326103
713.397 .0326022
714.130 .0325937
714.862 .0325858
715.594 .0325779
716.326 .0325700
717.058 .0325619
717.789 .0325540
718.520 .0325453
719.251 .0325361
719.982 .0325262
720.713 .0325153
721.443 .0325031
722.173 .0324905
722.903 .0324773
723.633 .0324639
724.362 .0324504
725.091 .0324367
725.820 .0324232
726.549 .0324100
727.278 .0323963
728.006 .0323822
728.734 .0323674
729.462 .0323520
730.190 .0323358
730.917 .0323191
731.644 .0323022
732.371 .0322853
733.098 .0322692
733.825 .0322536
734.551 .0322383
735.277 .0322229
736.003 .0322074
736.728 .0321919
737.454 .0321762
738.179 .0321599
738.904 .0321436
739.629 .0321271
740.353 .0321110
741.077 .0320952
741.801 .0320794
742.525 .0320631
743.249 .0320468
743.972 .0320299
744.695 .0320123
745.418 .0319939
746.141 .0319754
746.863 .0319571
747.585 .0319397
748.307 .0319223
749.029 .0319051
749.750 .0318882
750.472 .0318717
751.193 .0318547
751.913 .0318375
752.634 .0318199
753.354 .0318021
754.074 .0317847
754.794 .0317679
755.514 .0317516
756.233 .0317365
756.952 .0317226
757.671 .0317096
758.390 .0316972
759.108 .0316852
759.826 .0316737
760.544 .0316633
761.262 .0316536
761.979 .0316442
762.697 .0316356
763.414 .0316274
764.130 .0316200
764.847 .0316124
765.563 .0316045
766.279 .0315958
766.995 .0315870
767.710 .0315776
768.426 .0315678
769.141 .0315580
769.855 .0315489
770.570 .0315407
771.284 .0315336
771.998 .0315274
772.712 .0315222
773.426 .0315181
774.139 .0315152
774.852 .0315126
775.565 .0315108
776.277 .0315089
776.990 .0315077
777.702 .0315067
778.414 .0315060
779.125 .0315050
779.836 .0315039
780.547 .0315022
781.258 .0314997
781.969 .0314962
782.679 .0314917
783.389 .0314862
784.099 .0314805
784.808 .0314740
785.517 .0314673
786.226 .0314605
786.935 .0314538
787.643 .0314471
788.352 .0314406
789.060 .0314338
789.767 .0314270
790.475 .0314205
791.182 .0314141
791.889 .0314075
792.595 .0314011
793.301 .0313943
794.008 .0313864
794.713 .0313778
795.419 .0313680
796.124 .0313565
796.829 .0313436
797.534 .0313292
798.238 .0313135
798.942 .0312969
799.646 .0312798
800.350 .0312624
801.053 .0312451
801.756 .0312281
802.459 .0312111
803.162 .0311946
803.864 .0311784
804.566 .0311623
805.267 .0311462
805.969 .0311302
806.670 .0311140
807.371 .0310978
808.071 .0310819
808.772 .0310668
809.472 .0310518
810.171 .0310374
810.871 .0310231
811.570 .0310088
812.269 .0309941
812.967 .0309788
813.666 .0309623
814.364 .0309451
815.061 .0309271
815.759 .0309089
816.456 .0308907
817.153 .0308733
817.849 .0308560
818.545 .0308393
819.241 .0308228
819.937 .0308061
820.632 .0307891
821.327 .0307716
822.022 .0307535
822.717 .0307351
823.411 .0307166
824.105 .0306987
824.798 .0306813
825.491 .0306648
826.184 .0306485
826.877 .0306331
827.569 .0306179
828.261 .0306032
828.953 .0305886
829.645 .0305746
830.336 .0305608
831.027 .0305479
831.717 .0305358
832.407 .0305243
833.097 .0305140
833.787 .0305044
834.476 .0304955
835.165 .0304876
835.854 .0304805
836.542 .0304746
837.230 .0304698
837.918 .0304660
838.605 .0304628
839.292 .0304605
839.979 .0304588
840.665 .0304576
841.352 .0304571
842.037 .0304573
842.723 .0304575
843.408 .0304579
844.093 .0304581
844.777 .0304579
845.462 .0304570
846.145 .0304554
846.829 .0304529
847.512 .0304494
848.195 .0304450
848.878 .0304400
849.560 .0304346
850.242 .0304290
850.923 .0304228
851.605 .0304161
852.286 .0304083
852.966 .0303993
853.646 .0303891
854.326 .0303780
855.006 .0303663
855.685 .0303542
856.364 .0303420
857.043 .0303300
857.721 .0303182
858.399 .0303064
859.077 .0302947
859.754 .0302830
860.431 .0302711
861.107 .0302590
861.784 .0302469
862.459 .0302352
863.135 .0302236
863.810 .0302127
864.485 .0302023
865.160 .0301923
865.834 .0301823
866.508 .0301721
867.181 .0301612
867.854 .0301498
868.527 .0301375
869.199 .0301244
869.872 .0301102
870.543 .0300953
871.215 .0300794
871.886 .0300630
872.557 .0300459
873.227 .0300281
873.897 .0300097
874.567 .0299908
875.236 .0299718
875.905 .0299527
876.573 .0299335
877.242 .0299142
877.909 .0298944
878.577 .0298745
879.244 .0298539
879.911 .0298327
880.577 .0298108
881.243 .0297884
881.909 .0297660
882.575 .0297433
883.240 .0297201
883.904 .0296971
884.569 .0296742
885.232 .0296508
885.896 .0296269
886.559 .0296025
887.222 .0295779
887.885 .0295533
888.547 .0295292
889.208 .0295061
889.870 .0294843
890.531 .0294642
891.192 .0294460
891.852 .0294297
892.512 .0294153
893.171 .0294020
893.830 .0293897
894.489 .0293781
895.148 .0293667
895.806 .0293554
896.464 .0293448
897.121 .0293351
897.778 .0293267
898.434 .0293194
899.091 .0293131
899.747 .0293076
900.402 .0293028
901.057 .0292981
901.712 .0292936
902.366 .0292888
903.020 .0292842
903.674 .0292795
904.327 .0292750
904.980 .0292709
905.633 .0292673
906.285 .0292642
906.936 .0292611
907.588 .0292578
908.239 .0292541
908.889 .0292496
909.540 .0292446
910.190 .0292391
910.839 .0292335
911.488 .0292278
912.137 .0292221
912.785 .0292165
913.433 .0292106
914.081 .0292041
914.728 .0291974
915.375 .0291898
916.021 .0291816
916.668 .0291731
917.313 .0291643
917.959 .0291559
918.604 .0291482
919.248 .0291406
919.892 .0291335
920.536 .0291264
921.180 .0291192
921.823 .0291113
922.465 .0291031
923.108 .0290939
923.750 .0290840
924.391 .0290735
925.032 .0290623
925.673 .0290506
926.313 .0290389
926.953 .0290271
927.593 .0290152
928.232 .0290030
928.871 .0289904
929.510 .0289773
930.148 .0289638
930.786 .0289496
931.423 .0289350
932.060 .0289198
932.697 .0289047
933.333 .0288892
933.969 .0288740
934.604 .0288589
935.239 .0288441
935.874 .0288291
936.508 .0288141
937.142 .0287991
937.776 .0287842
938.409 .0287693
939.042 .0287545
939.674 .0287397
940.306 .0287256
940.938 .0287117
941.569 .0286988
942.200 .0286861
942.830 .0286741
943.460 .0286623
944.090 .0286502
944.720 .0286374
945.349 .0286241
945.977 .0286104
946.606 .0285963
947.233 .0285817
947.861 .0285664
948.488 .0285504
949.115 .0285345
949.741 .0285181
950.367 .0285018
950.993 .0284854
951.618 .0284696
952.243 .0284543
952.868 .0284398
953.492 .0284254
954.115 .0284115
954.739 .0283982
955.362 .0283852
955.984 .0283722
956.607 .0283592
957.229 .0283463
957.850 .0283343
958.471 .0283226
959.092 .0283112
959.713 .0282993
960.333 .0282873
960.952 .0282744
961.572 .0282604
962.191 .0282448
962.809 .0282279
963.428 .0282103
964.045 .0281920
964.663 .0281730
965.280 .0281538
965.897 .0281344
966.513 .0281156
967.129 .0280975
967.745 .0280802
968.361 .0280635
968.976 .0280478
969.590 .0280331
970.205 .0280191
970.818 .0280060
971.432 .0279937
972.045 .0279822
972.658 .0279716
973.271 .0279608
973.883 .0279498
974.495 .0279385
975.106 .0279268
975.717 .0279146
976.328 .0279015
976.938 .0278875
977.548 .0278726
978.158 .0278572
978.768 .0278412
979.377 .0278243
979.985 .0278068
980.594 .0277884
981.202 .0277690
981.809 .0277488
982.417 .0277278
983.024 .0277061
983.631 .0276843
984.237 .0276622
984.843 .0276400
985.449 .0276174
986.054 .0275947
986.659 .0275724
987.264 .0275497
987.868 .0275271
988.472 .0275042
989.076 .0274816
989.679 .0274600
990.282 .0274393
990.885 .0274200
991.487 .0274019
992.090 .0273854
992.691 .0273699
993.293 .0273553
993.894 .0273418
994.495 .0273289
995.095 .0273168
995.696 .0273056
996.296 .0272951
996.895 .0272856
997.494 .0272780
998.093 .0272722
998.692 .0272676
999.291 .0272646
999.889 .0272621
1000.487 .0272598
1001.084 .0272580
1001.681 .0272557
1002.278 .0272529
1002.875 .0272501
1003.471 .0272477
1004.067 .0272455
1004.663 .0272447
1005.258 .0272455
1005.854 .0272478
1006.449 .0272521
1007.043 .0272577
1007.638 .0272635
1008.232 .0272695
1008.826 .0272760
1009.419 .0272821
1010.012 .0272879
1010.605 .0272939
1011.198 .0272994
1011.791 .0273049
1012.383 .0273099
1012.975 .0273144
1013.566 .0273183
1014.158 .0273222
1014.749 .0273251
1015.340 .0273269
1015.931 .0273288
1016.521 .0273300
1017.111 .0273312
1017.701 .0273327
1018.291 .0273345
1018.880 .0273359
1019.470 .0273371
1020.059 .0273386
1020.647 .0273398
1021.236 .0273417
1021.824 .0273442
1022.412 .0273477
1023.000 .0273530
1023.588 .0273597
1024.175 .0273672
1024.762 .0273760
1025.349 .0273858
1025.936 .0273955
1026.523 .0274044
1027.109 .0274126
1027.695 .0274203
1028.281 .0274270
1028.867 .0274332
1029.452 .0274400
1030.038 .0274472
1030.623 .0274552
1031.208 .0274638
1031.792 .0274733
1032.377 .0274828
1032.961 .0274912
1033.546 .0274984
1034.130 .0275037
1034.714 .0275074
1035.297 .0275093
1035.881 .0275092
1036.464 .0275091
1037.047 .0275090
1037.630 .0275081
1038.213 .0275074
1038.796 .0275074
1039.378 .0275065
1039.961 .0275042
1040.543 .0275002
1041.125 .0274945
1041.707 .0274873
1042.289 .0274795
1042.871 .0274716
1043.452 .0274652
1044.034 .0274614
1044.615 .0274601
1045.196 .0274618
1045.777 .0274672
1046.358 .0274754
1046.939 .0274845
1047.520 .0274952
1048.101 .0275065
1048.681 .0275168
1049.262 .0275267
1049.842 .0275358
1050.422 .0275443
1051.002 .0275516
1051.582 .0275569
1052.162 .0275609
1052.742 .0275632
1053.322 .0275639
1053.902 .0275625
1054.482 .0275595
1055.061 .0275563
1055.641 .0275523
1056.220 .0275473
1056.800 .0275417
1057.379 .0275361
1057.958 .0275303
1058.538 .0275231
1059.117 .0275158
1059.696 .0275083
1060.275 .0275003
1060.854 .0274929
1061.433 .0274874
1062.012 .0274839
1062.592 .0274823
1063.171 .0274823
1063.750 .0274830
1064.329 .0274830
1064.908 .0274805
1065.487 .0274744
1066.066 .0274649
1066.645 .0274527
1067.224 .0274382
1067.803 .0274227
1068.382 .0274090
1068.961 .0273975
1069.540 .0273882
1070.119 .0273811
1070.698 .0273755
1071.278 .0273692
1071.857 .0273617
1072.436 .0273536
1073.016 .0273450
1073.595 .0273365
1074.175 .0273291
1074.754 .0273229
1075.334 .0273178
1075.913 .0273146
1076.493 .0273125
1077.073 .0273096
1077.653 .0273062
1078.233 .0273017
1078.813 .0272956
1079.393 .0272884
1079.974 .0272801
1080.554 .0272707
1081.135 .0272614
1081.716 .0272514
1082.296 .0272392
1082.877 .0272247
1083.458 .0272088
1084.040 .0271917
1084.621 .0271730
1085.202 .0271544
1085.784 .0271375
1086.366 .0271225
1086.948 .0271113
1087.530 .0271024
1088.112 .0270955
1088.695 .0270903
1089.277 .0270868
1089.860 .0270850
1090.443 .0270824
1091.026 .0270791
1091.610 .0270752
1092.193 .0270690
1092.777 .0270614
1093.361 .0270490
1093.946 .0270313
1094.530 .0270100
1095.115 .0269855
1095.700 .0269565
1096.285 .0269267
1096.871 .0268977
1097.456 .0268710
1098.042 .0268466
1098.628 .0268240
1099.215 .0268023
1099.802 .0267821
1100.389 .0267649
1100.976 .0267489
1101.564 .0267341
1102.152 .0267240
1102.740 .0267164
1103.329 .0267136
1103.917 .0267167
1104.507 .0267239
1105.096 .0267341
1105.686 .0267462
1106.276 .0267574
1106.867 .0267661
1107.457 .0267720
1108.049 .0267769
1108.640 .0267811
1109.232 .0267854
1109.825 .0267922
1110.417 .0267999
1111.010 .0268119
1111.604 .0268252
1112.198 .0268377
1112.792 .0268493
1113.387 .0268593
1113.982 .0268675
1114.577 .0268759
1115.173 .0268868
1115.769 .0269031
1116.366 .0269253
1116.963 .0269529
1117.561 .0269835
1118.159 .0270141
1118.758 .0270420
1119.357 .0270640
1119.957 .0270777
1120.557 .0270867
1121.157 .0270912
1121.758 .0270976
1122.360 .0271097
1122.962 .0271287
1123.564 .0271575
1124.167 .0271926
1124.771 .0272329
1125.375 .0272701
1125.980 .0273035
1126.585 .0273296
1127.191 .0273505
1127.797 .0273707
1128.404 .0273937
1129.012 .0274267
1129.620 .0274738
1130.229 .0275354
1130.838 .0276071
1131.448 .0276836
1132.058 .0277605
1132.669 .0278324
1133.281 .0278969
1133.894 .0279493
1134.507 .0279938
1135.120 .0280353
1135.735 .0280787
1136.350 .0281242
1136.965 .0281748
1137.582 .0282311
1138.199 .0282878
1138.816 .0283386
1139.435 .0283836
1140.054 .0284276
1140.674 .0284665
1141.294 .0285142
1141.916 .0285529
1142.538 .0284951
1143.160 .0286975
1143.784 .0286619
1144.408 .0290322
1145.033 .0286461
