Measurement Sequence started on: 14-45-04-498
Integration time: 36
Scans to Average: 2 
>>>>>Begin Spectral Data<<<<<
433.946 .0503907
434.870 .0448227
435.793 .0426347
436.715 .0393428
437.635 .0397628
438.555 .0422597
439.473 .0421221
440.389 .0422797
441.305 .0425079
442.219 .0427659
443.132 .0429464
444.044 .0430439
444.954 .0431173
445.863 .0431559
446.771 .0431875
447.678 .0431920
448.584 .0431661
449.488 .0431065
450.391 .0430087
451.293 .0428998
452.194 .0427802
453.094 .0426456
453.992 .0425018
454.890 .0423588
455.786 .0422220
456.681 .0420792
457.575 .0419399
458.468 .0418012
459.360 .0416563
460.250 .0415226
461.140 .0413901
462.028 .0412594
462.915 .0411353
463.801 .0410107
464.687 .0408854
465.571 .0407598
466.454 .0406388
467.335 .0405187
468.216 .0404041
469.096 .0402993
469.975 .0402003
470.853 .0401054
471.729 .0400167
472.605 .0399308
473.479 .0398528
474.353 .0397816
475.226 .0397070
476.097 .0396297
476.968 .0395532
477.838 .0394728
478.706 .0393947
479.574 .0393179
480.441 .0392470
481.306 .0391803
482.171 .0391183
483.035 .0390608
483.898 .0390098
484.760 .0389658
485.621 .0389277
486.481 .0388939
487.340 .0388639
488.198 .0388309
489.055 .0387981
489.912 .0387685
490.767 .0387403
491.622 .0387122
492.476 .0386812
493.329 .0386478
494.180 .0386153
495.032 .0385820
495.882 .0385502
496.731 .0385260
497.580 .0385087
498.427 .0384918
499.274 .0384745
500.120 .0384569
500.965 .0384324
501.809 .0384060
502.653 .0383758
503.495 .0383422
504.337 .0383113
505.178 .0382831
506.018 .0382593
506.858 .0382451
507.696 .0382363
508.534 .0382220
509.371 .0381991
510.208 .0381665
511.043 .0381136
511.878 .0380457
512.712 .0379664
513.545 .0378795
514.377 .0377903
515.209 .0377088
516.040 .0376315
516.870 .0375645
517.699 .0375060
518.528 .0374464
519.356 .0373896
520.183 .0373261
521.010 .0372465
521.836 .0371563
522.661 .0370608
523.485 .0369635
524.309 .0368608
525.132 .0367640
525.954 .0366709
526.776 .0365886
527.597 .0365095
528.417 .0364206
529.237 .0363294
530.056 .0362314
530.874 .0361158
531.692 .0359891
532.508 .0358589
533.325 .0357329
534.140 .0356170
534.955 .0355222
535.770 .0354437
536.583 .0353895
537.397 .0353642
538.209 .0353557
539.021 .0353625
539.832 .0353729
540.643 .0353775
541.453 .0353844
542.262 .0353916
543.071 .0353916
543.879 .0353898
544.687 .0353919
545.494 .0353956
546.300 .0353949
547.106 .0353937
547.911 .0353902
548.716 .0353899
549.520 .0353861
550.323 .0353723
551.126 .0353524
551.929 .0353291
552.731 .0352952
553.532 .0352592
554.332 .0352189
555.133 .0351735
555.932 .0351281
556.731 .0350855
557.530 .0350428
558.328 .0350062
559.125 .0349745
559.922 .0349476
560.719 .0349254
561.515 .0349024
562.310 .0348762
563.105 .0348566
563.899 .0348444
564.693 .0348348
565.487 .0348279
566.280 .0348304
567.072 .0348375
567.864 .0348484
568.655 .0348591
569.446 .0348658
570.236 .0348672
571.026 .0348573
571.816 .0348346
572.605 .0348030
573.393 .0347661
574.181 .0347260
574.969 .0346861
575.756 .0346495
576.543 .0346178
577.329 .0345911
578.115 .0345639
578.900 .0345372
579.685 .0345078
580.469 .0344747
581.253 .0344383
582.036 .0344012
582.820 .0343675
583.602 .0343366
584.384 .0343107
585.166 .0342907
585.947 .0342760
586.728 .0342664
587.509 .0342572
588.289 .0342486
589.069 .0342390
589.848 .0342257
590.627 .0342092
591.405 .0341907
592.183 .0341723
592.961 .0341529
593.738 .0341335
594.515 .0341142
595.291 .0340945
596.067 .0340736
596.843 .0340524
597.618 .0340299
598.393 .0340072
599.167 .0339845
599.941 .0339611
600.715 .0339374
601.488 .0339141
602.261 .0338906
603.034 .0338674
603.806 .0338439
604.578 .0338203
605.349 .0337957
606.121 .0337719
606.891 .0337485
607.662 .0337249
608.432 .0337023
609.201 .0336811
609.971 .0336601
610.740 .0336399
611.508 .0336196
612.277 .0335985
613.045 .0335767
613.812 .0335549
614.579 .0335328
615.346 .0335112
616.113 .0334904
616.879 .0334704
617.645 .0334521
618.411 .0334353
619.176 .0334187
619.941 .0334020
620.705 .0333854
621.470 .0333676
622.233 .0333482
622.997 .0333280
623.760 .0333070
624.523 .0332862
625.286 .0332651
626.048 .0332431
626.810 .0332209
627.572 .0331972
628.333 .0331723
629.095 .0331458
629.855 .0331186
630.616 .0330914
631.376 .0330651
632.136 .0330407
632.895 .0330191
633.655 .0329999
634.414 .0329834
635.172 .0329678
635.931 .0329526
636.689 .0329365
637.447 .0329192
638.204 .0329020
638.962 .0328851
639.718 .0328689
640.475 .0328548
641.231 .0328412
641.988 .0328287
642.743 .0328162
643.499 .0328030
644.254 .0327882
645.009 .0327719
645.764 .0327544
646.518 .0327360
647.272 .0327177
648.026 .0327014
648.780 .0326861
649.533 .0326730
650.286 .0326614
651.039 .0326500
651.792 .0326390
652.544 .0326291
653.296 .0326191
654.048 .0326098
654.799 .0326016
655.550 .0325935
656.301 .0325848
657.052 .0325763
657.802 .0325670
658.552 .0325561
659.302 .0325443
660.052 .0325311
660.801 .0325157
661.550 .0325002
662.299 .0324840
663.048 .0324667
663.796 .0324500
664.544 .0324333
665.292 .0324155
666.040 .0323973
666.787 .0323797
667.534 .0323619
668.281 .0323443
669.028 .0323275
669.774 .0323106
670.521 .0322943
671.266 .0322786
672.012 .0322635
672.758 .0322491
673.503 .0322357
674.248 .0322233
674.992 .0322116
675.737 .0322012
676.481 .0321916
677.225 .0321825
677.969 .0321742
678.712 .0321664
679.455 .0321592
680.199 .0321520
680.941 .0321457
681.684 .0321401
682.426 .0321342
683.168 .0321279
683.910 .0321206
684.652 .0321120
685.393 .0321020
686.134 .0320912
686.875 .0320796
687.616 .0320688
688.356 .0320588
689.097 .0320500
689.837 .0320419
690.576 .0320343
691.316 .0320265
692.055 .0320175
692.794 .0320075
693.533 .0319963
694.272 .0319843
695.010 .0319732
695.748 .0319633
696.486 .0319558
697.224 .0319502
697.962 .0319465
698.699 .0319438
699.436 .0319412
700.173 .0319374
700.909 .0319323
701.646 .0319255
702.382 .0319179
703.118 .0319093
703.853 .0319004
704.589 .0318918
705.324 .0318844
706.059 .0318777
706.794 .0318715
707.529 .0318644
708.263 .0318564
708.997 .0318466
709.731 .0318353
710.465 .0318221
711.198 .0318074
711.931 .0317915
712.664 .0317746
713.397 .0317570
714.130 .0317387
714.862 .0317197
715.594 .0317004
716.326 .0316813
717.058 .0316618
717.789 .0316419
718.520 .0316222
719.251 .0316024
719.982 .0315827
720.713 .0315627
721.443 .0315421
722.173 .0315208
722.903 .0314991
723.633 .0314779
724.362 .0314570
725.091 .0314370
725.820 .0314176
726.549 .0313992
727.278 .0313816
728.006 .0313648
728.734 .0313482
729.462 .0313323
730.190 .0313171
730.917 .0313026
731.644 .0312891
732.371 .0312769
733.098 .0312666
733.825 .0312579
734.551 .0312504
735.277 .0312443
736.003 .0312380
736.728 .0312320
737.454 .0312263
738.179 .0312206
738.904 .0312148
739.629 .0312086
740.353 .0312024
741.077 .0311965
741.801 .0311903
742.525 .0311836
743.249 .0311760
743.972 .0311676
744.695 .0311582
745.418 .0311472
746.141 .0311353
746.863 .0311233
747.585 .0311112
748.307 .0310997
749.029 .0310882
749.750 .0310774
750.472 .0310668
751.193 .0310565
751.913 .0310465
752.634 .0310358
753.354 .0310244
754.074 .0310125
754.794 .0309996
755.514 .0309862
756.233 .0309725
756.952 .0309594
757.671 .0309470
758.390 .0309361
759.108 .0309262
759.826 .0309171
760.544 .0309084
761.262 .0308998
761.979 .0308900
762.697 .0308795
763.414 .0308673
764.130 .0308541
764.847 .0308406
765.563 .0308274
766.279 .0308149
766.995 .0308039
767.710 .0307936
768.426 .0307837
769.141 .0307738
769.855 .0307630
770.570 .0307502
771.284 .0307359
771.998 .0307197
772.712 .0307025
773.426 .0306852
774.139 .0306682
774.852 .0306523
775.565 .0306379
776.277 .0306247
776.990 .0306122
777.702 .0306001
778.414 .0305877
779.125 .0305743
779.836 .0305602
780.547 .0305454
781.258 .0305300
781.969 .0305151
782.679 .0305008
783.389 .0304878
784.099 .0304759
784.808 .0304650
785.517 .0304545
786.226 .0304444
786.935 .0304340
787.643 .0304232
788.352 .0304118
789.060 .0303998
789.767 .0303870
790.475 .0303734
791.182 .0303597
791.889 .0303463
792.595 .0303336
793.301 .0303220
794.008 .0303115
794.713 .0303021
795.419 .0302933
796.124 .0302850
796.829 .0302762
797.534 .0302668
798.238 .0302570
798.942 .0302460
799.646 .0302345
800.350 .0302231
801.053 .0302123
801.756 .0302017
802.459 .0301921
803.162 .0301825
803.864 .0301723
804.566 .0301612
805.267 .0301487
805.969 .0301344
806.670 .0301188
807.371 .0301022
808.071 .0300854
808.772 .0300692
809.472 .0300541
810.171 .0300398
810.871 .0300275
811.570 .0300168
812.269 .0300069
812.967 .0299973
813.666 .0299880
814.364 .0299790
815.061 .0299702
815.759 .0299618
816.456 .0299540
817.153 .0299468
817.849 .0299404
818.545 .0299346
819.241 .0299288
819.937 .0299230
820.632 .0299167
821.327 .0299088
822.022 .0298992
822.717 .0298874
823.411 .0298735
824.105 .0298573
824.798 .0298393
825.491 .0298202
826.184 .0297999
826.877 .0297793
827.569 .0297583
828.261 .0297379
828.953 .0297178
829.645 .0296979
830.336 .0296780
831.027 .0296583
831.717 .0296386
832.407 .0296191
833.097 .0296002
833.787 .0295823
834.476 .0295658
835.165 .0295505
835.854 .0295365
836.542 .0295240
837.230 .0295123
837.918 .0295008
838.605 .0294890
839.292 .0294775
839.979 .0294653
840.665 .0294532
841.352 .0294416
842.037 .0294309
842.723 .0294208
843.408 .0294109
844.093 .0294015
844.777 .0293919
845.462 .0293818
846.145 .0293700
846.829 .0293565
847.512 .0293420
848.195 .0293258
848.878 .0293087
849.560 .0292914
850.242 .0292744
850.923 .0292576
851.605 .0292403
852.286 .0292225
852.966 .0292041
853.646 .0291850
854.326 .0291649
855.006 .0291438
855.685 .0291220
856.364 .0291004
857.043 .0290795
857.721 .0290600
858.399 .0290422
859.077 .0290258
859.754 .0290109
860.431 .0289961
861.107 .0289817
861.784 .0289667
862.459 .0289509
863.135 .0289348
863.810 .0289175
864.485 .0288990
865.160 .0288800
865.834 .0288611
866.508 .0288428
867.181 .0288254
867.854 .0288094
868.527 .0287940
869.199 .0287793
869.872 .0287652
870.543 .0287517
871.215 .0287388
871.886 .0287272
872.557 .0287161
873.227 .0287058
873.897 .0286962
874.567 .0286869
875.236 .0286783
875.905 .0286704
876.573 .0286623
877.242 .0286540
877.909 .0286451
878.577 .0286359
879.244 .0286255
879.911 .0286146
880.577 .0286031
881.243 .0285906
881.909 .0285776
882.575 .0285636
883.240 .0285493
883.904 .0285354
884.569 .0285226
885.232 .0285106
885.896 .0285000
886.559 .0284904
887.222 .0284816
887.885 .0284732
888.547 .0284653
889.208 .0284576
889.870 .0284499
890.531 .0284427
891.192 .0284363
891.852 .0284306
892.512 .0284263
893.171 .0284231
893.830 .0284211
894.489 .0284195
895.148 .0284174
895.806 .0284144
896.464 .0284105
897.121 .0284059
897.778 .0284003
898.434 .0283944
899.091 .0283883
899.747 .0283822
900.402 .0283761
901.057 .0283697
901.712 .0283627
902.366 .0283553
903.020 .0283473
903.674 .0283385
904.327 .0283287
904.980 .0283181
905.633 .0283064
906.285 .0282940
906.936 .0282808
907.588 .0282666
908.239 .0282513
908.889 .0282360
909.540 .0282204
910.190 .0282051
910.839 .0281906
911.488 .0281769
912.137 .0281637
912.785 .0281508
913.433 .0281375
914.081 .0281234
914.728 .0281085
915.375 .0280926
916.021 .0280755
916.668 .0280584
917.313 .0280420
917.959 .0280264
918.604 .0280123
919.248 .0279995
919.892 .0279873
920.536 .0279753
921.180 .0279633
921.823 .0279501
922.465 .0279361
923.108 .0279207
923.750 .0279042
924.391 .0278868
925.032 .0278687
925.673 .0278505
926.313 .0278319
926.953 .0278134
927.593 .0277941
928.232 .0277733
928.871 .0277516
929.510 .0277282
930.148 .0277039
930.786 .0276785
931.423 .0276526
932.060 .0276262
932.697 .0275997
933.333 .0275737
933.969 .0275482
934.604 .0275235
935.239 .0274996
935.874 .0274763
936.508 .0274535
937.142 .0274317
937.776 .0274101
938.409 .0273895
939.042 .0273701
939.674 .0273504
940.306 .0273303
940.938 .0273099
941.569 .0272891
942.200 .0272677
942.830 .0272457
943.460 .0272231
944.090 .0271996
944.720 .0271759
945.349 .0271512
945.977 .0271254
946.606 .0270991
947.233 .0270720
947.861 .0270436
948.488 .0270149
949.115 .0269860
949.741 .0269573
950.367 .0269301
950.993 .0269046
951.618 .0268811
952.243 .0268599
952.868 .0268403
953.492 .0268219
954.115 .0268045
954.739 .0267882
955.362 .0267725
955.984 .0267573
956.607 .0267434
957.229 .0267299
957.850 .0267177
958.471 .0267061
959.092 .0266950
959.713 .0266844
960.333 .0266738
960.952 .0266628
961.572 .0266516
962.191 .0266401
962.809 .0266284
963.428 .0266165
964.045 .0266049
964.663 .0265934
965.280 .0265822
965.897 .0265713
966.513 .0265611
967.129 .0265520
967.745 .0265443
968.361 .0265380
968.976 .0265336
969.590 .0265308
970.205 .0265292
970.818 .0265285
971.432 .0265284
972.045 .0265288
972.658 .0265287
973.271 .0265284
973.883 .0265271
974.495 .0265246
975.106 .0265208
975.717 .0265156
976.328 .0265093
976.938 .0265022
977.548 .0264949
978.158 .0264870
978.768 .0264793
979.377 .0264722
979.985 .0264648
980.594 .0264578
981.202 .0264508
981.809 .0264433
982.417 .0264361
983.024 .0264289
983.631 .0264220
984.237 .0264159
984.843 .0264107
985.449 .0264058
986.054 .0264008
986.659 .0263954
987.264 .0263888
987.868 .0263811
988.472 .0263736
989.076 .0263656
989.679 .0263577
990.282 .0263515
990.885 .0263460
991.487 .0263419
992.090 .0263386
992.691 .0263351
993.293 .0263319
993.894 .0263283
994.495 .0263249
995.095 .0263221
995.696 .0263212
996.296 .0263226
996.895 .0263258
997.494 .0263319
998.093 .0263391
998.692 .0263460
999.291 .0263524
999.889 .0263569
1000.487 .0263588
1001.084 .0263584
1001.681 .0263556
1002.278 .0263514
1002.875 .0263468
1003.471 .0263422
1004.067 .0263379
1004.663 .0263342
1005.258 .0263315
1005.854 .0263282
1006.449 .0263256
1007.043 .0263242
1007.638 .0263235
1008.232 .0263238
1008.826 .0263258
1009.419 .0263289
1010.012 .0263332
1010.605 .0263382
1011.198 .0263433
1011.791 .0263482
1012.383 .0263524
1012.975 .0263552
1013.566 .0263563
1014.158 .0263567
1014.749 .0263569
1015.340 .0263573
1015.931 .0263590
1016.521 .0263611
1017.111 .0263637
1017.701 .0263665
1018.291 .0263690
1018.880 .0263712
1019.470 .0263716
1020.059 .0263718
1020.647 .0263719
1021.236 .0263724
1021.824 .0263741
1022.412 .0263777
1023.000 .0263830
1023.588 .0263894
1024.175 .0263957
1024.762 .0264002
1025.349 .0264020
1025.936 .0264012
1026.523 .0263970
1027.109 .0263902
1027.695 .0263818
1028.281 .0263728
1028.867 .0263638
1029.452 .0263568
1030.038 .0263504
1030.623 .0263438
1031.208 .0263375
1031.792 .0263305
1032.377 .0263231
1032.961 .0263147
1033.546 .0263070
1034.130 .0262998
1034.714 .0262943
1035.297 .0262907
1035.881 .0262881
1036.464 .0262874
1037.047 .0262878
1037.630 .0262881
1038.213 .0262884
1038.796 .0262880
1039.378 .0262873
1039.961 .0262858
1040.543 .0262843
1041.125 .0262818
1041.707 .0262782
1042.289 .0262722
1042.871 .0262649
1043.452 .0262561
1044.034 .0262469
1044.615 .0262370
1045.196 .0262269
1045.777 .0262172
1046.358 .0262078
1046.939 .0261981
1047.520 .0261879
1048.101 .0261773
1048.681 .0261664
1049.262 .0261542
1049.842 .0261422
1050.422 .0261307
1051.002 .0261208
1051.582 .0261129
1052.162 .0261070
1052.742 .0261024
1053.322 .0260981
1053.902 .0260931
1054.482 .0260867
1055.061 .0260786
1055.641 .0260684
1056.220 .0260561
1056.800 .0260424
1057.379 .0260278
1057.958 .0260119
1058.538 .0259948
1059.117 .0259773
1059.696 .0259591
1060.275 .0259406
1060.854 .0259220
1061.433 .0259046
1062.012 .0258890
1062.592 .0258765
1063.171 .0258674
1063.750 .0258629
1064.329 .0258624
1064.908 .0258655
1065.487 .0258722
1066.066 .0258819
1066.645 .0258930
1067.224 .0259061
1067.803 .0259192
1068.382 .0259324
1068.961 .0259443
1069.540 .0259538
1070.119 .0259596
1070.698 .0259626
1071.278 .0259618
1071.857 .0259569
1072.436 .0259491
1073.016 .0259390
1073.595 .0259258
1074.175 .0259117
1074.754 .0258966
1075.334 .0258805
1075.913 .0258636
1076.493 .0258477
1077.073 .0258318
1077.653 .0258179
1078.233 .0258076
1078.813 .0258015
1079.393 .0257997
1079.974 .0258012
1080.554 .0258056
1081.135 .0258119
1081.716 .0258202
1082.296 .0258299
1082.877 .0258393
1083.458 .0258500
1084.040 .0258611
1084.621 .0258718
1085.202 .0258818
1085.784 .0258912
1086.366 .0258989
1086.948 .0259025
1087.530 .0259028
1088.112 .0258988
1088.695 .0258919
1089.277 .0258847
1089.860 .0258788
1090.443 .0258743
1091.026 .0258726
1091.610 .0258734
1092.193 .0258772
1092.777 .0258845
1093.361 .0258935
1093.946 .0259045
1094.530 .0259180
1095.115 .0259331
1095.700 .0259493
1096.285 .0259660
1096.871 .0259852
1097.456 .0260051
1098.042 .0260238
1098.628 .0260395
1099.215 .0260520
1099.802 .0260630
1100.389 .0260706
1100.976 .0260751
1101.564 .0260784
1102.152 .0260774
1102.740 .0260712
1103.329 .0260597
1103.917 .0260425
1104.507 .0260207
1105.096 .0259944
1105.686 .0259679
1106.276 .0259433
1106.867 .0259230
1107.457 .0259089
1108.049 .0259012
1108.640 .0259011
1109.232 .0259046
1109.825 .0259084
1110.417 .0259123
1111.010 .0259155
1111.604 .0259173
1112.198 .0259192
1112.792 .0259252
1113.387 .0259373
1113.982 .0259553
1114.577 .0259779
1115.173 .0260061
1115.769 .0260347
1116.366 .0260611
1116.963 .0260834
1117.561 .0261030
1118.159 .0261207
1118.758 .0261371
1119.357 .0261534
1119.957 .0261729
1120.557 .0261978
1121.157 .0262262
1121.758 .0262529
1122.360 .0262802
1122.962 .0263052
1123.564 .0263273
1124.167 .0263468
1124.771 .0263686
1125.375 .0263914
1125.980 .0264178
1126.585 .0264466
1127.191 .0264760
1127.797 .0265054
1128.404 .0265394
1129.012 .0265765
1129.620 .0266191
1130.229 .0266683
1130.838 .0267211
1131.448 .0267776
1132.058 .0268433
1132.669 .0269083
1133.281 .0269674
1133.894 .0270196
1134.507 .0270654
1135.120 .0270977
1135.735 .0271235
1136.350 .0271426
1136.965 .0271601
1137.582 .0271813
1138.199 .0271939
1138.816 .0271952
1139.435 .0271925
1140.054 .0271805
1140.674 .0271734
1141.294 .0271616
1141.916 .0271485
1142.538 .0270078
1143.160 .0269634
1143.784 .0274171
1144.408 .0272856
1145.033 .0270506
