Measurement Sequence started on: 14-45-04-498
Integration time: 36
Scans to Average: 2 
>>>>>Begin Spectral Data<<<<<
433.946 .0511322
434.870 .0472536
435.793 .0447426
436.715 .0416963
437.635 .0406890
438.555 .0409163
439.473 .0398257
440.389 .0390079
441.305 .0383999
442.219 .0379869
443.132 .0377033
444.044 .0375127
444.954 .0374213
445.863 .0373978
446.771 .0374097
447.678 .0374353
448.584 .0374615
449.488 .0374705
450.391 .0374802
451.293 .0374920
452.194 .0375132
453.094 .0375431
453.992 .0375837
454.890 .0376118
455.786 .0376224
456.681 .0376018
457.575 .0375549
458.468 .0374869
459.360 .0373985
460.250 .0373109
461.140 .0372196
462.028 .0371314
462.915 .0370535
463.801 .0369847
464.687 .0369214
465.571 .0368586
466.454 .0367947
467.335 .0367284
468.216 .0366592
469.096 .0365973
469.975 .0365430
470.853 .0364938
471.729 .0364510
472.605 .0364066
473.479 .0363558
474.353 .0363002
475.226 .0362360
476.097 .0361682
476.968 .0361000
477.838 .0360321
478.706 .0359667
479.574 .0359073
480.441 .0358541
481.306 .0357994
482.171 .0357410
483.035 .0356775
483.898 .0356037
484.760 .0355218
485.621 .0354377
486.481 .0353562
487.340 .0352812
488.198 .0352199
489.055 .0351720
489.912 .0351364
490.767 .0351138
491.622 .0350994
492.476 .0350889
493.329 .0350779
494.180 .0350675
495.032 .0350565
495.882 .0350469
496.731 .0350385
497.580 .0350331
498.427 .0350309
499.274 .0350318
500.120 .0350369
500.965 .0350443
501.809 .0350535
502.653 .0350596
503.495 .0350573
504.337 .0350486
505.178 .0350298
506.018 .0350011
506.858 .0349591
507.696 .0349137
508.534 .0348597
509.371 .0347973
510.208 .0347330
511.043 .0346692
511.878 .0346075
512.712 .0345481
513.545 .0344886
514.377 .0344296
515.209 .0343686
516.040 .0343058
516.870 .0342362
517.699 .0341650
518.528 .0340868
519.356 .0340061
520.183 .0339202
521.010 .0338368
521.836 .0337562
522.661 .0336811
523.485 .0336138
524.309 .0335506
525.132 .0334916
525.954 .0334324
526.776 .0333743
527.597 .0333225
528.417 .0332620
529.237 .0331994
530.056 .0331299
530.874 .0330569
531.692 .0329864
532.508 .0329223
533.325 .0328605
534.140 .0328019
534.955 .0327503
535.770 .0326948
536.583 .0326409
537.397 .0325959
538.209 .0325573
539.021 .0325275
539.832 .0325129
540.643 .0325109
541.453 .0325167
542.262 .0325398
543.071 .0325596
543.879 .0325708
544.687 .0325741
545.494 .0325570
546.300 .0325266
547.106 .0324892
547.911 .0324475
548.716 .0324059
549.520 .0323681
550.323 .0323341
551.126 .0323009
551.929 .0322742
552.731 .0322468
553.532 .0322168
554.332 .0321877
555.133 .0321588
555.932 .0321309
556.731 .0321126
557.530 .0321056
558.328 .0321123
559.125 .0321366
559.922 .0321678
560.719 .0321995
561.515 .0322320
562.310 .0322587
563.105 .0322754
563.899 .0322816
564.693 .0322772
565.487 .0322629
566.280 .0322424
567.072 .0322195
567.864 .0321927
568.655 .0321641
569.446 .0321332
570.236 .0320962
571.026 .0320552
571.816 .0320122
572.605 .0319688
573.393 .0319267
574.181 .0318899
574.969 .0318584
575.756 .0318302
576.543 .0318051
577.329 .0317831
578.115 .0317607
578.900 .0317351
579.685 .0317067
580.469 .0316743
581.253 .0316402
582.036 .0316054
582.820 .0315691
583.602 .0315332
584.384 .0314987
585.166 .0314642
585.947 .0314295
586.728 .0313944
587.509 .0313583
588.289 .0313213
589.069 .0312860
589.848 .0312516
590.627 .0312189
591.405 .0311880
592.183 .0311607
592.961 .0311357
593.738 .0311138
594.515 .0310942
595.291 .0310770
596.067 .0310614
596.843 .0310463
597.618 .0310304
598.393 .0310128
599.167 .0309919
599.941 .0309690
600.715 .0309429
601.488 .0309152
602.261 .0308856
603.034 .0308558
603.806 .0308254
604.578 .0307957
605.349 .0307668
606.121 .0307400
606.891 .0307154
607.662 .0306924
608.432 .0306713
609.201 .0306522
609.971 .0306341
610.740 .0306173
611.508 .0306006
612.277 .0305849
613.045 .0305690
613.812 .0305537
614.579 .0305387
615.346 .0305247
616.113 .0305123
616.879 .0305019
617.645 .0304934
618.411 .0304875
619.176 .0304824
619.941 .0304781
620.705 .0304742
621.470 .0304694
622.233 .0304630
622.997 .0304551
623.760 .0304458
624.523 .0304356
625.286 .0304238
626.048 .0304115
626.810 .0303983
627.572 .0303845
628.333 .0303704
629.095 .0303550
629.855 .0303384
630.616 .0303202
631.376 .0302996
632.136 .0302767
632.895 .0302523
633.655 .0302265
634.414 .0302004
635.172 .0301738
635.931 .0301489
636.689 .0301251
637.447 .0301032
638.204 .0300837
638.962 .0300665
639.718 .0300511
640.475 .0300365
641.231 .0300212
641.988 .0300049
642.743 .0299878
643.499 .0299696
644.254 .0299495
645.009 .0299288
645.764 .0299067
646.518 .0298842
647.272 .0298612
648.026 .0298393
648.780 .0298173
649.533 .0297958
650.286 .0297749
651.039 .0297543
651.792 .0297340
652.544 .0297149
653.296 .0296968
654.048 .0296809
654.799 .0296671
655.550 .0296546
656.301 .0296434
657.052 .0296346
657.802 .0296267
658.552 .0296191
659.302 .0296112
660.052 .0296031
660.801 .0295943
661.550 .0295851
662.299 .0295757
663.048 .0295664
663.796 .0295579
664.544 .0295499
665.292 .0295420
666.040 .0295347
666.787 .0295269
667.534 .0295185
668.281 .0295097
669.028 .0295001
669.774 .0294894
670.521 .0294780
671.266 .0294667
672.012 .0294561
672.758 .0294462
673.503 .0294368
674.248 .0294280
674.992 .0294201
675.737 .0294123
676.481 .0294039
677.225 .0293955
677.969 .0293869
678.712 .0293779
679.455 .0293685
680.199 .0293592
680.941 .0293495
681.684 .0293397
682.426 .0293293
683.168 .0293184
683.910 .0293070
684.652 .0292946
685.393 .0292813
686.134 .0292682
686.875 .0292550
687.616 .0292415
688.356 .0292285
689.097 .0292160
689.837 .0292027
690.576 .0291886
691.316 .0291731
692.055 .0291572
692.794 .0291406
693.533 .0291237
694.272 .0291073
695.010 .0290925
695.748 .0290800
696.486 .0290689
697.224 .0290596
697.962 .0290514
698.699 .0290434
699.436 .0290353
700.173 .0290264
700.909 .0290167
701.646 .0290065
702.382 .0289959
703.118 .0289850
703.853 .0289742
704.589 .0289633
705.324 .0289521
706.059 .0289413
706.794 .0289297
707.529 .0289172
708.263 .0289034
708.997 .0288889
709.731 .0288728
710.465 .0288561
711.198 .0288380
711.931 .0288192
712.664 .0288000
713.397 .0287808
714.130 .0287613
714.862 .0287428
715.594 .0287256
716.326 .0287098
717.058 .0286954
717.789 .0286829
718.520 .0286716
719.251 .0286622
719.982 .0286532
720.713 .0286453
721.443 .0286373
722.173 .0286298
722.903 .0286215
723.633 .0286139
724.362 .0286061
725.091 .0285991
725.820 .0285924
726.549 .0285864
727.278 .0285806
728.006 .0285752
728.734 .0285691
729.462 .0285627
730.190 .0285555
730.917 .0285474
731.644 .0285377
732.371 .0285281
733.098 .0285176
733.825 .0285071
734.551 .0284973
735.277 .0284884
736.003 .0284804
736.728 .0284732
737.454 .0284667
738.179 .0284604
738.904 .0284543
739.629 .0284480
740.353 .0284413
741.077 .0284355
741.801 .0284303
742.525 .0284252
743.249 .0284208
743.972 .0284171
744.695 .0284136
745.418 .0284092
746.141 .0284039
746.863 .0283963
747.585 .0283868
748.307 .0283749
749.029 .0283610
749.750 .0283449
750.472 .0283276
751.193 .0283095
751.913 .0282908
752.634 .0282717
753.354 .0282523
754.074 .0282330
754.794 .0282134
755.514 .0281933
756.233 .0281726
756.952 .0281514
757.671 .0281311
758.390 .0281116
759.108 .0280936
759.826 .0280778
760.544 .0280642
761.262 .0280528
761.979 .0280434
762.697 .0280354
763.414 .0280280
764.130 .0280211
764.847 .0280140
765.563 .0280065
766.279 .0279986
766.995 .0279903
767.710 .0279821
768.426 .0279745
769.141 .0279667
769.855 .0279590
770.570 .0279519
771.284 .0279446
771.998 .0279366
772.712 .0279289
773.426 .0279211
774.139 .0279135
774.852 .0279063
775.565 .0278999
776.277 .0278938
776.990 .0278885
777.702 .0278826
778.414 .0278758
779.125 .0278690
779.836 .0278613
780.547 .0278524
781.258 .0278436
781.969 .0278350
782.679 .0278269
783.389 .0278195
784.099 .0278138
784.808 .0278087
785.517 .0278051
786.226 .0278019
786.935 .0277990
787.643 .0277969
788.352 .0277954
789.060 .0277935
789.767 .0277924
790.475 .0277917
791.182 .0277908
791.889 .0277901
792.595 .0277898
793.301 .0277893
794.008 .0277886
794.713 .0277871
795.419 .0277848
796.124 .0277809
796.829 .0277758
797.534 .0277685
798.238 .0277596
798.942 .0277499
799.646 .0277386
800.350 .0277268
801.053 .0277153
801.756 .0277039
802.459 .0276932
803.162 .0276838
803.864 .0276754
804.566 .0276672
805.267 .0276593
805.969 .0276509
806.670 .0276419
807.371 .0276328
808.071 .0276234
808.772 .0276145
809.472 .0276062
810.171 .0275981
810.871 .0275898
811.570 .0275820
812.269 .0275739
812.967 .0275644
813.666 .0275535
814.364 .0275407
815.061 .0275259
815.759 .0275098
816.456 .0274927
817.153 .0274752
817.849 .0274573
818.545 .0274397
819.241 .0274217
819.937 .0274039
820.632 .0273854
821.327 .0273659
822.022 .0273455
822.717 .0273243
823.411 .0273021
824.105 .0272793
824.798 .0272568
825.491 .0272353
826.184 .0272148
826.877 .0271959
827.569 .0271780
828.261 .0271619
828.953 .0271472
829.645 .0271338
830.336 .0271213
831.027 .0271102
831.717 .0270996
832.407 .0270895
833.097 .0270798
833.787 .0270702
834.476 .0270607
835.165 .0270514
835.854 .0270423
836.542 .0270341
837.230 .0270261
837.918 .0270187
838.605 .0270116
839.292 .0270053
839.979 .0269986
840.665 .0269909
841.352 .0269822
842.037 .0269727
842.723 .0269619
843.408 .0269504
844.093 .0269381
844.777 .0269265
845.462 .0269154
846.145 .0269049
846.829 .0268952
847.512 .0268861
848.195 .0268773
848.878 .0268686
849.560 .0268596
850.242 .0268505
850.923 .0268409
851.605 .0268319
852.286 .0268238
852.966 .0268169
853.646 .0268113
854.326 .0268074
855.006 .0268050
855.685 .0268039
856.364 .0268030
857.043 .0268027
857.721 .0268020
858.399 .0268005
859.077 .0267982
859.754 .0267944
860.431 .0267898
861.107 .0267846
861.784 .0267791
862.459 .0267741
863.135 .0267691
863.810 .0267641
864.485 .0267589
865.160 .0267538
865.834 .0267485
866.508 .0267423
867.181 .0267359
867.854 .0267290
868.527 .0267220
869.199 .0267150
869.872 .0267082
870.543 .0267022
871.215 .0266978
871.886 .0266942
872.557 .0266908
873.227 .0266874
873.897 .0266837
874.567 .0266794
875.236 .0266742
875.905 .0266684
876.573 .0266621
877.242 .0266553
877.909 .0266487
878.577 .0266425
879.244 .0266369
879.911 .0266311
880.577 .0266252
881.243 .0266181
881.909 .0266096
882.575 .0265992
883.240 .0265876
883.904 .0265754
884.569 .0265630
885.232 .0265496
885.896 .0265362
886.559 .0265231
887.222 .0265096
887.885 .0264950
888.547 .0264798
889.208 .0264636
889.870 .0264467
890.531 .0264290
891.192 .0264119
891.852 .0263958
892.512 .0263818
893.171 .0263691
893.830 .0263577
894.489 .0263473
895.148 .0263374
895.806 .0263263
896.464 .0263148
897.121 .0263027
897.778 .0262898
898.434 .0262767
899.091 .0262643
899.747 .0262521
900.402 .0262405
901.057 .0262290
901.712 .0262176
902.366 .0262055
903.020 .0261933
903.674 .0261801
904.327 .0261668
904.980 .0261538
905.633 .0261412
906.285 .0261286
906.936 .0261169
907.588 .0261056
908.239 .0260939
908.889 .0260819
909.540 .0260697
910.190 .0260569
910.839 .0260439
911.488 .0260307
912.137 .0260172
912.785 .0260029
913.433 .0259880
914.081 .0259715
914.728 .0259538
915.375 .0259346
916.021 .0259145
916.668 .0258933
917.313 .0258723
917.959 .0258519
918.604 .0258323
919.248 .0258137
919.892 .0257962
920.536 .0257786
921.180 .0257611
921.823 .0257435
922.465 .0257252
923.108 .0257068
923.750 .0256892
924.391 .0256723
925.032 .0256574
925.673 .0256443
926.313 .0256328
926.953 .0256225
927.593 .0256127
928.232 .0256021
928.871 .0255903
929.510 .0255776
930.148 .0255640
930.786 .0255498
931.423 .0255366
932.060 .0255250
932.697 .0255155
933.333 .0255081
933.969 .0255024
934.604 .0254976
935.239 .0254930
935.874 .0254873
936.508 .0254801
937.142 .0254716
937.776 .0254622
938.409 .0254522
939.042 .0254426
939.674 .0254341
940.306 .0254266
940.938 .0254203
941.569 .0254152
942.200 .0254108
942.830 .0254066
943.460 .0254019
944.090 .0253968
944.720 .0253903
945.349 .0253832
945.977 .0253752
946.606 .0253666
947.233 .0253582
947.861 .0253498
948.488 .0253409
949.115 .0253329
949.741 .0253253
950.367 .0253181
950.993 .0253107
951.618 .0253033
952.243 .0252950
952.868 .0252856
953.492 .0252750
954.115 .0252631
954.739 .0252507
955.362 .0252390
955.984 .0252271
956.607 .0252166
957.229 .0252081
957.850 .0252010
958.471 .0251955
959.092 .0251914
959.713 .0251876
960.333 .0251837
960.952 .0251796
961.572 .0251752
962.191 .0251701
962.809 .0251651
963.428 .0251604
964.045 .0251558
964.663 .0251519
965.280 .0251479
965.897 .0251433
966.513 .0251388
967.129 .0251342
967.745 .0251286
968.361 .0251224
968.976 .0251158
969.590 .0251090
970.205 .0251014
970.818 .0250941
971.432 .0250862
972.045 .0250786
972.658 .0250715
973.271 .0250642
973.883 .0250563
974.495 .0250485
975.106 .0250402
975.717 .0250317
976.328 .0250231
976.938 .0250143
977.548 .0250047
978.158 .0249955
978.768 .0249859
979.377 .0249755
979.985 .0249642
980.594 .0249528
981.202 .0249407
981.809 .0249284
982.417 .0249167
983.024 .0249056
983.631 .0248958
984.237 .0248872
984.843 .0248788
985.449 .0248694
986.054 .0248584
986.659 .0248462
987.264 .0248322
987.868 .0248178
988.472 .0248038
989.076 .0247910
989.679 .0247810
990.282 .0247739
990.885 .0247688
991.487 .0247649
992.090 .0247620
992.691 .0247579
993.293 .0247512
993.894 .0247420
994.495 .0247308
995.095 .0247182
995.696 .0247056
996.296 .0246936
996.895 .0246823
997.494 .0246724
998.093 .0246626
998.692 .0246519
999.291 .0246405
999.889 .0246270
1000.487 .0246107
1001.084 .0245923
1001.681 .0245720
1002.278 .0245505
1002.875 .0245293
1003.471 .0245103
1004.067 .0244936
1004.663 .0244795
1005.258 .0244687
1005.854 .0244608
1006.449 .0244559
1007.043 .0244531
1007.638 .0244514
1008.232 .0244506
1008.826 .0244494
1009.419 .0244470
1010.012 .0244437
1010.605 .0244400
1011.198 .0244356
1011.791 .0244309
1012.383 .0244261
1012.975 .0244212
1013.566 .0244162
1014.158 .0244107
1014.749 .0244050
1015.340 .0243984
1015.931 .0243906
1016.521 .0243807
1017.111 .0243697
1017.701 .0243582
1018.291 .0243466
1018.880 .0243352
1019.470 .0243247
1020.059 .0243149
1020.647 .0243059
1021.236 .0242980
1021.824 .0242918
1022.412 .0242865
1023.000 .0242821
1023.588 .0242779
1024.175 .0242749
1024.762 .0242721
1025.349 .0242698
1025.936 .0242680
1026.523 .0242671
1027.109 .0242668
1027.695 .0242665
1028.281 .0242667
1028.867 .0242680
1029.452 .0242703
1030.038 .0242736
1030.623 .0242770
1031.208 .0242813
1031.792 .0242859
1032.377 .0242911
1032.961 .0242969
1033.546 .0243035
1034.130 .0243099
1034.714 .0243165
1035.297 .0243228
1035.881 .0243293
1036.464 .0243368
1037.047 .0243455
1037.630 .0243557
1038.213 .0243671
1038.796 .0243793
1039.378 .0243918
1039.961 .0244041
1040.543 .0244158
1041.125 .0244251
1041.707 .0244323
1042.289 .0244369
1042.871 .0244391
1043.452 .0244402
1044.034 .0244406
1044.615 .0244412
1045.196 .0244432
1045.777 .0244457
1046.358 .0244482
1046.939 .0244510
1047.520 .0244538
1048.101 .0244562
1048.681 .0244580
1049.262 .0244603
1049.842 .0244636
1050.422 .0244699
1051.002 .0244802
1051.582 .0244925
1052.162 .0245085
1052.742 .0245267
1053.322 .0245440
1053.902 .0245600
1054.482 .0245728
1055.061 .0245821
1055.641 .0245882
1056.220 .0245922
1056.800 .0245937
1057.379 .0245941
1057.958 .0245944
1058.538 .0245943
1059.117 .0245936
1059.696 .0245933
1060.275 .0245922
1060.854 .0245906
1061.433 .0245902
1062.012 .0245902
1062.592 .0245919
1063.171 .0245974
1063.750 .0246062
1064.329 .0246189
1064.908 .0246336
1065.487 .0246500
1066.066 .0246663
1066.645 .0246822
1067.224 .0246972
1067.803 .0247092
1068.382 .0247202
1068.961 .0247295
1069.540 .0247364
1070.119 .0247412
1070.698 .0247435
1071.278 .0247428
1071.857 .0247396
1072.436 .0247334
1073.016 .0247245
1073.595 .0247139
1074.175 .0247034
1074.754 .0246928
1075.334 .0246831
1075.913 .0246736
1076.493 .0246646
1077.073 .0246547
1077.653 .0246452
1078.233 .0246355
1078.813 .0246265
1079.393 .0246195
1079.974 .0246149
1080.554 .0246131
1081.135 .0246147
1081.716 .0246189
1082.296 .0246255
1082.877 .0246322
1083.458 .0246384
1084.040 .0246411
1084.621 .0246408
1085.202 .0246369
1085.784 .0246301
1086.366 .0246217
1086.948 .0246120
1087.530 .0246031
1088.112 .0245954
1088.695 .0245883
1089.277 .0245814
1089.860 .0245733
1090.443 .0245639
1091.026 .0245519
1091.610 .0245390
1092.193 .0245244
1092.777 .0245112
1093.361 .0245015
1093.946 .0244960
1094.530 .0244938
1095.115 .0244951
1095.700 .0244972
1096.285 .0244992
1096.871 .0245009
1097.456 .0245009
1098.042 .0244980
1098.628 .0244950
1099.215 .0244916
1099.802 .0244881
1100.389 .0244838
1100.976 .0244821
1101.564 .0244792
1102.152 .0244752
1102.740 .0244675
1103.329 .0244552
1103.917 .0244389
1104.507 .0244204
1105.096 .0243993
1105.686 .0243766
1106.276 .0243538
1106.867 .0243323
1107.457 .0243112
1108.049 .0242928
1108.640 .0242777
1109.232 .0242641
1109.825 .0242540
1110.417 .0242477
1111.010 .0242430
1111.604 .0242412
1112.198 .0242432
1112.792 .0242496
1113.387 .0242575
1113.982 .0242669
1114.577 .0242773
1115.173 .0242908
1115.769 .0243096
1116.366 .0243307
1116.963 .0243547
1117.561 .0243822
1118.159 .0244140
1118.758 .0244459
1119.357 .0244771
1119.957 .0245095
1120.557 .0245395
1121.157 .0245663
1121.758 .0245861
1122.360 .0246021
1122.962 .0246142
1123.564 .0246237
1124.167 .0246290
1124.771 .0246327
1125.375 .0246335
1125.980 .0246350
1126.585 .0246352
1127.191 .0246368
1127.797 .0246394
1128.404 .0246423
1129.012 .0246458
1129.620 .0246530
1130.229 .0246596
1130.838 .0246702
1131.448 .0246778
1132.058 .0246921
1132.669 .0247046
1133.281 .0247220
1133.894 .0247446
1134.507 .0247741
1135.120 .0248128
1135.735 .0248598
1136.350 .0249122
1136.965 .0249715
1137.582 .0250300
1138.199 .0250887
1138.816 .0251396
1139.435 .0251911
1140.054 .0252415
1140.674 .0252855
1141.294 .0253384
1141.916 .0253875
1142.538 .0254660
1143.160 .0256004
1143.784 .0254339
1144.408 .0257603
1145.033 .0255725
