Measurement Sequence started on: 14-45-04-498
Integration time: 36
Scans to Average: 2 
>>>>>Begin Spectral Data<<<<<
433.946 .0481195
434.870 .0521564
435.793 .0507926
436.715 .0487581
437.635 .0475716
438.555 .0481169
439.473 .0478305
440.389 .0475093
441.305 .0473159
442.219 .0472159
443.132 .0471544
444.044 .0471046
444.954 .0470510
445.863 .0470037
446.771 .0469758
447.678 .0469555
448.584 .0469535
449.488 .0469514
450.391 .0469503
451.293 .0469377
452.194 .0469177
453.094 .0468839
453.992 .0468308
454.890 .0467647
455.786 .0466925
456.681 .0466035
457.575 .0465169
458.468 .0464296
459.360 .0463438
460.250 .0462684
461.140 .0461946
462.028 .0461186
462.915 .0460410
463.801 .0459572
464.687 .0458640
465.571 .0457584
466.454 .0456455
467.335 .0455244
468.216 .0454033
469.096 .0452902
469.975 .0451836
470.853 .0450874
471.729 .0450028
472.605 .0449215
473.479 .0448447
474.353 .0447679
475.226 .0446857
476.097 .0446023
476.968 .0445168
477.838 .0444336
478.706 .0443541
479.574 .0442843
480.441 .0442264
481.306 .0441801
482.171 .0441434
483.035 .0441097
483.898 .0440755
484.760 .0440395
485.621 .0439986
486.481 .0439530
487.340 .0439088
488.198 .0438649
489.055 .0438247
489.912 .0437905
490.767 .0437599
491.622 .0437309
492.476 .0436987
493.329 .0436609
494.180 .0436146
495.032 .0435625
495.882 .0435036
496.731 .0434414
497.580 .0433850
498.427 .0433345
499.274 .0432902
500.120 .0432476
500.965 .0432059
501.809 .0431605
502.653 .0431094
503.495 .0430510
504.337 .0429843
505.178 .0429154
506.018 .0428481
506.858 .0427850
507.696 .0427330
508.534 .0426895
509.371 .0426524
510.208 .0426187
511.043 .0425863
511.878 .0425505
512.712 .0425107
513.545 .0424691
514.377 .0424379
515.209 .0424160
516.040 .0424087
516.870 .0424184
517.699 .0424529
518.528 .0425055
519.356 .0425737
520.183 .0426492
521.010 .0427301
521.836 .0428064
522.661 .0428734
523.485 .0429226
524.309 .0429590
525.132 .0429786
525.954 .0429807
526.776 .0429669
527.597 .0429452
528.417 .0429069
529.237 .0428634
530.056 .0428072
530.874 .0427430
531.692 .0426600
532.508 .0425657
533.325 .0424564
534.140 .0423375
534.955 .0422107
535.770 .0420829
536.583 .0419666
537.397 .0418710
538.209 .0417932
539.021 .0417355
539.832 .0416886
540.643 .0416521
541.453 .0416106
542.262 .0415649
543.071 .0415092
543.879 .0414471
544.687 .0413780
545.494 .0413061
546.300 .0412364
547.106 .0411726
547.911 .0411159
548.716 .0410635
549.520 .0410101
550.323 .0409552
551.126 .0408965
551.929 .0408374
552.731 .0407798
553.532 .0407269
554.332 .0406768
555.133 .0406321
555.932 .0405912
556.731 .0405560
557.530 .0405278
558.328 .0405028
559.125 .0404809
559.922 .0404623
560.719 .0404428
561.515 .0404234
562.310 .0404035
563.105 .0403854
563.899 .0403648
564.693 .0403425
565.487 .0403127
566.280 .0402739
567.072 .0402328
567.864 .0401880
568.655 .0401399
569.446 .0400939
570.236 .0400445
571.026 .0399953
571.816 .0399450
572.605 .0398958
573.393 .0398437
574.181 .0397916
574.969 .0397377
575.756 .0396824
576.543 .0396290
577.329 .0395808
578.115 .0395361
578.900 .0394996
579.685 .0394697
580.469 .0394428
581.253 .0394179
582.036 .0393939
582.820 .0393667
583.602 .0393380
584.384 .0393045
585.166 .0392676
585.947 .0392274
586.728 .0391860
587.509 .0391439
588.289 .0391020
589.069 .0390622
589.848 .0390236
590.627 .0389850
591.405 .0389470
592.183 .0389089
592.961 .0388713
593.738 .0388348
594.515 .0387995
595.291 .0387653
596.067 .0387337
596.843 .0387033
597.618 .0386742
598.393 .0386474
599.167 .0386229
599.941 .0385993
600.715 .0385763
601.488 .0385556
602.261 .0385359
603.034 .0385169
603.806 .0385004
604.578 .0384851
605.349 .0384719
606.121 .0384603
606.891 .0384500
607.662 .0384403
608.432 .0384318
609.201 .0384230
609.971 .0384141
610.740 .0384061
611.508 .0383980
612.277 .0383899
613.045 .0383833
613.812 .0383781
614.579 .0383737
615.346 .0383705
616.113 .0383686
616.879 .0383669
617.645 .0383656
618.411 .0383628
619.176 .0383592
619.941 .0383540
620.705 .0383473
621.470 .0383392
622.233 .0383301
622.997 .0383199
623.760 .0383081
624.523 .0382954
625.286 .0382810
626.048 .0382652
626.810 .0382476
627.572 .0382273
628.333 .0382053
629.095 .0381812
629.855 .0381549
630.616 .0381275
631.376 .0381010
632.136 .0380750
632.895 .0380506
633.655 .0380283
634.414 .0380071
635.172 .0379877
635.931 .0379695
636.689 .0379518
637.447 .0379341
638.204 .0379167
638.962 .0378987
639.718 .0378814
640.475 .0378651
641.231 .0378493
641.988 .0378346
642.743 .0378206
643.499 .0378058
644.254 .0377893
645.009 .0377707
645.764 .0377495
646.518 .0377263
647.272 .0377016
648.026 .0376749
648.780 .0376486
649.533 .0376238
650.286 .0376004
651.039 .0375791
651.792 .0375595
652.544 .0375416
653.296 .0375247
654.048 .0375083
654.799 .0374917
655.550 .0374756
656.301 .0374603
657.052 .0374456
657.802 .0374315
658.552 .0374188
659.302 .0374065
660.052 .0373950
660.801 .0373838
661.550 .0373723
662.299 .0373604
663.048 .0373478
663.796 .0373342
664.544 .0373199
665.292 .0373040
666.040 .0372874
666.787 .0372695
667.534 .0372509
668.281 .0372313
669.028 .0372113
669.774 .0371909
670.521 .0371707
671.266 .0371504
672.012 .0371310
672.758 .0371123
673.503 .0370949
674.248 .0370783
674.992 .0370618
675.737 .0370456
676.481 .0370299
677.225 .0370143
677.969 .0369992
678.712 .0369843
679.455 .0369703
680.199 .0369567
680.941 .0369435
681.684 .0369306
682.426 .0369174
683.168 .0369039
683.910 .0368895
684.652 .0368733
685.393 .0368558
686.134 .0368373
686.875 .0368177
687.616 .0367978
688.356 .0367776
689.097 .0367572
689.837 .0367369
690.576 .0367166
691.316 .0366964
692.055 .0366759
692.794 .0366551
693.533 .0366342
694.272 .0366128
695.010 .0365915
695.748 .0365704
696.486 .0365498
697.224 .0365302
697.962 .0365112
698.699 .0364930
699.436 .0364755
700.173 .0364585
700.909 .0364421
701.646 .0364257
702.382 .0364089
703.118 .0363918
703.853 .0363740
704.589 .0363558
705.324 .0363377
706.059 .0363197
706.794 .0363024
707.529 .0362865
708.263 .0362718
708.997 .0362584
709.731 .0362456
710.465 .0362339
711.198 .0362218
711.931 .0362092
712.664 .0361960
713.397 .0361820
714.130 .0361676
714.862 .0361530
715.594 .0361384
716.326 .0361247
717.058 .0361121
717.789 .0361009
718.520 .0360906
719.251 .0360811
719.982 .0360716
720.713 .0360625
721.443 .0360525
722.173 .0360422
722.903 .0360314
723.633 .0360206
724.362 .0360100
725.091 .0359993
725.820 .0359889
726.549 .0359788
727.278 .0359687
728.006 .0359578
728.734 .0359460
729.462 .0359333
730.190 .0359193
730.917 .0359044
731.644 .0358886
732.371 .0358719
733.098 .0358545
733.825 .0358371
734.551 .0358195
735.277 .0358022
736.003 .0357855
736.728 .0357688
737.454 .0357529
738.179 .0357375
738.904 .0357226
739.629 .0357080
740.353 .0356944
741.077 .0356813
741.801 .0356688
742.525 .0356561
743.249 .0356435
743.972 .0356306
744.695 .0356173
745.418 .0356028
746.141 .0355872
746.863 .0355707
747.585 .0355533
748.307 .0355351
749.029 .0355165
749.750 .0354977
750.472 .0354796
751.193 .0354616
751.913 .0354443
752.634 .0354274
753.354 .0354106
754.074 .0353940
754.794 .0353771
755.514 .0353596
756.233 .0353416
756.952 .0353236
757.671 .0353061
758.390 .0352897
759.108 .0352746
759.826 .0352607
760.544 .0352481
761.262 .0352363
761.979 .0352243
762.697 .0352113
763.414 .0351976
764.130 .0351832
764.847 .0351683
765.563 .0351536
766.279 .0351398
766.995 .0351275
767.710 .0351171
768.426 .0351081
769.141 .0351003
769.855 .0350931
770.570 .0350857
771.284 .0350773
771.998 .0350680
772.712 .0350578
773.426 .0350473
774.139 .0350369
774.852 .0350273
775.565 .0350181
776.277 .0350098
776.990 .0350021
777.702 .0349944
778.414 .0349862
779.125 .0349776
779.836 .0349682
780.547 .0349583
781.258 .0349483
781.969 .0349386
782.679 .0349296
783.389 .0349216
784.099 .0349141
784.808 .0349069
785.517 .0349006
786.226 .0348947
786.935 .0348887
787.643 .0348831
788.352 .0348775
789.060 .0348724
789.767 .0348676
790.475 .0348631
791.182 .0348589
791.889 .0348553
792.595 .0348524
793.301 .0348493
794.008 .0348462
794.713 .0348427
795.419 .0348388
796.124 .0348345
796.829 .0348292
797.534 .0348227
798.238 .0348151
798.942 .0348067
799.646 .0347975
800.350 .0347874
801.053 .0347762
801.756 .0347634
802.459 .0347490
803.162 .0347330
803.864 .0347150
804.566 .0346954
805.267 .0346749
805.969 .0346537
806.670 .0346329
807.371 .0346122
808.071 .0345927
808.772 .0345746
809.472 .0345573
810.171 .0345401
810.871 .0345227
811.570 .0345051
812.269 .0344871
812.967 .0344685
813.666 .0344503
814.364 .0344322
815.061 .0344150
815.759 .0343987
816.456 .0343833
817.153 .0343682
817.849 .0343528
818.545 .0343364
819.241 .0343188
819.937 .0342997
820.632 .0342786
821.327 .0342562
822.022 .0342332
822.717 .0342101
823.411 .0341869
824.105 .0341646
824.798 .0341434
825.491 .0341228
826.184 .0341026
826.877 .0340822
827.569 .0340614
828.261 .0340402
828.953 .0340181
829.645 .0339953
830.336 .0339724
831.027 .0339497
831.717 .0339273
832.407 .0339059
833.097 .0338857
833.787 .0338665
834.476 .0338484
835.165 .0338311
835.854 .0338144
836.542 .0337979
837.230 .0337822
837.918 .0337666
838.605 .0337522
839.292 .0337390
839.979 .0337270
840.665 .0337167
841.352 .0337083
842.037 .0337014
842.723 .0336959
843.408 .0336912
844.093 .0336865
844.777 .0336814
845.462 .0336759
846.145 .0336695
846.829 .0336625
847.512 .0336555
848.195 .0336486
848.878 .0336419
849.560 .0336363
850.242 .0336310
850.923 .0336260
851.605 .0336211
852.286 .0336158
852.966 .0336098
853.646 .0336030
854.326 .0335958
855.006 .0335885
855.685 .0335813
856.364 .0335746
857.043 .0335680
857.721 .0335616
858.399 .0335551
859.077 .0335474
859.754 .0335382
860.431 .0335274
861.107 .0335152
861.784 .0335013
862.459 .0334863
863.135 .0334710
863.810 .0334554
864.485 .0334398
865.160 .0334252
865.834 .0334111
866.508 .0333982
867.181 .0333862
867.854 .0333755
868.527 .0333657
869.199 .0333565
869.872 .0333475
870.543 .0333388
871.215 .0333300
871.886 .0333210
872.557 .0333113
873.227 .0333017
873.897 .0332922
874.567 .0332828
875.236 .0332738
875.905 .0332655
876.573 .0332575
877.242 .0332490
877.909 .0332399
878.577 .0332304
879.244 .0332195
879.911 .0332077
880.577 .0331952
881.243 .0331818
881.909 .0331681
882.575 .0331543
883.240 .0331402
883.904 .0331260
884.569 .0331113
885.232 .0330958
885.896 .0330789
886.559 .0330613
887.222 .0330421
887.885 .0330216
888.547 .0330008
889.208 .0329790
889.870 .0329568
890.531 .0329345
891.192 .0329128
891.852 .0328912
892.512 .0328707
893.171 .0328515
893.830 .0328337
894.489 .0328176
895.148 .0328026
895.806 .0327884
896.464 .0327749
897.121 .0327615
897.778 .0327472
898.434 .0327318
899.091 .0327154
899.747 .0326972
900.402 .0326781
901.057 .0326582
901.712 .0326380
902.366 .0326171
903.020 .0325964
903.674 .0325751
904.327 .0325533
904.980 .0325307
905.633 .0325074
906.285 .0324838
906.936 .0324599
907.588 .0324358
908.239 .0324123
908.889 .0323899
909.540 .0323689
910.190 .0323484
910.839 .0323292
911.488 .0323106
912.137 .0322918
912.785 .0322719
913.433 .0322517
914.081 .0322305
914.728 .0322090
915.375 .0321868
916.021 .0321642
916.668 .0321413
917.313 .0321189
917.959 .0320962
918.604 .0320735
919.248 .0320507
919.892 .0320274
920.536 .0320036
921.180 .0319803
921.823 .0319568
922.465 .0319338
923.108 .0319118
923.750 .0318908
924.391 .0318703
925.032 .0318510
925.673 .0318323
926.313 .0318149
926.953 .0317983
927.593 .0317815
928.232 .0317641
928.871 .0317463
929.510 .0317276
930.148 .0317081
930.786 .0316880
931.423 .0316673
932.060 .0316464
932.697 .0316257
933.333 .0316046
933.969 .0315838
934.604 .0315638
935.239 .0315443
935.874 .0315248
936.508 .0315059
937.142 .0314865
937.776 .0314671
938.409 .0314486
939.042 .0314304
939.674 .0314125
940.306 .0313960
940.938 .0313811
941.569 .0313678
942.200 .0313569
942.830 .0313481
943.460 .0313408
944.090 .0313353
944.720 .0313303
945.349 .0313256
945.977 .0313212
946.606 .0313172
947.233 .0313131
947.861 .0313091
948.488 .0313051
949.115 .0313006
949.741 .0312962
950.367 .0312924
950.993 .0312885
951.618 .0312843
952.243 .0312798
952.868 .0312750
953.492 .0312698
954.115 .0312639
954.739 .0312579
955.362 .0312520
955.984 .0312459
956.607 .0312396
957.229 .0312334
957.850 .0312277
958.471 .0312224
959.092 .0312172
959.713 .0312122
960.333 .0312069
960.952 .0312014
961.572 .0311961
962.191 .0311910
962.809 .0311866
963.428 .0311824
964.045 .0311784
964.663 .0311756
965.280 .0311730
965.897 .0311708
966.513 .0311688
967.129 .0311673
967.745 .0311654
968.361 .0311627
968.976 .0311597
969.590 .0311566
970.205 .0311535
970.818 .0311507
971.432 .0311482
972.045 .0311458
972.658 .0311437
973.271 .0311410
973.883 .0311373
974.495 .0311325
975.106 .0311256
975.717 .0311171
976.328 .0311067
976.938 .0310947
977.548 .0310817
978.158 .0310683
978.768 .0310548
979.377 .0310407
979.985 .0310261
980.594 .0310111
981.202 .0309960
981.809 .0309809
982.417 .0309659
983.024 .0309513
983.631 .0309381
984.237 .0309256
984.843 .0309139
985.449 .0309025
986.054 .0308907
986.659 .0308786
987.264 .0308663
987.868 .0308532
988.472 .0308404
989.076 .0308285
989.679 .0308183
990.282 .0308094
990.885 .0308015
991.487 .0307940
992.090 .0307866
992.691 .0307783
993.293 .0307684
993.894 .0307565
994.495 .0307434
995.095 .0307290
995.696 .0307142
996.296 .0306999
996.895 .0306861
997.494 .0306733
998.093 .0306614
998.692 .0306490
999.291 .0306362
999.889 .0306221
1000.487 .0306060
1001.084 .0305882
1001.681 .0305682
1002.278 .0305464
1002.875 .0305233
1003.471 .0305000
1004.067 .0304766
1004.663 .0304539
1005.258 .0304326
1005.854 .0304119
1006.449 .0303916
1007.043 .0303720
1007.638 .0303521
1008.232 .0303321
1008.826 .0303122
1009.419 .0302924
1010.012 .0302733
1010.605 .0302560
1011.198 .0302398
1011.791 .0302254
1012.383 .0302126
1012.975 .0302007
1013.566 .0301886
1014.158 .0301766
1014.749 .0301644
1015.340 .0301516
1015.931 .0301386
1016.521 .0301256
1017.111 .0301130
1017.701 .0301007
1018.291 .0300890
1018.880 .0300779
1019.470 .0300668
1020.059 .0300562
1020.647 .0300458
1021.236 .0300359
1021.824 .0300273
1022.412 .0300201
1023.000 .0300146
1023.588 .0300112
1024.175 .0300098
1024.762 .0300094
1025.349 .0300100
1025.936 .0300118
1026.523 .0300134
1027.109 .0300141
1027.695 .0300141
1028.281 .0300123
1028.867 .0300087
1029.452 .0300039
1030.038 .0299969
1030.623 .0299889
1031.208 .0299800
1031.792 .0299705
1032.377 .0299606
1032.961 .0299512
1033.546 .0299425
1034.130 .0299343
1034.714 .0299268
1035.297 .0299198
1035.881 .0299128
1036.464 .0299068
1037.047 .0299014
1037.630 .0298970
1038.213 .0298946
1038.796 .0298947
1039.378 .0298968
1039.961 .0299017
1040.543 .0299080
1041.125 .0299152
1041.707 .0299227
1042.289 .0299286
1042.871 .0299328
1043.452 .0299350
1044.034 .0299358
1044.615 .0299349
1045.196 .0299338
1045.777 .0299339
1046.358 .0299342
1046.939 .0299360
1047.520 .0299378
1048.101 .0299390
1048.681 .0299389
1049.262 .0299375
1049.842 .0299342
1050.422 .0299296
1051.002 .0299256
1051.582 .0299214
1052.162 .0299191
1052.742 .0299191
1053.322 .0299204
1053.902 .0299215
1054.482 .0299228
1055.061 .0299230
1055.641 .0299208
1056.220 .0299172
1056.800 .0299129
1057.379 .0299090
1057.958 .0299073
1058.538 .0299079
1059.117 .0299121
1059.696 .0299195
1060.275 .0299297
1060.854 .0299396
1061.433 .0299497
1062.012 .0299585
1062.592 .0299654
1063.171 .0299706
1063.750 .0299761
1064.329 .0299821
1064.908 .0299886
1065.487 .0299957
1066.066 .0300049
1066.645 .0300138
1067.224 .0300223
1067.803 .0300284
1068.382 .0300326
1068.961 .0300340
1069.540 .0300328
1070.119 .0300301
1070.698 .0300287
1071.278 .0300292
1071.857 .0300331
1072.436 .0300403
1073.016 .0300521
1073.595 .0300671
1074.175 .0300850
1074.754 .0301033
1075.334 .0301210
1075.913 .0301365
1076.493 .0301492
1077.073 .0301588
1077.653 .0301669
1078.233 .0301739
1078.813 .0301814
1079.393 .0301902
1079.974 .0301998
1080.554 .0302087
1081.135 .0302157
1081.716 .0302198
1082.296 .0302195
1082.877 .0302143
1083.458 .0302057
1084.040 .0301928
1084.621 .0301790
1085.202 .0301657
1085.784 .0301531
1086.366 .0301428
1086.948 .0301356
1087.530 .0301309
1088.112 .0301282
1088.695 .0301260
1089.277 .0301258
1089.860 .0301265
1090.443 .0301286
1091.026 .0301308
1091.610 .0301339
1092.193 .0301378
1092.777 .0301416
1093.361 .0301442
1093.946 .0301474
1094.530 .0301500
1095.115 .0301527
1095.700 .0301540
1096.285 .0301550
1096.871 .0301555
1097.456 .0301555
1098.042 .0301536
1098.628 .0301509
1099.215 .0301451
1099.802 .0301376
1100.389 .0301284
1100.976 .0301174
1101.564 .0301045
1102.152 .0300929
1102.740 .0300813
1103.329 .0300707
1103.917 .0300622
1104.507 .0300557
1105.096 .0300514
1105.686 .0300506
1106.276 .0300510
1106.867 .0300530
1107.457 .0300568
1108.049 .0300609
1108.640 .0300647
1109.232 .0300691
1109.825 .0300734
1110.417 .0300776
1111.010 .0300851
1111.604 .0300958
1112.198 .0301095
1112.792 .0301276
1113.387 .0301472
1113.982 .0301672
1114.577 .0301875
1115.173 .0302042
1115.769 .0302180
1116.366 .0302294
1116.963 .0302394
1117.561 .0302472
1118.159 .0302544
1118.758 .0302619
1119.357 .0302704
1119.957 .0302807
1120.557 .0302922
1121.157 .0303017
1121.758 .0303110
1122.360 .0303205
1122.962 .0303306
1123.564 .0303413
1124.167 .0303549
1124.771 .0303700
1125.375 .0303880
1125.980 .0304079
1126.585 .0304307
1127.191 .0304530
1127.797 .0304791
1128.404 .0305060
1129.012 .0305311
1129.620 .0305534
1130.229 .0305734
1130.838 .0305880
1131.448 .0305996
1132.058 .0306078
1132.669 .0306101
1133.281 .0306080
1133.894 .0306074
1134.507 .0306068
1135.120 .0306125
1135.735 .0306260
1136.350 .0306443
1136.965 .0306684
1137.582 .0306981
1138.199 .0307285
1138.816 .0307616
1139.435 .0308000
1140.054 .0308434
1140.674 .0308955
1141.294 .0309429
1141.916 .0309802
1142.538 .0310762
1143.160 .0311706
1143.784 .0313563
1144.408 .0310423
1145.033 .0307993
