Measurement Sequence started on: 14-45-04-498
Integration time: 36
Scans to Average: 2 
>>>>>Begin Spectral Data<<<<<
433.946 .0434400
434.870 .0460224
435.793 .0443974
436.715 .0436962
437.635 .0429120
438.555 .0425673
439.473 .0421227
440.389 .0416304
441.305 .0412328
442.219 .0408964
443.132 .0406152
444.044 .0403833
444.954 .0401950
445.863 .0400472
446.771 .0399331
447.678 .0398509
448.584 .0397909
449.488 .0397377
450.391 .0397025
451.293 .0396627
452.194 .0396264
453.094 .0395948
453.992 .0395663
454.890 .0395472
455.786 .0395453
456.681 .0395519
457.575 .0395699
458.468 .0395983
459.360 .0396362
460.250 .0396703
461.140 .0396981
462.028 .0397100
462.915 .0397092
463.801 .0396913
464.687 .0396587
465.571 .0396157
466.454 .0395690
467.335 .0395206
468.216 .0394724
469.096 .0394245
469.975 .0393775
470.853 .0393257
471.729 .0392644
472.605 .0391932
473.479 .0391105
474.353 .0390135
475.226 .0389110
476.097 .0388091
476.968 .0387138
477.838 .0386280
478.706 .0385579
479.574 .0385015
480.441 .0384577
481.306 .0384216
482.171 .0383872
483.035 .0383544
483.898 .0383194
484.760 .0382772
485.621 .0382320
486.481 .0381904
487.340 .0381517
488.198 .0381220
489.055 .0381028
489.912 .0380915
490.767 .0380874
491.622 .0380858
492.476 .0380819
493.329 .0380754
494.180 .0380631
495.032 .0380454
495.882 .0380242
496.731 .0380041
497.580 .0379859
498.427 .0379747
499.274 .0379708
500.120 .0379728
500.965 .0379790
501.809 .0379846
502.653 .0379826
503.495 .0379738
504.337 .0379536
505.178 .0379206
506.018 .0378769
506.858 .0378229
507.696 .0377604
508.534 .0376969
509.371 .0376301
510.208 .0375594
511.043 .0374889
511.878 .0374141
512.712 .0373341
513.545 .0372484
514.377 .0371630
515.209 .0370756
516.040 .0369980
516.870 .0369327
517.699 .0368811
518.528 .0368460
519.356 .0368288
520.183 .0368217
521.010 .0368256
521.836 .0368268
522.661 .0368260
523.485 .0368185
524.309 .0368112
525.132 .0367978
525.954 .0367857
526.776 .0367787
527.597 .0367800
528.417 .0367800
529.237 .0367818
530.056 .0367722
530.874 .0367520
531.692 .0367136
532.508 .0366599
533.325 .0365917
534.140 .0365159
534.955 .0364394
535.770 .0363700
536.583 .0363089
537.397 .0362647
538.209 .0362233
539.021 .0361878
539.832 .0361516
540.643 .0361044
541.453 .0360479
542.262 .0359874
543.071 .0359217
543.879 .0358609
544.687 .0358050
545.494 .0357640
546.300 .0357313
547.106 .0357127
547.911 .0357025
548.716 .0356925
549.520 .0356843
550.323 .0356692
551.126 .0356459
551.929 .0356229
552.731 .0355942
553.532 .0355656
554.332 .0355353
555.133 .0355088
555.932 .0354802
556.731 .0354497
557.530 .0354153
558.328 .0353750
559.125 .0353264
559.922 .0352709
560.719 .0352056
561.515 .0351357
562.310 .0350651
563.105 .0349960
563.899 .0349302
564.693 .0348693
565.487 .0348101
566.280 .0347559
567.072 .0347036
567.864 .0346574
568.655 .0346117
569.446 .0345695
570.236 .0345290
571.026 .0344902
571.816 .0344531
572.605 .0344164
573.393 .0343808
574.181 .0343477
574.969 .0343151
575.756 .0342844
576.543 .0342536
577.329 .0342266
578.115 .0342023
578.900 .0341807
579.685 .0341611
580.469 .0341433
581.253 .0341277
582.036 .0341152
582.820 .0341051
583.602 .0340976
584.384 .0340903
585.166 .0340834
585.947 .0340758
586.728 .0340664
587.509 .0340545
588.289 .0340406
589.069 .0340248
589.848 .0340070
590.627 .0339870
591.405 .0339653
592.183 .0339417
592.961 .0339169
593.738 .0338897
594.515 .0338602
595.291 .0338277
596.067 .0337926
596.843 .0337551
597.618 .0337159
598.393 .0336758
599.167 .0336359
599.941 .0335961
600.715 .0335584
601.488 .0335232
602.261 .0334914
603.034 .0334625
603.806 .0334369
604.578 .0334140
605.349 .0333939
606.121 .0333756
606.891 .0333586
607.662 .0333420
608.432 .0333259
609.201 .0333099
609.971 .0332934
610.740 .0332767
611.508 .0332603
612.277 .0332442
613.045 .0332289
613.812 .0332137
614.579 .0331988
615.346 .0331832
616.113 .0331668
616.879 .0331495
617.645 .0331303
618.411 .0331103
619.176 .0330897
619.941 .0330695
620.705 .0330507
621.470 .0330340
622.233 .0330196
622.997 .0330072
623.760 .0329963
624.523 .0329853
625.286 .0329728
626.048 .0329591
626.810 .0329428
627.572 .0329234
628.333 .0329024
629.095 .0328806
629.855 .0328579
630.616 .0328359
631.376 .0328144
632.136 .0327938
632.895 .0327736
633.655 .0327528
634.414 .0327307
635.172 .0327070
635.931 .0326820
636.689 .0326555
637.447 .0326286
638.204 .0326021
638.962 .0325757
639.718 .0325507
640.475 .0325272
641.231 .0325042
641.988 .0324809
642.743 .0324570
643.499 .0324317
644.254 .0324043
645.009 .0323745
645.764 .0323435
646.518 .0323127
647.272 .0322831
648.026 .0322550
648.780 .0322293
649.533 .0322070
650.286 .0321875
651.039 .0321693
651.792 .0321519
652.544 .0321342
653.296 .0321157
654.048 .0320961
654.799 .0320759
655.550 .0320554
656.301 .0320357
657.052 .0320171
657.802 .0319996
658.552 .0319828
659.302 .0319661
660.052 .0319483
660.801 .0319291
661.550 .0319080
662.299 .0318853
663.048 .0318613
663.796 .0318379
664.544 .0318158
665.292 .0317952
666.040 .0317768
666.787 .0317611
667.534 .0317474
668.281 .0317355
669.028 .0317242
669.774 .0317135
670.521 .0317031
671.266 .0316932
672.012 .0316840
672.758 .0316760
673.503 .0316696
674.248 .0316644
674.992 .0316598
675.737 .0316555
676.481 .0316512
677.225 .0316462
677.969 .0316399
678.712 .0316329
679.455 .0316248
680.199 .0316156
680.941 .0316059
681.684 .0315966
682.426 .0315872
683.168 .0315779
683.910 .0315684
684.652 .0315577
685.393 .0315464
686.134 .0315339
686.875 .0315201
687.616 .0315055
688.356 .0314906
689.097 .0314751
689.837 .0314590
690.576 .0314431
691.316 .0314268
692.055 .0314100
692.794 .0313929
693.533 .0313752
694.272 .0313569
695.010 .0313385
695.748 .0313198
696.486 .0313015
697.224 .0312839
697.962 .0312665
698.699 .0312492
699.436 .0312323
700.173 .0312152
700.909 .0311978
701.646 .0311805
702.382 .0311638
703.118 .0311476
703.853 .0311323
704.589 .0311177
705.324 .0311034
706.059 .0310898
706.794 .0310761
707.529 .0310622
708.263 .0310482
708.997 .0310339
709.731 .0310191
710.465 .0310041
711.198 .0309895
711.931 .0309749
712.664 .0309607
713.397 .0309469
714.130 .0309327
714.862 .0309186
715.594 .0309043
716.326 .0308897
717.058 .0308751
717.789 .0308601
718.520 .0308449
719.251 .0308294
719.982 .0308138
720.713 .0307981
721.443 .0307830
722.173 .0307685
722.903 .0307549
723.633 .0307425
724.362 .0307315
725.091 .0307218
725.820 .0307131
726.549 .0307054
727.278 .0306976
728.006 .0306897
728.734 .0306818
729.462 .0306737
730.190 .0306661
730.917 .0306590
731.644 .0306528
732.371 .0306472
733.098 .0306425
733.825 .0306376
734.551 .0306322
735.277 .0306258
736.003 .0306175
736.728 .0306076
737.454 .0305963
738.179 .0305844
738.904 .0305726
739.629 .0305616
740.353 .0305521
741.077 .0305438
741.801 .0305369
742.525 .0305311
743.249 .0305257
743.972 .0305201
744.695 .0305144
745.418 .0305081
746.141 .0305014
746.863 .0304952
747.585 .0304896
748.307 .0304851
749.029 .0304815
749.750 .0304781
750.472 .0304744
751.193 .0304697
751.913 .0304638
752.634 .0304557
753.354 .0304457
754.074 .0304343
754.794 .0304214
755.514 .0304076
756.233 .0303931
756.952 .0303780
757.671 .0303627
758.390 .0303471
759.108 .0303310
759.826 .0303148
760.544 .0302987
761.262 .0302830
761.979 .0302681
762.697 .0302539
763.414 .0302406
764.130 .0302281
764.847 .0302163
765.563 .0302050
766.279 .0301938
766.995 .0301832
767.710 .0301732
768.426 .0301637
769.141 .0301552
769.855 .0301475
770.570 .0301404
771.284 .0301341
771.998 .0301280
772.712 .0301221
773.426 .0301162
774.139 .0301101
774.852 .0301034
775.565 .0300966
776.277 .0300896
776.990 .0300824
777.702 .0300748
778.414 .0300669
779.125 .0300581
779.836 .0300489
780.547 .0300388
781.258 .0300275
781.969 .0300155
782.679 .0300028
783.389 .0299888
784.099 .0299746
784.808 .0299599
785.517 .0299454
786.226 .0299316
786.935 .0299188
787.643 .0299068
788.352 .0298960
789.060 .0298864
789.767 .0298775
790.475 .0298693
791.182 .0298617
791.889 .0298541
792.595 .0298470
793.301 .0298406
794.008 .0298342
794.713 .0298284
795.419 .0298230
796.124 .0298174
796.829 .0298119
797.534 .0298061
798.238 .0297995
798.942 .0297925
799.646 .0297853
800.350 .0297775
801.053 .0297692
801.756 .0297608
802.459 .0297521
803.162 .0297432
803.864 .0297341
804.566 .0297247
805.267 .0297155
805.969 .0297067
806.670 .0296982
807.371 .0296906
808.071 .0296841
808.772 .0296785
809.472 .0296730
810.171 .0296679
810.871 .0296628
811.570 .0296567
812.269 .0296497
812.967 .0296414
813.666 .0296322
814.364 .0296221
815.061 .0296113
815.759 .0296003
816.456 .0295894
817.153 .0295786
817.849 .0295678
818.545 .0295568
819.241 .0295459
819.937 .0295346
820.632 .0295229
821.327 .0295106
822.022 .0294980
822.717 .0294852
823.411 .0294724
824.105 .0294603
824.798 .0294494
825.491 .0294394
826.184 .0294304
826.877 .0294227
827.569 .0294158
828.261 .0294093
828.953 .0294032
829.645 .0293966
830.336 .0293900
831.027 .0293830
831.717 .0293755
832.407 .0293675
833.097 .0293597
833.787 .0293519
834.476 .0293440
835.165 .0293363
835.854 .0293287
836.542 .0293211
837.230 .0293136
837.918 .0293061
838.605 .0292982
839.292 .0292899
839.979 .0292814
840.665 .0292723
841.352 .0292631
842.037 .0292538
842.723 .0292443
843.408 .0292347
844.093 .0292249
844.777 .0292149
845.462 .0292044
846.145 .0291935
846.829 .0291822
847.512 .0291704
848.195 .0291578
848.878 .0291446
849.560 .0291311
850.242 .0291178
850.923 .0291044
851.605 .0290911
852.286 .0290774
852.966 .0290633
853.646 .0290487
854.326 .0290333
855.006 .0290172
855.685 .0290002
856.364 .0289824
857.043 .0289643
857.721 .0289461
858.399 .0289282
859.077 .0289108
859.754 .0288944
860.431 .0288785
861.107 .0288629
861.784 .0288473
862.459 .0288319
863.135 .0288163
863.810 .0288006
864.485 .0287850
865.160 .0287699
865.834 .0287555
866.508 .0287416
867.181 .0287287
867.854 .0287166
868.527 .0287045
869.199 .0286919
869.872 .0286784
870.543 .0286639
871.215 .0286477
871.886 .0286306
872.557 .0286128
873.227 .0285948
873.897 .0285771
874.567 .0285597
875.236 .0285430
875.905 .0285269
876.573 .0285107
877.242 .0284941
877.909 .0284770
878.577 .0284593
879.244 .0284411
879.911 .0284231
880.577 .0284058
881.243 .0283898
881.909 .0283748
882.575 .0283610
883.240 .0283485
883.904 .0283368
884.569 .0283253
885.232 .0283135
885.896 .0283016
886.559 .0282893
887.222 .0282771
887.885 .0282651
888.547 .0282540
889.208 .0282443
889.870 .0282358
890.531 .0282290
891.192 .0282235
891.852 .0282193
892.512 .0282160
893.171 .0282134
893.830 .0282113
894.489 .0282092
895.148 .0282072
895.806 .0282053
896.464 .0282036
897.121 .0282022
897.778 .0282011
898.434 .0282003
899.091 .0281998
899.747 .0281997
900.402 .0281991
901.057 .0281983
901.712 .0281968
902.366 .0281946
903.020 .0281914
903.674 .0281872
904.327 .0281822
904.980 .0281766
905.633 .0281707
906.285 .0281646
906.936 .0281584
907.588 .0281526
908.239 .0281471
908.889 .0281418
909.540 .0281363
910.190 .0281302
910.839 .0281234
911.488 .0281159
912.137 .0281070
912.785 .0280967
913.433 .0280849
914.081 .0280720
914.728 .0280581
915.375 .0280443
916.021 .0280308
916.668 .0280178
917.313 .0280054
917.959 .0279939
918.604 .0279824
919.248 .0279709
919.892 .0279590
920.536 .0279465
921.180 .0279332
921.823 .0279195
922.465 .0279054
923.108 .0278916
923.750 .0278784
924.391 .0278661
925.032 .0278547
925.673 .0278443
926.313 .0278344
926.953 .0278249
927.593 .0278153
928.232 .0278056
928.871 .0277950
929.510 .0277836
930.148 .0277715
930.786 .0277588
931.423 .0277457
932.060 .0277325
932.697 .0277191
933.333 .0277062
933.969 .0276933
934.604 .0276806
935.239 .0276672
935.874 .0276530
936.508 .0276381
937.142 .0276217
937.776 .0276041
938.409 .0275858
939.042 .0275664
939.674 .0275467
940.306 .0275269
940.938 .0275071
941.569 .0274872
942.200 .0274676
942.830 .0274484
943.460 .0274293
944.090 .0274099
944.720 .0273903
945.349 .0273705
945.977 .0273507
946.606 .0273308
947.233 .0273105
947.861 .0272903
948.488 .0272703
949.115 .0272500
949.741 .0272295
950.367 .0272092
950.993 .0271893
951.618 .0271697
952.243 .0271504
952.868 .0271321
953.492 .0271139
954.115 .0270962
954.739 .0270795
955.362 .0270633
955.984 .0270472
956.607 .0270315
957.229 .0270158
957.850 .0270001
958.471 .0269841
959.092 .0269674
959.713 .0269497
960.333 .0269317
960.952 .0269130
961.572 .0268936
962.191 .0268745
962.809 .0268561
963.428 .0268379
964.045 .0268203
964.663 .0268031
965.280 .0267857
965.897 .0267683
966.513 .0267510
967.129 .0267336
967.745 .0267167
968.361 .0267009
968.976 .0266863
969.590 .0266730
970.205 .0266619
970.818 .0266520
971.432 .0266435
972.045 .0266354
972.658 .0266275
973.271 .0266189
973.883 .0266096
974.495 .0265991
975.106 .0265877
975.717 .0265759
976.328 .0265639
976.938 .0265519
977.548 .0265406
978.158 .0265297
978.768 .0265194
979.377 .0265095
979.985 .0264997
980.594 .0264900
981.202 .0264803
981.809 .0264701
982.417 .0264601
983.024 .0264499
983.631 .0264398
984.237 .0264295
984.843 .0264191
985.449 .0264083
986.054 .0263965
986.659 .0263839
987.264 .0263708
987.868 .0263573
988.472 .0263436
989.076 .0263298
989.679 .0263167
990.282 .0263046
990.885 .0262931
991.487 .0262822
992.090 .0262721
992.691 .0262624
993.293 .0262530
993.894 .0262436
994.495 .0262346
995.095 .0262263
995.696 .0262194
996.296 .0262132
996.895 .0262078
997.494 .0262039
998.093 .0262004
998.692 .0261973
999.291 .0261947
999.889 .0261920
1000.487 .0261893
1001.084 .0261865
1001.681 .0261838
1002.278 .0261810
1002.875 .0261794
1003.471 .0261787
1004.067 .0261790
1004.663 .0261807
1005.258 .0261834
1005.854 .0261863
1006.449 .0261898
1007.043 .0261932
1007.638 .0261956
1008.232 .0261973
1008.826 .0261986
1009.419 .0261994
1010.012 .0261998
1010.605 .0262002
1011.198 .0262006
1011.791 .0262004
1012.383 .0262002
1012.975 .0261990
1013.566 .0261969
1014.158 .0261948
1014.749 .0261917
1015.340 .0261882
1015.931 .0261847
1016.521 .0261816
1017.111 .0261792
1017.701 .0261770
1018.291 .0261753
1018.880 .0261731
1019.470 .0261706
1020.059 .0261678
1020.647 .0261644
1021.236 .0261609
1021.824 .0261580
1022.412 .0261555
1023.000 .0261536
1023.588 .0261528
1024.175 .0261524
1024.762 .0261525
1025.349 .0261526
1025.936 .0261527
1026.523 .0261528
1027.109 .0261532
1027.695 .0261549
1028.281 .0261583
1028.867 .0261636
1029.452 .0261705
1030.038 .0261786
1030.623 .0261872
1031.208 .0261960
1031.792 .0262042
1032.377 .0262119
1032.961 .0262188
1033.546 .0262254
1034.130 .0262319
1034.714 .0262397
1035.297 .0262486
1035.881 .0262585
1036.464 .0262689
1037.047 .0262795
1037.630 .0262887
1038.213 .0262961
1038.796 .0263016
1039.378 .0263051
1039.961 .0263064
1040.543 .0263061
1041.125 .0263039
1041.707 .0263009
1042.289 .0262969
1042.871 .0262929
1043.452 .0262882
1044.034 .0262834
1044.615 .0262779
1045.196 .0262722
1045.777 .0262666
1046.358 .0262611
1046.939 .0262562
1047.520 .0262520
1048.101 .0262492
1048.681 .0262478
1049.262 .0262481
1049.842 .0262511
1050.422 .0262562
1051.002 .0262630
1051.582 .0262703
1052.162 .0262778
1052.742 .0262838
1053.322 .0262883
1053.902 .0262910
1054.482 .0262916
1055.061 .0262907
1055.641 .0262893
1056.220 .0262883
1056.800 .0262870
1057.379 .0262868
1057.958 .0262869
1058.538 .0262864
1059.117 .0262852
1059.696 .0262827
1060.275 .0262790
1060.854 .0262748
1061.433 .0262711
1062.012 .0262680
1062.592 .0262676
1063.171 .0262702
1063.750 .0262745
1064.329 .0262808
1064.908 .0262883
1065.487 .0262956
1066.066 .0263016
1066.645 .0263075
1067.224 .0263122
1067.803 .0263158
1068.382 .0263201
1068.961 .0263245
1069.540 .0263287
1070.119 .0263325
1070.698 .0263353
1071.278 .0263354
1071.857 .0263324
1072.436 .0263257
1073.016 .0263151
1073.595 .0263022
1074.175 .0262884
1074.754 .0262739
1075.334 .0262591
1075.913 .0262465
1076.493 .0262346
1077.073 .0262235
1077.653 .0262136
1078.233 .0262037
1078.813 .0261938
1079.393 .0261835
1079.974 .0261727
1080.554 .0261615
1081.135 .0261507
1081.716 .0261423
1082.296 .0261347
1082.877 .0261306
1083.458 .0261285
1084.040 .0261281
1084.621 .0261285
1085.202 .0261294
1085.784 .0261286
1086.366 .0261252
1086.948 .0261200
1087.530 .0261118
1088.112 .0261010
1088.695 .0260883
1089.277 .0260748
1089.860 .0260619
1090.443 .0260498
1091.026 .0260392
1091.610 .0260278
1092.193 .0260179
1092.777 .0260084
1093.361 .0260001
1093.946 .0259932
1094.530 .0259877
1095.115 .0259837
1095.700 .0259813
1096.285 .0259828
1096.871 .0259858
1097.456 .0259895
1098.042 .0259945
1098.628 .0259993
1099.215 .0260005
1099.802 .0259984
1100.389 .0259944
1100.976 .0259873
1101.564 .0259788
1102.152 .0259681
1102.740 .0259546
1103.329 .0259402
1103.917 .0259235
1104.507 .0259044
1105.096 .0258833
1105.686 .0258623
1106.276 .0258386
1106.867 .0258161
1107.457 .0257967
1108.049 .0257797
1108.640 .0257664
1109.232 .0257590
1109.825 .0257574
1110.417 .0257600
1111.010 .0257669
1111.604 .0257763
1112.198 .0257888
1112.792 .0258037
1113.387 .0258167
1113.982 .0258299
1114.577 .0258457
1115.173 .0258629
1115.769 .0258798
1116.366 .0258974
1116.963 .0259151
1117.561 .0259320
1118.159 .0259483
1118.758 .0259618
1119.357 .0259746
1119.957 .0259851
1120.557 .0259949
1121.157 .0260038
1121.758 .0260146
1122.360 .0260270
1122.962 .0260413
1123.564 .0260590
1124.167 .0260784
1124.771 .0260984
1125.375 .0261190
1125.980 .0261387
1126.585 .0261597
1127.191 .0261796
1127.797 .0261991
1128.404 .0262193
1129.012 .0262438
1129.620 .0262726
1130.229 .0263066
1130.838 .0263428
1131.448 .0263802
1132.058 .0264167
1132.669 .0264516
1133.281 .0264833
1133.894 .0265120
1134.507 .0265420
1135.120 .0265750
1135.735 .0266111
1136.350 .0266516
1136.965 .0266969
1137.582 .0267477
1138.199 .0268026
1138.816 .0268535
1139.435 .0269030
1140.054 .0269616
1140.674 .0270239
1141.294 .0270880
1141.916 .0271455
1142.538 .0271155
1143.160 .0274818
1143.784 .0274853
1144.408 .0274349
1145.033 .0271745
