Measurement Sequence started on: 14-45-04-498
Integration time: 36
Scans to Average: 2 
>>>>>Begin Spectral Data<<<<<
433.946 .0366643
434.870 .0404778
435.793 .0403583
436.715 .0400004
437.635 .0389891
438.555 .0396800
439.473 .0397339
440.389 .0396601
441.305 .0395856
442.219 .0395045
443.132 .0394395
444.044 .0393492
444.954 .0392832
445.863 .0392381
446.771 .0392238
447.678 .0392216
448.584 .0392516
449.488 .0392972
450.391 .0393412
451.293 .0393898
452.194 .0394459
453.094 .0394971
453.992 .0395511
454.890 .0396016
455.786 .0396486
456.681 .0396868
457.575 .0397174
458.468 .0397228
459.360 .0397083
460.250 .0396857
461.140 .0396493
462.028 .0396023
462.915 .0395534
463.801 .0394964
464.687 .0394352
465.571 .0393694
466.454 .0392968
467.335 .0392114
468.216 .0391193
469.096 .0390174
469.975 .0389141
470.853 .0388140
471.729 .0387209
472.605 .0386344
473.479 .0385646
474.353 .0385087
475.226 .0384581
476.097 .0384158
476.968 .0383775
477.838 .0383387
478.706 .0383010
479.574 .0382555
480.441 .0382121
481.306 .0381696
482.171 .0381320
483.035 .0380952
483.898 .0380649
484.760 .0380408
485.621 .0380203
486.481 .0380039
487.340 .0379896
488.198 .0379762
489.055 .0379636
489.912 .0379493
490.767 .0379333
491.622 .0379145
492.476 .0378928
493.329 .0378664
494.180 .0378389
495.032 .0378045
495.882 .0377650
496.731 .0377229
497.580 .0376804
498.427 .0376361
499.274 .0375890
500.120 .0375414
500.965 .0374910
501.809 .0374399
502.653 .0373823
503.495 .0373219
504.337 .0372603
505.178 .0371953
506.018 .0371314
506.858 .0370711
507.696 .0370189
508.534 .0369748
509.371 .0369371
510.208 .0369085
511.043 .0368852
511.878 .0368634
512.712 .0368406
513.545 .0368172
514.377 .0367950
515.209 .0367731
516.040 .0367509
516.870 .0367318
517.699 .0367123
518.528 .0366957
519.356 .0366761
520.183 .0366481
521.010 .0366172
521.836 .0365749
522.661 .0365243
523.485 .0364652
524.309 .0363970
525.132 .0363242
525.954 .0362520
526.776 .0361812
527.597 .0361107
528.417 .0360356
529.237 .0359602
530.056 .0358752
530.874 .0357854
531.692 .0356844
532.508 .0355787
533.325 .0354834
534.140 .0354037
534.955 .0353397
535.770 .0353050
536.583 .0352967
537.397 .0353180
538.209 .0353545
539.021 .0353979
539.832 .0354348
540.643 .0354662
541.453 .0354811
542.262 .0354829
543.071 .0354728
543.879 .0354644
544.687 .0354600
545.494 .0354627
546.300 .0354677
547.106 .0354750
547.911 .0354794
548.716 .0354781
549.520 .0354602
550.323 .0354286
551.126 .0353821
551.929 .0353317
552.731 .0352776
553.532 .0352267
554.332 .0351837
555.133 .0351516
555.932 .0351215
556.731 .0350916
557.530 .0350579
558.328 .0350175
559.125 .0349747
559.922 .0349296
560.719 .0348801
561.515 .0348303
562.310 .0347802
563.105 .0347353
563.899 .0346929
564.693 .0346551
565.487 .0346191
566.280 .0345849
567.072 .0345554
567.864 .0345232
568.655 .0344907
569.446 .0344608
570.236 .0344314
571.026 .0344006
571.816 .0343657
572.605 .0343281
573.393 .0342895
574.181 .0342504
574.969 .0342109
575.756 .0341695
576.543 .0341270
577.329 .0340831
578.115 .0340397
578.900 .0339946
579.685 .0339506
580.469 .0339087
581.253 .0338693
582.036 .0338301
582.820 .0337925
583.602 .0337571
584.384 .0337246
585.166 .0336952
585.947 .0336659
586.728 .0336373
587.509 .0336103
588.289 .0335852
589.069 .0335604
589.848 .0335363
590.627 .0335126
591.405 .0334870
592.183 .0334602
592.961 .0334320
593.738 .0334041
594.515 .0333785
595.291 .0333552
596.067 .0333355
596.843 .0333181
597.618 .0333039
598.393 .0332911
599.167 .0332798
599.941 .0332673
600.715 .0332531
601.488 .0332365
602.261 .0332183
603.034 .0331986
603.806 .0331793
604.578 .0331614
605.349 .0331453
606.121 .0331310
606.891 .0331170
607.662 .0331022
608.432 .0330870
609.201 .0330696
609.971 .0330504
610.740 .0330290
611.508 .0330065
612.277 .0329824
613.045 .0329585
613.812 .0329348
614.579 .0329115
615.346 .0328886
616.113 .0328660
616.879 .0328428
617.645 .0328190
618.411 .0327943
619.176 .0327688
619.941 .0327423
620.705 .0327148
621.470 .0326863
622.233 .0326575
622.997 .0326292
623.760 .0326016
624.523 .0325746
625.286 .0325488
626.048 .0325244
626.810 .0325006
627.572 .0324771
628.333 .0324541
629.095 .0324318
629.855 .0324096
630.616 .0323879
631.376 .0323676
632.136 .0323483
632.895 .0323307
633.655 .0323147
634.414 .0323004
635.172 .0322873
635.931 .0322752
636.689 .0322637
637.447 .0322529
638.204 .0322426
638.962 .0322322
639.718 .0322215
640.475 .0322102
641.231 .0321978
641.988 .0321833
642.743 .0321667
643.499 .0321478
644.254 .0321259
645.009 .0321021
645.764 .0320768
646.518 .0320507
647.272 .0320244
648.026 .0319986
648.780 .0319736
649.533 .0319492
650.286 .0319253
651.039 .0319020
651.792 .0318794
652.544 .0318581
653.296 .0318380
654.048 .0318195
654.799 .0318032
655.550 .0317886
656.301 .0317762
657.052 .0317654
657.802 .0317558
658.552 .0317468
659.302 .0317378
660.052 .0317284
660.801 .0317178
661.550 .0317059
662.299 .0316928
663.048 .0316784
663.796 .0316629
664.544 .0316462
665.292 .0316285
666.040 .0316102
666.787 .0315912
667.534 .0315715
668.281 .0315517
669.028 .0315315
669.774 .0315112
670.521 .0314906
671.266 .0314701
672.012 .0314505
672.758 .0314308
673.503 .0314117
674.248 .0313929
674.992 .0313744
675.737 .0313556
676.481 .0313366
677.225 .0313176
677.969 .0312984
678.712 .0312799
679.455 .0312616
680.199 .0312437
680.941 .0312270
681.684 .0312114
682.426 .0311966
683.168 .0311828
683.910 .0311692
684.652 .0311555
685.393 .0311420
686.134 .0311287
686.875 .0311153
687.616 .0311025
688.356 .0310904
689.097 .0310788
689.837 .0310671
690.576 .0310552
691.316 .0310427
692.055 .0310299
692.794 .0310163
693.533 .0310018
694.272 .0309866
695.010 .0309713
695.748 .0309562
696.486 .0309415
697.224 .0309270
697.962 .0309129
698.699 .0308988
699.436 .0308845
700.173 .0308700
700.909 .0308556
701.646 .0308413
702.382 .0308276
703.118 .0308143
703.853 .0308015
704.589 .0307890
705.324 .0307771
706.059 .0307656
706.794 .0307546
707.529 .0307437
708.263 .0307327
708.997 .0307219
709.731 .0307112
710.465 .0307008
711.198 .0306905
711.931 .0306803
712.664 .0306705
713.397 .0306604
714.130 .0306502
714.862 .0306405
715.594 .0306308
716.326 .0306211
717.058 .0306117
717.789 .0306022
718.520 .0305921
719.251 .0305816
719.982 .0305703
720.713 .0305585
721.443 .0305467
722.173 .0305345
722.903 .0305222
723.633 .0305103
724.362 .0304988
725.091 .0304867
725.820 .0304750
726.549 .0304636
727.278 .0304522
728.006 .0304414
728.734 .0304311
729.462 .0304214
730.190 .0304127
730.917 .0304051
731.644 .0303981
732.371 .0303910
733.098 .0303839
733.825 .0303755
734.551 .0303664
735.277 .0303559
736.003 .0303438
736.728 .0303307
737.454 .0303170
738.179 .0303025
738.904 .0302879
739.629 .0302734
740.353 .0302598
741.077 .0302470
741.801 .0302349
742.525 .0302234
743.249 .0302125
743.972 .0302016
744.695 .0301910
745.418 .0301805
746.141 .0301702
746.863 .0301598
747.585 .0301498
748.307 .0301404
749.029 .0301315
749.750 .0301231
750.472 .0301151
751.193 .0301069
751.913 .0300984
752.634 .0300888
753.354 .0300780
754.074 .0300663
754.794 .0300535
755.514 .0300399
756.233 .0300259
756.952 .0300118
757.671 .0299976
758.390 .0299834
759.108 .0299696
759.826 .0299561
760.544 .0299430
761.262 .0299299
761.979 .0299170
762.697 .0299040
763.414 .0298907
764.130 .0298763
764.847 .0298614
765.563 .0298460
766.279 .0298301
766.995 .0298140
767.710 .0297980
768.426 .0297829
769.141 .0297690
769.855 .0297561
770.570 .0297441
771.284 .0297327
771.998 .0297220
772.712 .0297114
773.426 .0297008
774.139 .0296903
774.852 .0296800
775.565 .0296700
776.277 .0296609
776.990 .0296526
777.702 .0296449
778.414 .0296377
779.125 .0296310
779.836 .0296239
780.547 .0296166
781.258 .0296091
781.969 .0296011
782.679 .0295934
783.389 .0295855
784.099 .0295777
784.808 .0295703
785.517 .0295638
786.226 .0295576
786.935 .0295516
787.643 .0295461
788.352 .0295410
789.060 .0295358
789.767 .0295309
790.475 .0295257
791.182 .0295203
791.889 .0295148
792.595 .0295088
793.301 .0295019
794.008 .0294952
794.713 .0294879
795.419 .0294805
796.124 .0294729
796.829 .0294653
797.534 .0294574
798.238 .0294491
798.942 .0294410
799.646 .0294330
800.350 .0294252
801.053 .0294179
801.756 .0294108
802.459 .0294042
803.162 .0293977
803.864 .0293914
804.566 .0293851
805.267 .0293786
805.969 .0293720
806.670 .0293649
807.371 .0293580
808.071 .0293512
808.772 .0293445
809.472 .0293377
810.171 .0293309
810.871 .0293243
811.570 .0293173
812.269 .0293101
812.967 .0293025
813.666 .0292943
814.364 .0292855
815.061 .0292758
815.759 .0292657
816.456 .0292550
817.153 .0292439
817.849 .0292315
818.545 .0292187
819.241 .0292050
819.937 .0291906
820.632 .0291756
821.327 .0291600
822.022 .0291439
822.717 .0291270
823.411 .0291092
824.105 .0290911
824.798 .0290725
825.491 .0290539
826.184 .0290350
826.877 .0290167
827.569 .0289990
828.261 .0289820
828.953 .0289659
829.645 .0289509
830.336 .0289365
831.027 .0289228
831.717 .0289095
832.407 .0288970
833.097 .0288854
833.787 .0288746
834.476 .0288647
835.165 .0288555
835.854 .0288465
836.542 .0288377
837.230 .0288288
837.918 .0288200
838.605 .0288107
839.292 .0288015
839.979 .0287922
840.665 .0287832
841.352 .0287744
842.037 .0287659
842.723 .0287576
843.408 .0287490
844.093 .0287395
844.777 .0287291
845.462 .0287179
846.145 .0287059
846.829 .0286933
847.512 .0286806
848.195 .0286674
848.878 .0286545
849.560 .0286417
850.242 .0286295
850.923 .0286172
851.605 .0286048
852.286 .0285918
852.966 .0285780
853.646 .0285636
854.326 .0285485
855.006 .0285332
855.685 .0285182
856.364 .0285032
857.043 .0284884
857.721 .0284737
858.399 .0284594
859.077 .0284447
859.754 .0284298
860.431 .0284146
861.107 .0283990
861.784 .0283833
862.459 .0283682
863.135 .0283535
863.810 .0283398
864.485 .0283273
865.160 .0283157
865.834 .0283053
866.508 .0282956
867.181 .0282863
867.854 .0282772
868.527 .0282683
869.199 .0282595
869.872 .0282504
870.543 .0282417
871.215 .0282326
871.886 .0282230
872.557 .0282129
873.227 .0282019
873.897 .0281898
874.567 .0281768
875.236 .0281627
875.905 .0281483
876.573 .0281338
877.242 .0281192
877.909 .0281045
878.577 .0280901
879.244 .0280758
879.911 .0280613
880.577 .0280463
881.243 .0280319
881.909 .0280176
882.575 .0280041
883.240 .0279915
883.904 .0279803
884.569 .0279705
885.232 .0279613
885.896 .0279528
886.559 .0279446
887.222 .0279364
887.885 .0279282
888.547 .0279199
889.208 .0279123
889.870 .0279055
890.531 .0278993
891.192 .0278940
891.852 .0278896
892.512 .0278855
893.171 .0278810
893.830 .0278764
894.489 .0278715
895.148 .0278659
895.806 .0278603
896.464 .0278548
897.121 .0278499
897.778 .0278454
898.434 .0278414
899.091 .0278375
899.747 .0278334
900.402 .0278286
901.057 .0278226
901.712 .0278158
902.366 .0278083
903.020 .0277997
903.674 .0277904
904.327 .0277812
904.980 .0277720
905.633 .0277630
906.285 .0277546
906.936 .0277465
907.588 .0277388
908.239 .0277315
908.889 .0277240
909.540 .0277160
910.190 .0277073
910.839 .0276983
911.488 .0276885
912.137 .0276782
912.785 .0276672
913.433 .0276559
914.081 .0276446
914.728 .0276335
915.375 .0276222
916.021 .0276110
916.668 .0275997
917.313 .0275883
917.959 .0275762
918.604 .0275637
919.248 .0275504
919.892 .0275371
920.536 .0275235
921.180 .0275099
921.823 .0274959
922.465 .0274821
923.108 .0274683
923.750 .0274543
924.391 .0274398
925.032 .0274251
925.673 .0274100
926.313 .0273947
926.953 .0273789
927.593 .0273629
928.232 .0273468
928.871 .0273306
929.510 .0273139
930.148 .0272970
930.786 .0272793
931.423 .0272615
932.060 .0272437
932.697 .0272259
933.333 .0272079
933.969 .0271900
934.604 .0271722
935.239 .0271549
935.874 .0271378
936.508 .0271209
937.142 .0271044
937.776 .0270883
938.409 .0270720
939.042 .0270552
939.674 .0270379
940.306 .0270196
940.938 .0269999
941.569 .0269792
942.200 .0269574
942.830 .0269346
943.460 .0269115
944.090 .0268878
944.720 .0268635
945.349 .0268393
945.977 .0268155
946.606 .0267921
947.233 .0267696
947.861 .0267476
948.488 .0267258
949.115 .0267045
949.741 .0266838
950.367 .0266633
950.993 .0266429
951.618 .0266234
952.243 .0266044
952.868 .0265857
953.492 .0265683
954.115 .0265519
954.739 .0265367
955.362 .0265230
955.984 .0265098
956.607 .0264968
957.229 .0264841
957.850 .0264712
958.471 .0264583
959.092 .0264452
959.713 .0264320
960.333 .0264185
960.952 .0264054
961.572 .0263933
962.191 .0263817
962.809 .0263710
963.428 .0263617
964.045 .0263522
964.663 .0263434
965.280 .0263346
965.897 .0263258
966.513 .0263172
967.129 .0263088
967.745 .0263001
968.361 .0262912
968.976 .0262824
969.590 .0262736
970.205 .0262645
970.818 .0262559
971.432 .0262471
972.045 .0262385
972.658 .0262305
973.271 .0262228
973.883 .0262147
974.495 .0262068
975.106 .0261985
975.717 .0261902
976.328 .0261820
976.938 .0261744
977.548 .0261676
978.158 .0261622
978.768 .0261584
979.377 .0261554
979.985 .0261531
980.594 .0261511
981.202 .0261487
981.809 .0261452
982.417 .0261406
983.024 .0261343
983.631 .0261272
984.237 .0261200
984.843 .0261124
985.449 .0261046
986.054 .0260967
986.659 .0260887
987.264 .0260802
987.868 .0260704
988.472 .0260599
989.076 .0260487
989.679 .0260372
990.282 .0260257
990.885 .0260148
991.487 .0260051
992.090 .0259971
992.691 .0259907
993.293 .0259861
993.894 .0259833
994.495 .0259817
995.095 .0259811
995.696 .0259808
996.296 .0259807
996.895 .0259799
997.494 .0259780
998.093 .0259755
998.692 .0259723
999.291 .0259686
999.889 .0259645
1000.487 .0259609
1001.084 .0259578
1001.681 .0259544
1002.278 .0259514
1002.875 .0259485
1003.471 .0259454
1004.067 .0259422
1004.663 .0259389
1005.258 .0259354
1005.854 .0259318
1006.449 .0259279
1007.043 .0259235
1007.638 .0259185
1008.232 .0259136
1008.826 .0259081
1009.419 .0259023
1010.012 .0258965
1010.605 .0258906
1011.198 .0258846
1011.791 .0258788
1012.383 .0258727
1012.975 .0258655
1013.566 .0258574
1014.158 .0258482
1014.749 .0258380
1015.340 .0258274
1015.931 .0258171
1016.521 .0258082
1017.111 .0258014
1017.701 .0257970
1018.291 .0257944
1018.880 .0257933
1019.470 .0257933
1020.059 .0257931
1020.647 .0257919
1021.236 .0257894
1021.824 .0257862
1022.412 .0257825
1023.000 .0257793
1023.588 .0257769
1024.175 .0257755
1024.762 .0257755
1025.349 .0257761
1025.936 .0257769
1026.523 .0257773
1027.109 .0257774
1027.695 .0257771
1028.281 .0257770
1028.867 .0257775
1029.452 .0257782
1030.038 .0257804
1030.623 .0257844
1031.208 .0257898
1031.792 .0257962
1032.377 .0258033
1032.961 .0258105
1033.546 .0258181
1034.130 .0258257
1034.714 .0258324
1035.297 .0258389
1035.881 .0258454
1036.464 .0258518
1037.047 .0258576
1037.630 .0258626
1038.213 .0258675
1038.796 .0258719
1039.378 .0258754
1039.961 .0258774
1040.543 .0258774
1041.125 .0258759
1041.707 .0258724
1042.289 .0258665
1042.871 .0258591
1043.452 .0258506
1044.034 .0258418
1044.615 .0258328
1045.196 .0258245
1045.777 .0258172
1046.358 .0258101
1046.939 .0258035
1047.520 .0257968
1048.101 .0257889
1048.681 .0257789
1049.262 .0257678
1049.842 .0257562
1050.422 .0257450
1051.002 .0257348
1051.582 .0257258
1052.162 .0257198
1052.742 .0257169
1053.322 .0257156
1053.902 .0257150
1054.482 .0257151
1055.061 .0257152
1055.641 .0257136
1056.220 .0257117
1056.800 .0257093
1057.379 .0257080
1057.958 .0257070
1058.538 .0257068
1059.117 .0257074
1059.696 .0257068
1060.275 .0257045
1060.854 .0256993
1061.433 .0256924
1062.012 .0256828
1062.592 .0256713
1063.171 .0256596
1063.750 .0256478
1064.329 .0256377
1064.908 .0256280
1065.487 .0256180
1066.066 .0256084
1066.645 .0255973
1067.224 .0255850
1067.803 .0255716
1068.382 .0255591
1068.961 .0255477
1069.540 .0255394
1070.119 .0255350
1070.698 .0255348
1071.278 .0255369
1071.857 .0255412
1072.436 .0255454
1073.016 .0255485
1073.595 .0255492
1074.175 .0255474
1074.754 .0255434
1075.334 .0255390
1075.913 .0255342
1076.493 .0255314
1077.073 .0255303
1077.653 .0255316
1078.233 .0255345
1078.813 .0255381
1079.393 .0255412
1079.974 .0255426
1080.554 .0255421
1081.135 .0255412
1081.716 .0255392
1082.296 .0255380
1082.877 .0255363
1083.458 .0255363
1084.040 .0255370
1084.621 .0255387
1085.202 .0255416
1085.784 .0255442
1086.366 .0255466
1086.948 .0255476
1087.530 .0255477
1088.112 .0255464
1088.695 .0255443
1089.277 .0255431
1089.860 .0255425
1090.443 .0255428
1091.026 .0255428
1091.610 .0255443
1092.193 .0255472
1092.777 .0255531
1093.361 .0255602
1093.946 .0255678
1094.530 .0255754
1095.115 .0255808
1095.700 .0255852
1096.285 .0255880
1096.871 .0255886
1097.456 .0255869
1098.042 .0255834
1098.628 .0255788
1099.215 .0255730
1099.802 .0255676
1100.389 .0255620
1100.976 .0255566
1101.564 .0255491
1102.152 .0255384
1102.740 .0255228
1103.329 .0255065
1103.917 .0254907
1104.507 .0254755
1105.096 .0254664
1105.686 .0254619
1106.276 .0254631
1106.867 .0254708
1107.457 .0254809
1108.049 .0254923
1108.640 .0255013
1109.232 .0255068
1109.825 .0255055
1110.417 .0255010
1111.010 .0254955
1111.604 .0254897
1112.198 .0254871
1112.792 .0254877
1113.387 .0254886
1113.982 .0254895
1114.577 .0254903
1115.173 .0254860
1115.769 .0254797
1116.366 .0254718
1116.963 .0254621
1117.561 .0254558
1118.159 .0254547
1118.758 .0254616
1119.357 .0254757
1119.957 .0254964
1120.557 .0255210
1121.157 .0255459
1121.758 .0255715
1122.360 .0255936
1122.962 .0256130
1123.564 .0256303
1124.167 .0256452
1124.771 .0256590
1125.375 .0256719
1125.980 .0256840
1126.585 .0256938
1127.191 .0257038
1127.797 .0257150
1128.404 .0257252
1129.012 .0257361
1129.620 .0257499
1130.229 .0257698
1130.838 .0257941
1131.448 .0258237
1132.058 .0258589
1132.669 .0258980
1133.281 .0259419
1133.894 .0259872
1134.507 .0260352
1135.120 .0260892
1135.735 .0261500
1136.350 .0262180
1136.965 .0262939
1137.582 .0263767
1138.199 .0264677
1138.816 .0265611
1139.435 .0266553
1140.054 .0267514
1140.674 .0268544
1141.294 .0269703
1141.916 .0270976
1142.538 .0270564
1143.160 .0272802
1143.784 .0275546
1144.408 .0279008
1145.033 .0279627
