Measurement Sequence started on: 14-45-04-498
Integration time: 36
Scans to Average: 2 
>>>>>Begin Spectral Data<<<<<
433.946 .0402551
434.870 .0447255
435.793 .0416988
436.715 .0418915
437.635 .0409267
438.555 .0414125
439.473 .0413158
440.389 .0411162
441.305 .0410244
442.219 .0409082
443.132 .0408087
444.044 .0406940
444.954 .0405652
445.863 .0404378
446.771 .0403359
447.678 .0402258
448.584 .0401206
449.488 .0400114
450.391 .0398928
451.293 .0397585
452.194 .0396234
453.094 .0394717
453.992 .0393179
454.890 .0391649
455.786 .0390173
456.681 .0388728
457.575 .0387363
458.468 .0385960
459.360 .0384646
460.250 .0383406
461.140 .0382170
462.028 .0381012
462.915 .0379955
463.801 .0378955
464.687 .0377956
465.571 .0377025
466.454 .0376098
467.335 .0375243
468.216 .0374480
469.096 .0373808
469.975 .0373228
470.853 .0372750
471.729 .0372361
472.605 .0372066
473.479 .0371821
474.353 .0371566
475.226 .0371253
476.097 .0370920
476.968 .0370516
477.838 .0370073
478.706 .0369633
479.574 .0369287
480.441 .0368992
481.306 .0368778
482.171 .0368607
483.035 .0368479
483.898 .0368344
484.760 .0368188
485.621 .0368003
486.481 .0367795
487.340 .0367562
488.198 .0367340
489.055 .0367151
489.912 .0367031
490.767 .0366940
491.622 .0366894
492.476 .0366866
493.329 .0366854
494.180 .0366811
495.032 .0366734
495.882 .0366645
496.731 .0366544
497.580 .0366419
498.427 .0366257
499.274 .0366057
500.120 .0365806
500.965 .0365448
501.809 .0364998
502.653 .0364470
503.495 .0363893
504.337 .0363258
505.178 .0362603
506.018 .0361975
506.858 .0361364
507.696 .0360807
508.534 .0360289
509.371 .0359853
510.208 .0359497
511.043 .0359193
511.878 .0358915
512.712 .0358688
513.545 .0358493
514.377 .0358329
515.209 .0358150
516.040 .0357984
516.870 .0357759
517.699 .0357505
518.528 .0357228
519.356 .0356998
520.183 .0356767
521.010 .0356618
521.836 .0356512
522.661 .0356466
523.485 .0356382
524.309 .0356208
525.132 .0355899
525.954 .0355498
526.776 .0354967
527.597 .0354375
528.417 .0353708
529.237 .0353170
530.056 .0352741
530.874 .0352454
531.692 .0352217
532.508 .0352047
533.325 .0351844
534.140 .0351518
534.955 .0350952
535.770 .0350159
536.583 .0349238
537.397 .0348221
538.209 .0347185
539.021 .0346197
539.832 .0345348
540.643 .0344726
541.453 .0344276
542.262 .0344071
543.071 .0344016
543.879 .0344049
544.687 .0344104
545.494 .0344148
546.300 .0344252
547.106 .0344316
547.911 .0344408
548.716 .0344550
549.520 .0344716
550.323 .0344845
551.126 .0344896
551.929 .0344861
552.731 .0344707
553.532 .0344394
554.332 .0343866
555.133 .0343198
555.932 .0342436
556.731 .0341587
557.530 .0340707
558.328 .0339865
559.125 .0339075
559.922 .0338324
560.719 .0337643
561.515 .0337038
562.310 .0336481
563.105 .0335977
563.899 .0335508
564.693 .0335083
565.487 .0334727
566.280 .0334433
567.072 .0334217
567.864 .0334099
568.655 .0334047
569.446 .0334026
570.236 .0334035
571.026 .0334019
571.816 .0333972
572.605 .0333863
573.393 .0333694
574.181 .0333446
574.969 .0333132
575.756 .0332765
576.543 .0332362
577.329 .0331942
578.115 .0331518
578.900 .0331077
579.685 .0330658
580.469 .0330246
581.253 .0329850
582.036 .0329438
582.820 .0329034
583.602 .0328616
584.384 .0328217
585.166 .0327847
585.947 .0327524
586.728 .0327264
587.509 .0327075
588.289 .0326933
589.069 .0326830
589.848 .0326741
590.627 .0326637
591.405 .0326492
592.183 .0326307
592.961 .0326071
593.738 .0325802
594.515 .0325505
595.291 .0325203
596.067 .0324900
596.843 .0324608
597.618 .0324323
598.393 .0324050
599.167 .0323770
599.941 .0323479
600.715 .0323180
601.488 .0322880
602.261 .0322588
603.034 .0322298
603.806 .0322022
604.578 .0321764
605.349 .0321518
606.121 .0321281
606.891 .0321045
607.662 .0320821
608.432 .0320597
609.201 .0320377
609.971 .0320156
610.740 .0319933
611.508 .0319711
612.277 .0319494
613.045 .0319269
613.812 .0319032
614.579 .0318782
615.346 .0318523
616.113 .0318264
616.879 .0318006
617.645 .0317751
618.411 .0317512
619.176 .0317284
619.941 .0317085
620.705 .0316906
621.470 .0316751
622.233 .0316616
622.997 .0316499
623.760 .0316388
624.523 .0316269
625.286 .0316144
626.048 .0316015
626.810 .0315875
627.572 .0315727
628.333 .0315566
629.095 .0315406
629.855 .0315255
630.616 .0315122
631.376 .0314996
632.136 .0314882
632.895 .0314760
633.655 .0314620
634.414 .0314455
635.172 .0314265
635.931 .0314051
636.689 .0313823
637.447 .0313598
638.204 .0313385
638.962 .0313193
639.718 .0313031
640.475 .0312895
641.231 .0312768
641.988 .0312629
642.743 .0312466
643.499 .0312269
644.254 .0312042
645.009 .0311787
645.764 .0311518
646.518 .0311252
647.272 .0310999
648.026 .0310761
648.780 .0310545
649.533 .0310352
650.286 .0310176
651.039 .0310002
651.792 .0309822
652.544 .0309638
653.296 .0309449
654.048 .0309261
654.799 .0309081
655.550 .0308910
656.301 .0308750
657.052 .0308595
657.802 .0308446
658.552 .0308299
659.302 .0308151
660.052 .0308000
660.801 .0307840
661.550 .0307674
662.299 .0307510
663.048 .0307344
663.796 .0307186
664.544 .0307034
665.292 .0306885
666.040 .0306734
666.787 .0306580
667.534 .0306426
668.281 .0306273
669.028 .0306126
669.774 .0305993
670.521 .0305870
671.266 .0305761
672.012 .0305671
672.758 .0305590
673.503 .0305514
674.248 .0305441
674.992 .0305363
675.737 .0305272
676.481 .0305175
677.225 .0305073
677.969 .0304970
678.712 .0304871
679.455 .0304784
680.199 .0304702
680.941 .0304621
681.684 .0304536
682.426 .0304434
683.168 .0304318
683.910 .0304185
684.652 .0304028
685.393 .0303862
686.134 .0303691
686.875 .0303521
687.616 .0303352
688.356 .0303194
689.097 .0303047
689.837 .0302901
690.576 .0302759
691.316 .0302615
692.055 .0302466
692.794 .0302319
693.533 .0302178
694.272 .0302045
695.010 .0301932
695.748 .0301832
696.486 .0301740
697.224 .0301655
697.962 .0301571
698.699 .0301484
699.436 .0301390
700.173 .0301290
700.909 .0301177
701.646 .0301059
702.382 .0300937
703.118 .0300806
703.853 .0300673
704.589 .0300537
705.324 .0300390
706.059 .0300228
706.794 .0300056
707.529 .0299879
708.263 .0299701
708.997 .0299533
709.731 .0299372
710.465 .0299228
711.198 .0299089
711.931 .0298952
712.664 .0298812
713.397 .0298664
714.130 .0298500
714.862 .0298322
715.594 .0298130
716.326 .0297933
717.058 .0297736
717.789 .0297550
718.520 .0297374
719.251 .0297211
719.982 .0297055
720.713 .0296901
721.443 .0296742
722.173 .0296580
722.903 .0296413
723.633 .0296249
724.362 .0296094
725.091 .0295945
725.820 .0295806
726.549 .0295677
727.278 .0295554
728.006 .0295439
728.734 .0295328
729.462 .0295221
730.190 .0295114
730.917 .0295011
731.644 .0294912
732.371 .0294818
733.098 .0294735
733.825 .0294657
734.551 .0294585
735.277 .0294507
736.003 .0294423
736.728 .0294329
737.454 .0294237
738.179 .0294148
738.904 .0294066
739.629 .0293995
740.353 .0293933
741.077 .0293880
741.801 .0293835
742.525 .0293791
743.249 .0293753
743.972 .0293708
744.695 .0293664
745.418 .0293612
746.141 .0293563
746.863 .0293518
747.585 .0293486
748.307 .0293468
749.029 .0293458
749.750 .0293448
750.472 .0293435
751.193 .0293415
751.913 .0293385
752.634 .0293341
753.354 .0293288
754.074 .0293214
754.794 .0293126
755.514 .0293021
756.233 .0292905
756.952 .0292776
757.671 .0292646
758.390 .0292508
759.108 .0292361
759.826 .0292214
760.544 .0292069
761.262 .0291930
761.979 .0291801
762.697 .0291674
763.414 .0291548
764.130 .0291423
764.847 .0291303
765.563 .0291177
766.279 .0291064
766.995 .0290960
767.710 .0290863
768.426 .0290771
769.141 .0290685
769.855 .0290599
770.570 .0290511
771.284 .0290419
771.998 .0290312
772.712 .0290192
773.426 .0290065
774.139 .0289929
774.852 .0289795
775.565 .0289665
776.277 .0289540
776.990 .0289421
777.702 .0289311
778.414 .0289202
779.125 .0289098
779.836 .0288997
780.547 .0288900
781.258 .0288802
781.969 .0288704
782.679 .0288598
783.389 .0288489
784.099 .0288378
784.808 .0288260
785.517 .0288132
786.226 .0288000
786.935 .0287863
787.643 .0287728
788.352 .0287601
789.060 .0287483
789.767 .0287377
790.475 .0287281
791.182 .0287194
791.889 .0287117
792.595 .0287044
793.301 .0286981
794.008 .0286919
794.713 .0286865
795.419 .0286815
796.124 .0286766
796.829 .0286717
797.534 .0286671
798.238 .0286624
798.942 .0286570
799.646 .0286506
800.350 .0286438
801.053 .0286359
801.756 .0286277
802.459 .0286189
803.162 .0286095
803.864 .0285995
804.566 .0285891
805.267 .0285776
805.969 .0285656
806.670 .0285529
807.371 .0285404
808.071 .0285284
808.772 .0285174
809.472 .0285074
810.171 .0284989
810.871 .0284920
811.570 .0284860
812.269 .0284797
812.967 .0284734
813.666 .0284658
814.364 .0284570
815.061 .0284475
815.759 .0284378
816.456 .0284286
817.153 .0284203
817.849 .0284132
818.545 .0284073
819.241 .0284019
819.937 .0283971
820.632 .0283918
821.327 .0283859
822.022 .0283791
822.717 .0283712
823.411 .0283630
824.105 .0283549
824.798 .0283469
825.491 .0283389
826.184 .0283306
826.877 .0283220
827.569 .0283122
828.261 .0283017
828.953 .0282907
829.645 .0282791
830.336 .0282674
831.027 .0282566
831.717 .0282465
832.407 .0282373
833.097 .0282294
833.787 .0282223
834.476 .0282156
835.165 .0282092
835.854 .0282036
836.542 .0281984
837.230 .0281941
837.918 .0281911
838.605 .0281887
839.292 .0281873
839.979 .0281862
840.665 .0281848
841.352 .0281827
842.037 .0281793
842.723 .0281737
843.408 .0281660
844.093 .0281562
844.777 .0281443
845.462 .0281301
846.145 .0281144
846.829 .0280974
847.512 .0280791
848.195 .0280598
848.878 .0280398
849.560 .0280189
850.242 .0279975
850.923 .0279756
851.605 .0279535
852.286 .0279312
852.966 .0279090
853.646 .0278876
854.326 .0278669
855.006 .0278468
855.685 .0278278
856.364 .0278101
857.043 .0277934
857.721 .0277775
858.399 .0277622
859.077 .0277478
859.754 .0277342
860.431 .0277210
861.107 .0277077
861.784 .0276945
862.459 .0276815
863.135 .0276675
863.810 .0276527
864.485 .0276374
865.160 .0276218
865.834 .0276060
866.508 .0275907
867.181 .0275757
867.854 .0275608
868.527 .0275466
869.199 .0275325
869.872 .0275181
870.543 .0275030
871.215 .0274873
871.886 .0274708
872.557 .0274543
873.227 .0274380
873.897 .0274219
874.567 .0274072
875.236 .0273938
875.905 .0273813
876.573 .0273693
877.242 .0273579
877.909 .0273468
878.577 .0273357
879.244 .0273245
879.911 .0273131
880.577 .0273023
881.243 .0272922
881.909 .0272826
882.575 .0272736
883.240 .0272653
883.904 .0272576
884.569 .0272504
885.232 .0272429
885.896 .0272347
886.559 .0272265
887.222 .0272176
887.885 .0272086
888.547 .0271990
889.208 .0271898
889.870 .0271807
890.531 .0271725
891.192 .0271648
891.852 .0271579
892.512 .0271518
893.171 .0271470
893.830 .0271430
894.489 .0271398
895.148 .0271371
895.806 .0271356
896.464 .0271348
897.121 .0271354
897.778 .0271365
898.434 .0271390
899.091 .0271416
899.747 .0271451
900.402 .0271480
901.057 .0271506
901.712 .0271526
902.366 .0271539
903.020 .0271537
903.674 .0271526
904.327 .0271502
904.980 .0271471
905.633 .0271432
906.285 .0271391
906.936 .0271341
907.588 .0271290
908.239 .0271232
908.889 .0271170
909.540 .0271095
910.190 .0271013
910.839 .0270919
911.488 .0270813
912.137 .0270695
912.785 .0270564
913.433 .0270426
914.081 .0270285
914.728 .0270143
915.375 .0270006
916.021 .0269873
916.668 .0269747
917.313 .0269623
917.959 .0269500
918.604 .0269378
919.248 .0269254
919.892 .0269132
920.536 .0269013
921.180 .0268902
921.823 .0268798
922.465 .0268706
923.108 .0268626
923.750 .0268556
924.391 .0268497
925.032 .0268446
925.673 .0268397
926.313 .0268344
926.953 .0268287
927.593 .0268215
928.232 .0268129
928.871 .0268030
929.510 .0267913
930.148 .0267783
930.786 .0267644
931.423 .0267502
932.060 .0267363
932.697 .0267225
933.333 .0267095
933.969 .0266965
934.604 .0266838
935.239 .0266705
935.874 .0266569
936.508 .0266435
937.142 .0266300
937.776 .0266163
938.409 .0266029
939.042 .0265895
939.674 .0265762
940.306 .0265621
940.938 .0265469
941.569 .0265303
942.200 .0265120
942.830 .0264916
943.460 .0264694
944.090 .0264458
944.720 .0264212
945.349 .0263960
945.977 .0263706
946.606 .0263450
947.233 .0263194
947.861 .0262939
948.488 .0262687
949.115 .0262437
949.741 .0262192
950.367 .0261955
950.993 .0261730
951.618 .0261519
952.243 .0261318
952.868 .0261131
953.492 .0260959
954.115 .0260803
954.739 .0260661
955.362 .0260535
955.984 .0260419
956.607 .0260310
957.229 .0260201
957.850 .0260084
958.471 .0259946
959.092 .0259784
959.713 .0259597
960.333 .0259385
960.952 .0259151
961.572 .0258913
962.191 .0258679
962.809 .0258463
963.428 .0258259
964.045 .0258066
964.663 .0257885
965.280 .0257706
965.897 .0257522
966.513 .0257333
967.129 .0257139
967.745 .0256951
968.361 .0256772
968.976 .0256615
969.590 .0256483
970.205 .0256385
970.818 .0256322
971.432 .0256285
972.045 .0256267
972.658 .0256251
973.271 .0256231
973.883 .0256206
974.495 .0256163
975.106 .0256098
975.717 .0256019
976.328 .0255931
976.938 .0255836
977.548 .0255746
978.158 .0255657
978.768 .0255573
979.377 .0255494
979.985 .0255415
980.594 .0255321
981.202 .0255213
981.809 .0255087
982.417 .0254946
983.024 .0254801
983.631 .0254653
984.237 .0254504
984.843 .0254371
985.449 .0254250
986.054 .0254135
986.659 .0254024
987.264 .0253923
987.868 .0253820
988.472 .0253718
989.076 .0253613
989.679 .0253514
990.282 .0253430
990.885 .0253369
991.487 .0253328
992.090 .0253314
992.691 .0253321
993.293 .0253332
993.894 .0253346
994.495 .0253365
995.095 .0253381
995.696 .0253400
996.296 .0253424
996.895 .0253458
997.494 .0253505
998.093 .0253577
998.692 .0253666
999.291 .0253771
999.889 .0253884
1000.487 .0253986
1001.084 .0254068
1001.681 .0254132
1002.278 .0254169
1002.875 .0254189
1003.471 .0254202
1004.067 .0254219
1004.663 .0254240
1005.258 .0254270
1005.854 .0254307
1006.449 .0254349
1007.043 .0254389
1007.638 .0254409
1008.232 .0254398
1008.826 .0254369
1009.419 .0254324
1010.012 .0254267
1010.605 .0254213
1011.198 .0254175
1011.791 .0254155
1012.383 .0254159
1012.975 .0254177
1013.566 .0254210
1014.158 .0254258
1014.749 .0254312
1015.340 .0254369
1015.931 .0254431
1016.521 .0254502
1017.111 .0254580
1017.701 .0254671
1018.291 .0254774
1018.880 .0254865
1019.470 .0254949
1020.059 .0255021
1020.647 .0255078
1021.236 .0255119
1021.824 .0255144
1022.412 .0255164
1023.000 .0255181
1023.588 .0255195
1024.175 .0255200
1024.762 .0255200
1025.349 .0255188
1025.936 .0255155
1026.523 .0255099
1027.109 .0255027
1027.695 .0254944
1028.281 .0254862
1028.867 .0254800
1029.452 .0254769
1030.038 .0254765
1030.623 .0254793
1031.208 .0254849
1031.792 .0254933
1032.377 .0255025
1032.961 .0255121
1033.546 .0255218
1034.130 .0255315
1034.714 .0255404
1035.297 .0255494
1035.881 .0255586
1036.464 .0255686
1037.047 .0255787
1037.630 .0255884
1038.213 .0255977
1038.796 .0256067
1039.378 .0256143
1039.961 .0256207
1040.543 .0256254
1041.125 .0256283
1041.707 .0256282
1042.289 .0256266
1042.871 .0256229
1043.452 .0256173
1044.034 .0256098
1044.615 .0256012
1045.196 .0255920
1045.777 .0255829
1046.358 .0255738
1046.939 .0255651
1047.520 .0255566
1048.101 .0255483
1048.681 .0255381
1049.262 .0255269
1049.842 .0255149
1050.422 .0255021
1051.002 .0254892
1051.582 .0254768
1052.162 .0254651
1052.742 .0254556
1053.322 .0254480
1053.902 .0254419
1054.482 .0254374
1055.061 .0254341
1055.641 .0254313
1056.220 .0254280
1056.800 .0254261
1057.379 .0254242
1057.958 .0254239
1058.538 .0254258
1059.117 .0254285
1059.696 .0254324
1060.275 .0254389
1060.854 .0254454
1061.433 .0254532
1062.012 .0254604
1062.592 .0254667
1063.171 .0254722
1063.750 .0254777
1064.329 .0254812
1064.908 .0254829
1065.487 .0254825
1066.066 .0254807
1066.645 .0254759
1067.224 .0254693
1067.803 .0254603
1068.382 .0254503
1068.961 .0254398
1069.540 .0254278
1070.119 .0254139
1070.698 .0254005
1071.278 .0253851
1071.857 .0253684
1072.436 .0253491
1073.016 .0253281
1073.595 .0253058
1074.175 .0252828
1074.754 .0252599
1075.334 .0252384
1075.913 .0252173
1076.493 .0251971
1077.073 .0251757
1077.653 .0251537
1078.233 .0251293
1078.813 .0251017
1079.393 .0250727
1079.974 .0250433
1080.554 .0250144
1081.135 .0249883
1081.716 .0249658
1082.296 .0249488
1082.877 .0249368
1083.458 .0249281
1084.040 .0249224
1084.621 .0249181
1085.202 .0249149
1085.784 .0249132
1086.366 .0249132
1086.948 .0249167
1087.530 .0249239
1088.112 .0249328
1088.695 .0249443
1089.277 .0249546
1089.860 .0249630
1090.443 .0249667
1091.026 .0249661
1091.610 .0249613
1092.193 .0249527
1092.777 .0249419
1093.361 .0249305
1093.946 .0249184
1094.530 .0249086
1095.115 .0248987
1095.700 .0248898
1096.285 .0248808
1096.871 .0248714
1097.456 .0248610
1098.042 .0248523
1098.628 .0248434
1099.215 .0248383
1099.802 .0248343
1100.389 .0248317
1100.976 .0248304
1101.564 .0248308
1102.152 .0248321
1102.740 .0248325
1103.329 .0248350
1103.917 .0248393
1104.507 .0248453
1105.096 .0248555
1105.686 .0248684
1106.276 .0248863
1106.867 .0249089
1107.457 .0249345
1108.049 .0249618
1108.640 .0249921
1109.232 .0250236
1109.825 .0250539
1110.417 .0250833
1111.010 .0251077
1111.604 .0251252
1112.198 .0251367
1112.792 .0251428
1113.387 .0251418
1113.982 .0251385
1114.577 .0251327
1115.173 .0251265
1115.769 .0251181
1116.366 .0251072
1116.963 .0250917
1117.561 .0250704
1118.159 .0250442
1118.758 .0250135
1119.357 .0249810
1119.957 .0249535
1120.557 .0249314
1121.157 .0249225
1121.758 .0249264
1122.360 .0249445
1122.962 .0249729
1123.564 .0250075
1124.167 .0250440
1124.771 .0250803
1125.375 .0251096
1125.980 .0251352
1126.585 .0251567
1127.191 .0251767
1127.797 .0251965
1128.404 .0252168
1129.012 .0252372
1129.620 .0252580
1130.229 .0252790
1130.838 .0253001
1131.448 .0253165
1132.058 .0253358
1132.669 .0253531
1133.281 .0253714
1133.894 .0253953
1134.507 .0254226
1135.120 .0254554
1135.735 .0254960
1136.350 .0255421
1136.965 .0255911
1137.582 .0256437
1138.199 .0257024
1138.816 .0257622
1139.435 .0258240
1140.054 .0258839
1140.674 .0259480
1141.294 .0260142
1141.916 .0260717
1142.538 .0261147
1143.160 .0261277
1143.784 .0263987
1144.408 .0264087
1145.033 .0261501
