Measurement Sequence started on: 14-45-04-498
Integration time: 36
Scans to Average: 2 
>>>>>Begin Spectral Data<<<<<
433.946 .0522635
434.870 .0554584
435.793 .0489516
436.715 .0483905
437.635 .0480608
438.555 .0482458
439.473 .0476666
440.389 .0471220
441.305 .0468252
442.219 .0465599
443.132 .0463172
444.044 .0461039
444.954 .0459087
445.863 .0457442
446.771 .0456013
447.678 .0454591
448.584 .0453242
449.488 .0451979
450.391 .0450726
451.293 .0449586
452.194 .0448569
453.094 .0447661
453.992 .0446808
454.890 .0446068
455.786 .0445368
456.681 .0444747
457.575 .0444243
458.468 .0443746
459.360 .0443297
460.250 .0442914
461.140 .0442517
462.028 .0442204
462.915 .0441987
463.801 .0441751
464.687 .0441451
465.571 .0441149
466.454 .0440721
467.335 .0440156
468.216 .0439494
469.096 .0438680
469.975 .0437780
470.853 .0436834
471.729 .0435821
472.605 .0434801
473.479 .0433898
474.353 .0433058
475.226 .0432270
476.097 .0431559
476.968 .0430841
477.838 .0430068
478.706 .0429297
479.574 .0428491
480.441 .0427665
481.306 .0426921
482.171 .0426305
483.035 .0425831
483.898 .0425562
484.760 .0425440
485.621 .0425440
486.481 .0425524
487.340 .0425619
488.198 .0425634
489.055 .0425583
489.912 .0425446
490.767 .0425236
491.622 .0424976
492.476 .0424718
493.329 .0424501
494.180 .0424332
495.032 .0424197
495.882 .0424062
496.731 .0423861
497.580 .0423587
498.427 .0423194
499.274 .0422668
500.120 .0422011
500.965 .0421270
501.809 .0420474
502.653 .0419653
503.495 .0418852
504.337 .0418094
505.178 .0417347
506.018 .0416646
506.858 .0415905
507.696 .0415080
508.534 .0414214
509.371 .0413279
510.208 .0412302
511.043 .0411330
511.878 .0410363
512.712 .0409470
513.545 .0408646
514.377 .0407940
515.209 .0407328
516.040 .0406828
516.870 .0406464
517.699 .0406211
518.528 .0406055
519.356 .0406000
520.183 .0405996
521.010 .0406142
521.836 .0406331
522.661 .0406592
523.485 .0406915
524.309 .0407293
525.132 .0407683
525.954 .0408026
526.776 .0408235
527.597 .0408351
528.417 .0408255
529.237 .0407968
530.056 .0407440
530.874 .0406719
531.692 .0405820
532.508 .0404792
533.325 .0403710
534.140 .0402622
534.955 .0401498
535.770 .0400441
536.583 .0399342
537.397 .0398268
538.209 .0397205
539.021 .0396146
539.832 .0395152
540.643 .0394209
541.453 .0393335
542.262 .0392560
543.071 .0391876
543.879 .0391276
544.687 .0390711
545.494 .0390206
546.300 .0389678
547.106 .0389109
547.911 .0388518
548.716 .0387937
549.520 .0387386
550.323 .0386886
551.126 .0386427
551.929 .0386047
552.731 .0385696
553.532 .0385359
554.332 .0385024
555.133 .0384700
555.932 .0384349
556.731 .0383992
557.530 .0383613
558.328 .0383246
559.125 .0382834
559.922 .0382434
560.719 .0382003
561.515 .0381556
562.310 .0381058
563.105 .0380516
563.899 .0379927
564.693 .0379299
565.487 .0378611
566.280 .0377902
567.072 .0377159
567.864 .0376440
568.655 .0375702
569.446 .0374985
570.236 .0374278
571.026 .0373597
571.816 .0372933
572.605 .0372325
573.393 .0371754
574.181 .0371247
574.969 .0370793
575.756 .0370410
576.543 .0370075
577.329 .0369779
578.115 .0369514
578.900 .0369264
579.685 .0369007
580.469 .0368749
581.253 .0368452
582.036 .0368138
582.820 .0367804
583.602 .0367456
584.384 .0367095
585.166 .0366721
585.947 .0366343
586.728 .0365969
587.509 .0365605
588.289 .0365257
589.069 .0364919
589.848 .0364604
590.627 .0364308
591.405 .0364025
592.183 .0363752
592.961 .0363499
593.738 .0363260
594.515 .0363026
595.291 .0362779
596.067 .0362518
596.843 .0362229
597.618 .0361925
598.393 .0361601
599.167 .0361262
599.941 .0360906
600.715 .0360540
601.488 .0360160
602.261 .0359774
603.034 .0359374
603.806 .0358964
604.578 .0358535
605.349 .0358104
606.121 .0357661
606.891 .0357220
607.662 .0356787
608.432 .0356375
609.201 .0355986
609.971 .0355622
610.740 .0355281
611.508 .0354961
612.277 .0354656
613.045 .0354372
613.812 .0354098
614.579 .0353835
615.346 .0353583
616.113 .0353347
616.879 .0353112
617.645 .0352883
618.411 .0352649
619.176 .0352411
619.941 .0352166
620.705 .0351912
621.470 .0351650
622.233 .0351383
622.997 .0351117
623.760 .0350842
624.523 .0350572
625.286 .0350307
626.048 .0350037
626.810 .0349764
627.572 .0349487
628.333 .0349201
629.095 .0348912
629.855 .0348623
630.616 .0348341
631.376 .0348067
632.136 .0347808
632.895 .0347550
633.655 .0347305
634.414 .0347066
635.172 .0346828
635.931 .0346587
636.689 .0346343
637.447 .0346087
638.204 .0345817
638.962 .0345533
639.718 .0345238
640.475 .0344932
641.231 .0344624
641.988 .0344305
642.743 .0343984
643.499 .0343658
644.254 .0343329
645.009 .0342995
645.764 .0342661
646.518 .0342324
647.272 .0341990
648.026 .0341658
648.780 .0341329
649.533 .0341007
650.286 .0340699
651.039 .0340401
651.792 .0340117
652.544 .0339844
653.296 .0339582
654.048 .0339330
654.799 .0339090
655.550 .0338859
656.301 .0338641
657.052 .0338429
657.802 .0338224
658.552 .0338026
659.302 .0337834
660.052 .0337644
660.801 .0337456
661.550 .0337272
662.299 .0337093
663.048 .0336913
663.796 .0336734
664.544 .0336552
665.292 .0336370
666.040 .0336180
666.787 .0335982
667.534 .0335778
668.281 .0335570
669.028 .0335358
669.774 .0335145
670.521 .0334934
671.266 .0334731
672.012 .0334539
672.758 .0334360
673.503 .0334193
674.248 .0334041
674.992 .0333895
675.737 .0333756
676.481 .0333620
677.225 .0333483
677.969 .0333340
678.712 .0333190
679.455 .0333031
680.199 .0332859
680.941 .0332678
681.684 .0332490
682.426 .0332298
683.168 .0332099
683.910 .0331893
684.652 .0331681
685.393 .0331457
686.134 .0331222
686.875 .0330974
687.616 .0330717
688.356 .0330450
689.097 .0330175
689.837 .0329897
690.576 .0329618
691.316 .0329349
692.055 .0329089
692.794 .0328838
693.533 .0328601
694.272 .0328374
695.010 .0328159
695.748 .0327956
696.486 .0327762
697.224 .0327574
697.962 .0327390
698.699 .0327212
699.436 .0327032
700.173 .0326852
700.909 .0326672
701.646 .0326501
702.382 .0326332
703.118 .0326167
703.853 .0326008
704.589 .0325856
705.324 .0325720
706.059 .0325594
706.794 .0325475
707.529 .0325365
708.263 .0325261
708.997 .0325157
709.731 .0325047
710.465 .0324939
711.198 .0324822
711.931 .0324702
712.664 .0324579
713.397 .0324455
714.130 .0324336
714.862 .0324227
715.594 .0324132
716.326 .0324045
717.058 .0323968
717.789 .0323895
718.520 .0323815
719.251 .0323734
719.982 .0323643
720.713 .0323544
721.443 .0323439
722.173 .0323330
722.903 .0323220
723.633 .0323115
724.362 .0323018
725.091 .0322925
725.820 .0322830
726.549 .0322729
727.278 .0322617
728.006 .0322482
728.734 .0322333
729.462 .0322167
730.190 .0321990
730.917 .0321806
731.644 .0321618
732.371 .0321434
733.098 .0321256
733.825 .0321086
734.551 .0320923
735.277 .0320759
736.003 .0320601
736.728 .0320437
737.454 .0320274
738.179 .0320115
738.904 .0319959
739.629 .0319805
740.353 .0319662
741.077 .0319528
741.801 .0319401
742.525 .0319280
743.249 .0319166
743.972 .0319055
744.695 .0318943
745.418 .0318825
746.141 .0318699
746.863 .0318570
747.585 .0318438
748.307 .0318297
749.029 .0318153
749.750 .0318004
750.472 .0317848
751.193 .0317686
751.913 .0317518
752.634 .0317343
753.354 .0317161
754.074 .0316973
754.794 .0316777
755.514 .0316576
756.233 .0316367
756.952 .0316154
757.671 .0315944
758.390 .0315735
759.108 .0315535
759.826 .0315343
760.544 .0315167
761.262 .0315003
761.979 .0314851
762.697 .0314711
763.414 .0314577
764.130 .0314452
764.847 .0314335
765.563 .0314225
766.279 .0314125
766.995 .0314037
767.710 .0313963
768.426 .0313901
769.141 .0313851
769.855 .0313803
770.570 .0313754
771.284 .0313702
771.998 .0313644
772.712 .0313577
773.426 .0313507
774.139 .0313439
774.852 .0313375
775.565 .0313322
776.277 .0313281
776.990 .0313252
777.702 .0313229
778.414 .0313210
779.125 .0313189
779.836 .0313159
780.547 .0313123
781.258 .0313078
781.969 .0313027
782.679 .0312974
783.389 .0312919
784.099 .0312866
784.808 .0312813
785.517 .0312767
786.226 .0312718
786.935 .0312668
787.643 .0312614
788.352 .0312556
789.060 .0312492
789.767 .0312420
790.475 .0312341
791.182 .0312253
791.889 .0312160
792.595 .0312060
793.301 .0311955
794.008 .0311847
794.713 .0311738
795.419 .0311628
796.124 .0311514
796.829 .0311401
797.534 .0311283
798.238 .0311160
798.942 .0311038
799.646 .0310908
800.350 .0310776
801.053 .0310640
801.756 .0310505
802.459 .0310366
803.162 .0310226
803.864 .0310089
804.566 .0309952
805.267 .0309817
805.969 .0309683
806.670 .0309546
807.371 .0309412
808.071 .0309276
808.772 .0309143
809.472 .0309010
810.171 .0308875
810.871 .0308739
811.570 .0308596
812.269 .0308445
812.967 .0308289
813.666 .0308121
814.364 .0307948
815.061 .0307767
815.759 .0307582
816.456 .0307395
817.153 .0307206
817.849 .0307017
818.545 .0306828
819.241 .0306634
819.937 .0306444
820.632 .0306245
821.327 .0306039
822.022 .0305831
822.717 .0305623
823.411 .0305419
824.105 .0305218
824.798 .0305023
825.491 .0304834
826.184 .0304649
826.877 .0304471
827.569 .0304290
828.261 .0304112
828.953 .0303937
829.645 .0303761
830.336 .0303589
831.027 .0303424
831.717 .0303270
832.407 .0303131
833.097 .0303008
833.787 .0302896
834.476 .0302786
835.165 .0302684
835.854 .0302586
836.542 .0302489
837.230 .0302392
837.918 .0302296
838.605 .0302203
839.292 .0302118
839.979 .0302040
840.665 .0301968
841.352 .0301909
842.037 .0301860
842.723 .0301814
843.408 .0301766
844.093 .0301715
844.777 .0301655
845.462 .0301586
846.145 .0301508
846.829 .0301421
847.512 .0301327
848.195 .0301234
848.878 .0301146
849.560 .0301065
850.242 .0300992
850.923 .0300925
851.605 .0300858
852.286 .0300791
852.966 .0300718
853.646 .0300636
854.326 .0300553
855.006 .0300464
855.685 .0300373
856.364 .0300284
857.043 .0300199
857.721 .0300120
858.399 .0300049
859.077 .0299986
859.754 .0299927
860.431 .0299870
861.107 .0299815
861.784 .0299758
862.459 .0299707
863.135 .0299653
863.810 .0299595
864.485 .0299534
865.160 .0299470
865.834 .0299398
866.508 .0299322
867.181 .0299242
867.854 .0299159
868.527 .0299070
869.199 .0298979
869.872 .0298878
870.543 .0298769
871.215 .0298649
871.886 .0298516
872.557 .0298366
873.227 .0298202
873.897 .0298017
874.567 .0297822
875.236 .0297620
875.905 .0297415
876.573 .0297208
877.242 .0297006
877.909 .0296807
878.577 .0296611
879.244 .0296413
879.911 .0296220
880.577 .0296030
881.243 .0295846
881.909 .0295663
882.575 .0295483
883.240 .0295306
883.904 .0295139
884.569 .0294976
885.232 .0294822
885.896 .0294675
886.559 .0294533
887.222 .0294395
887.885 .0294260
888.547 .0294126
889.208 .0293992
889.870 .0293857
890.531 .0293719
891.192 .0293575
891.852 .0293427
892.512 .0293275
893.171 .0293121
893.830 .0292972
894.489 .0292826
895.148 .0292681
895.806 .0292542
896.464 .0292409
897.121 .0292285
897.778 .0292163
898.434 .0292040
899.091 .0291919
899.747 .0291792
900.402 .0291662
901.057 .0291526
901.712 .0291389
902.366 .0291251
903.020 .0291115
903.674 .0290980
904.327 .0290850
904.980 .0290724
905.633 .0290601
906.285 .0290477
906.936 .0290356
907.588 .0290227
908.239 .0290090
908.889 .0289948
909.540 .0289804
910.190 .0289657
910.839 .0289510
911.488 .0289368
912.137 .0289232
912.785 .0289099
913.433 .0288966
914.081 .0288823
914.728 .0288671
915.375 .0288505
916.021 .0288326
916.668 .0288136
917.313 .0287949
917.959 .0287765
918.604 .0287591
919.248 .0287430
919.892 .0287281
920.536 .0287140
921.180 .0287008
921.823 .0286882
922.465 .0286760
923.108 .0286641
923.750 .0286529
924.391 .0286427
925.032 .0286340
925.673 .0286268
926.313 .0286213
926.953 .0286173
927.593 .0286138
928.232 .0286097
928.871 .0286048
929.510 .0285982
930.148 .0285898
930.786 .0285798
931.423 .0285679
932.060 .0285546
932.697 .0285402
933.333 .0285248
933.969 .0285088
934.604 .0284925
935.239 .0284756
935.874 .0284582
936.508 .0284407
937.142 .0284232
937.776 .0284053
938.409 .0283880
939.042 .0283710
939.674 .0283541
940.306 .0283374
940.938 .0283213
941.569 .0283059
942.200 .0282916
942.830 .0282782
943.460 .0282657
944.090 .0282538
944.720 .0282427
945.349 .0282318
945.977 .0282217
946.606 .0282121
947.233 .0282031
947.861 .0281942
948.488 .0281858
949.115 .0281775
949.741 .0281688
950.367 .0281601
950.993 .0281516
951.618 .0281428
952.243 .0281337
952.868 .0281246
953.492 .0281161
954.115 .0281076
954.739 .0280990
955.362 .0280902
955.984 .0280810
956.607 .0280713
957.229 .0280612
957.850 .0280507
958.471 .0280402
959.092 .0280297
959.713 .0280194
960.333 .0280095
960.952 .0280003
961.572 .0279919
962.191 .0279842
962.809 .0279768
963.428 .0279693
964.045 .0279607
964.663 .0279514
965.280 .0279416
965.897 .0279309
966.513 .0279195
967.129 .0279078
967.745 .0278957
968.361 .0278835
968.976 .0278712
969.590 .0278585
970.205 .0278457
970.818 .0278331
971.432 .0278201
972.045 .0278072
972.658 .0277947
973.271 .0277830
973.883 .0277717
974.495 .0277606
975.106 .0277494
975.717 .0277374
976.328 .0277247
976.938 .0277110
977.548 .0276962
978.158 .0276811
978.768 .0276654
979.377 .0276493
979.985 .0276329
980.594 .0276162
981.202 .0275992
981.809 .0275815
982.417 .0275626
983.024 .0275424
983.631 .0275212
984.237 .0274991
984.843 .0274771
985.449 .0274553
986.054 .0274344
986.659 .0274146
987.264 .0273963
987.868 .0273793
988.472 .0273633
989.076 .0273484
989.679 .0273343
990.282 .0273200
990.885 .0273059
991.487 .0272916
992.090 .0272776
992.691 .0272642
993.293 .0272514
993.894 .0272392
994.495 .0272282
995.095 .0272179
995.696 .0272080
996.296 .0271985
996.895 .0271892
997.494 .0271799
998.093 .0271709
998.692 .0271623
999.291 .0271539
999.889 .0271461
1000.487 .0271396
1001.084 .0271337
1001.681 .0271283
1002.278 .0271233
1002.875 .0271181
1003.471 .0271131
1004.067 .0271080
1004.663 .0271029
1005.258 .0270978
1005.854 .0270935
1006.449 .0270899
1007.043 .0270861
1007.638 .0270830
1008.232 .0270800
1008.826 .0270769
1009.419 .0270736
1010.012 .0270702
1010.605 .0270665
1011.198 .0270624
1011.791 .0270580
1012.383 .0270526
1012.975 .0270470
1013.566 .0270410
1014.158 .0270343
1014.749 .0270277
1015.340 .0270208
1015.931 .0270145
1016.521 .0270083
1017.111 .0270033
1017.701 .0269995
1018.291 .0269964
1018.880 .0269939
1019.470 .0269918
1020.059 .0269897
1020.647 .0269871
1021.236 .0269847
1021.824 .0269831
1022.412 .0269821
1023.000 .0269820
1023.588 .0269832
1024.175 .0269858
1024.762 .0269893
1025.349 .0269935
1025.936 .0269975
1026.523 .0270015
1027.109 .0270043
1027.695 .0270060
1028.281 .0270071
1028.867 .0270080
1029.452 .0270095
1030.038 .0270122
1030.623 .0270163
1031.208 .0270219
1031.792 .0270282
1032.377 .0270361
1032.961 .0270444
1033.546 .0270529
1034.130 .0270607
1034.714 .0270680
1035.297 .0270750
1035.881 .0270813
1036.464 .0270868
1037.047 .0270928
1037.630 .0270985
1038.213 .0271040
1038.796 .0271090
1039.378 .0271138
1039.961 .0271173
1040.543 .0271194
1041.125 .0271198
1041.707 .0271187
1042.289 .0271154
1042.871 .0271103
1043.452 .0271034
1044.034 .0270967
1044.615 .0270904
1045.196 .0270851
1045.777 .0270817
1046.358 .0270815
1046.939 .0270844
1047.520 .0270898
1048.101 .0270963
1048.681 .0271045
1049.262 .0271126
1049.842 .0271204
1050.422 .0271281
1051.002 .0271359
1051.582 .0271438
1052.162 .0271531
1052.742 .0271636
1053.322 .0271747
1053.902 .0271862
1054.482 .0271973
1055.061 .0272067
1055.641 .0272137
1056.220 .0272180
1056.800 .0272184
1057.379 .0272175
1057.958 .0272157
1058.538 .0272128
1059.117 .0272096
1059.696 .0272063
1060.275 .0272030
1060.854 .0271993
1061.433 .0271954
1062.012 .0271911
1062.592 .0271868
1063.171 .0271839
1063.750 .0271808
1064.329 .0271782
1064.908 .0271761
1065.487 .0271736
1066.066 .0271703
1066.645 .0271659
1067.224 .0271583
1067.803 .0271482
1068.382 .0271369
1068.961 .0271255
1069.540 .0271144
1070.119 .0271051
1070.698 .0270975
1071.278 .0270915
1071.857 .0270865
1072.436 .0270815
1073.016 .0270756
1073.595 .0270688
1074.175 .0270605
1074.754 .0270497
1075.334 .0270382
1075.913 .0270266
1076.493 .0270159
1077.073 .0270059
1077.653 .0269967
1078.233 .0269873
1078.813 .0269777
1079.393 .0269674
1079.974 .0269561
1080.554 .0269428
1081.135 .0269284
1081.716 .0269125
1082.296 .0268962
1082.877 .0268806
1083.458 .0268663
1084.040 .0268554
1084.621 .0268490
1085.202 .0268471
1085.784 .0268498
1086.366 .0268555
1086.948 .0268644
1087.530 .0268750
1088.112 .0268847
1088.695 .0268925
1089.277 .0268979
1089.860 .0269020
1090.443 .0269039
1091.026 .0269048
1091.610 .0269062
1092.193 .0269096
1092.777 .0269138
1093.361 .0269203
1093.946 .0269250
1094.530 .0269292
1095.115 .0269312
1095.700 .0269289
1096.285 .0269236
1096.871 .0269159
1097.456 .0269057
1098.042 .0268960
1098.628 .0268872
1099.215 .0268823
1099.802 .0268773
1100.389 .0268762
1100.976 .0268753
1101.564 .0268726
1102.152 .0268667
1102.740 .0268563
1103.329 .0268404
1103.917 .0268219
1104.507 .0267984
1105.096 .0267730
1105.686 .0267488
1106.276 .0267268
1106.867 .0267073
1107.457 .0266928
1108.049 .0266799
1108.640 .0266702
1109.232 .0266605
1109.825 .0266538
1110.417 .0266487
1111.010 .0266477
1111.604 .0266508
1112.198 .0266587
1112.792 .0266735
1113.387 .0266924
1113.982 .0267125
1114.577 .0267375
1115.173 .0267603
1115.769 .0267799
1116.366 .0267952
1116.963 .0268058
1117.561 .0268108
1118.159 .0268144
1118.758 .0268134
1119.357 .0268095
1119.957 .0268048
1120.557 .0268002
1121.157 .0267950
1121.758 .0267939
1122.360 .0267977
1122.962 .0268050
1123.564 .0268196
1124.167 .0268422
1124.771 .0268685
1125.375 .0269024
1125.980 .0269426
1126.585 .0269881
1127.191 .0270401
1127.797 .0270986
1128.404 .0271621
1129.012 .0272324
1129.620 .0273078
1130.229 .0273827
1130.838 .0274547
1131.448 .0275226
1132.058 .0275827
1132.669 .0276328
1133.281 .0276786
1133.894 .0277217
1134.507 .0277643
1135.120 .0278101
1135.735 .0278578
1136.350 .0279068
1136.965 .0279561
1137.582 .0280018
1138.199 .0280439
1138.816 .0280807
1139.435 .0281200
1140.054 .0281603
1140.674 .0282005
1141.294 .0282418
1141.916 .0282815
1142.538 .0284177
1143.160 .0285176
1143.784 .0284133
1144.408 .0283479
1145.033 .0283375
