Measurement Sequence started on: 14-45-04-498
Integration time: 36
Scans to Average: 2 
>>>>>Begin Spectral Data<<<<<
433.946 .0469669
434.870 .0441971
435.793 .0408941
436.715 .0418069
437.635 .0435895
438.555 .0432864
439.473 .0432017
440.389 .0431906
441.305 .0432163
442.219 .0431642
443.132 .0430539
444.044 .0429525
444.954 .0428648
445.863 .0427832
446.771 .0427141
447.678 .0426264
448.584 .0425249
449.488 .0424044
450.391 .0422769
451.293 .0421451
452.194 .0420191
453.094 .0419047
453.992 .0417977
454.890 .0416967
455.786 .0416046
456.681 .0415151
457.575 .0414283
458.468 .0413420
459.360 .0412569
460.250 .0411725
461.140 .0410906
462.028 .0410123
462.915 .0409331
463.801 .0408565
464.687 .0407823
465.571 .0407050
466.454 .0406299
467.335 .0405626
468.216 .0405004
469.096 .0404488
469.975 .0404143
470.853 .0403905
471.729 .0403763
472.605 .0403694
473.479 .0403634
474.353 .0403552
475.226 .0403422
476.097 .0403229
476.968 .0402967
477.838 .0402707
478.706 .0402441
479.574 .0402173
480.441 .0401956
481.306 .0401788
482.171 .0401627
483.035 .0401454
483.898 .0401261
484.760 .0401013
485.621 .0400726
486.481 .0400394
487.340 .0400027
488.198 .0399651
489.055 .0399264
489.912 .0398885
490.767 .0398492
491.622 .0398115
492.476 .0397740
493.329 .0397361
494.180 .0397012
495.032 .0396662
495.882 .0396313
496.731 .0395965
497.580 .0395648
498.427 .0395328
499.274 .0394979
500.120 .0394618
500.965 .0394230
501.809 .0393849
502.653 .0393489
503.495 .0393174
504.337 .0392898
505.178 .0392677
506.018 .0392500
506.858 .0392334
507.696 .0392198
508.534 .0392063
509.371 .0391886
510.208 .0391711
511.043 .0391550
511.878 .0391386
512.712 .0391215
513.545 .0391068
514.377 .0390938
515.209 .0390802
516.040 .0390637
516.870 .0390443
517.699 .0390238
518.528 .0390045
519.356 .0389863
520.183 .0389650
521.010 .0389428
521.836 .0389175
522.661 .0388838
523.485 .0388433
524.309 .0387859
525.132 .0387145
525.954 .0386279
526.776 .0385302
527.597 .0384277
528.417 .0383125
529.237 .0381984
530.056 .0380827
530.874 .0379653
531.692 .0378433
532.508 .0377206
533.325 .0376011
534.140 .0374805
534.955 .0373653
535.770 .0372563
536.583 .0371583
537.397 .0370773
538.209 .0370162
539.021 .0369725
539.832 .0369389
540.643 .0369200
541.453 .0369003
542.262 .0368869
543.071 .0368679
543.879 .0368446
544.687 .0368168
545.494 .0367888
546.300 .0367639
547.106 .0367395
547.911 .0367290
548.716 .0367323
549.520 .0367406
550.323 .0367579
551.126 .0367788
551.929 .0368003
552.731 .0368125
553.532 .0368231
554.332 .0368256
555.133 .0368271
555.932 .0368293
556.731 .0368344
557.530 .0368450
558.328 .0368623
559.125 .0368789
559.922 .0368906
560.719 .0368965
561.515 .0368907
562.310 .0368651
563.105 .0368296
563.899 .0367831
564.693 .0367262
565.487 .0366644
566.280 .0366016
567.072 .0365380
567.864 .0364755
568.655 .0364118
569.446 .0363477
570.236 .0362819
571.026 .0362161
571.816 .0361475
572.605 .0360798
573.393 .0360157
574.181 .0359564
574.969 .0359023
575.756 .0358545
576.543 .0358115
577.329 .0357722
578.115 .0357355
578.900 .0357030
579.685 .0356744
580.469 .0356484
581.253 .0356267
582.036 .0356097
582.820 .0355928
583.602 .0355773
584.384 .0355609
585.166 .0355427
585.947 .0355224
586.728 .0355011
587.509 .0354783
588.289 .0354557
589.069 .0354361
589.848 .0354177
590.627 .0354007
591.405 .0353857
592.183 .0353702
592.961 .0353530
593.738 .0353351
594.515 .0353150
595.291 .0352935
596.067 .0352718
596.843 .0352494
597.618 .0352261
598.393 .0352033
599.167 .0351802
599.941 .0351559
600.715 .0351306
601.488 .0351052
602.261 .0350784
603.034 .0350518
603.806 .0350242
604.578 .0349966
605.349 .0349701
606.121 .0349440
606.891 .0349177
607.662 .0348916
608.432 .0348654
609.201 .0348392
609.971 .0348123
610.740 .0347851
611.508 .0347581
612.277 .0347312
613.045 .0347042
613.812 .0346769
614.579 .0346488
615.346 .0346208
616.113 .0345929
616.879 .0345657
617.645 .0345391
618.411 .0345128
619.176 .0344876
619.941 .0344622
620.705 .0344366
621.470 .0344114
622.233 .0343867
622.997 .0343633
623.760 .0343412
624.523 .0343209
625.286 .0343028
626.048 .0342863
626.810 .0342715
627.572 .0342568
628.333 .0342421
629.095 .0342264
629.855 .0342092
630.616 .0341904
631.376 .0341710
632.136 .0341514
632.895 .0341323
633.655 .0341138
634.414 .0340959
635.172 .0340784
635.931 .0340608
636.689 .0340429
637.447 .0340241
638.204 .0340040
638.962 .0339838
639.718 .0339638
640.475 .0339445
641.231 .0339259
641.988 .0339081
642.743 .0338914
643.499 .0338752
644.254 .0338589
645.009 .0338419
645.764 .0338248
646.518 .0338085
647.272 .0337923
648.026 .0337765
648.780 .0337616
649.533 .0337478
650.286 .0337341
651.039 .0337198
651.792 .0337044
652.544 .0336873
653.296 .0336684
654.048 .0336479
654.799 .0336261
655.550 .0336042
656.301 .0335831
657.052 .0335625
657.802 .0335431
658.552 .0335259
659.302 .0335092
660.052 .0334929
660.801 .0334764
661.550 .0334588
662.299 .0334401
663.048 .0334202
663.796 .0333994
664.544 .0333778
665.292 .0333561
666.040 .0333342
666.787 .0333127
667.534 .0332918
668.281 .0332710
669.028 .0332506
669.774 .0332299
670.521 .0332086
671.266 .0331863
672.012 .0331640
672.758 .0331415
673.503 .0331189
674.248 .0330965
674.992 .0330739
675.737 .0330520
676.481 .0330306
677.225 .0330095
677.969 .0329897
678.712 .0329705
679.455 .0329520
680.199 .0329343
680.941 .0329175
681.684 .0329013
682.426 .0328856
683.168 .0328702
683.910 .0328547
684.652 .0328386
685.393 .0328219
686.134 .0328048
686.875 .0327879
687.616 .0327717
688.356 .0327564
689.097 .0327425
689.837 .0327299
690.576 .0327176
691.316 .0327062
692.055 .0326950
692.794 .0326834
693.533 .0326715
694.272 .0326592
695.010 .0326470
695.748 .0326347
696.486 .0326220
697.224 .0326095
697.962 .0325973
698.699 .0325852
699.436 .0325727
700.173 .0325600
700.909 .0325475
701.646 .0325352
702.382 .0325236
703.118 .0325127
703.853 .0325024
704.589 .0324925
705.324 .0324826
706.059 .0324730
706.794 .0324633
707.529 .0324535
708.263 .0324438
708.997 .0324347
709.731 .0324257
710.465 .0324173
711.198 .0324095
711.931 .0324016
712.664 .0323936
713.397 .0323843
714.130 .0323733
714.862 .0323606
715.594 .0323463
716.326 .0323306
717.058 .0323138
717.789 .0322970
718.520 .0322793
719.251 .0322614
719.982 .0322439
720.713 .0322264
721.443 .0322091
722.173 .0321918
722.903 .0321745
723.633 .0321573
724.362 .0321408
725.091 .0321243
725.820 .0321081
726.549 .0320925
727.278 .0320773
728.006 .0320618
728.734 .0320462
729.462 .0320311
730.190 .0320163
730.917 .0320018
731.644 .0319874
732.371 .0319725
733.098 .0319581
733.825 .0319432
734.551 .0319282
735.277 .0319124
736.003 .0318964
736.728 .0318797
737.454 .0318626
738.179 .0318454
738.904 .0318283
739.629 .0318113
740.353 .0317953
741.077 .0317802
741.801 .0317656
742.525 .0317512
743.249 .0317377
743.972 .0317243
744.695 .0317112
745.418 .0316981
746.141 .0316845
746.863 .0316709
747.585 .0316576
748.307 .0316438
749.029 .0316303
749.750 .0316174
750.472 .0316048
751.193 .0315922
751.913 .0315793
752.634 .0315659
753.354 .0315520
754.074 .0315375
754.794 .0315224
755.514 .0315068
756.233 .0314915
756.952 .0314760
757.671 .0314611
758.390 .0314468
759.108 .0314325
759.826 .0314185
760.544 .0314049
761.262 .0313910
761.979 .0313774
762.697 .0313641
763.414 .0313519
764.130 .0313407
764.847 .0313309
765.563 .0313220
766.279 .0313144
766.995 .0313075
767.710 .0313008
768.426 .0312934
769.141 .0312861
769.855 .0312785
770.570 .0312706
771.284 .0312632
771.998 .0312567
772.712 .0312511
773.426 .0312471
774.139 .0312440
774.852 .0312418
775.565 .0312397
776.277 .0312376
776.990 .0312347
777.702 .0312311
778.414 .0312267
779.125 .0312217
779.836 .0312163
780.547 .0312114
781.258 .0312064
781.969 .0312017
782.679 .0311975
783.389 .0311933
784.099 .0311883
784.808 .0311827
785.517 .0311764
786.226 .0311694
786.935 .0311618
787.643 .0311537
788.352 .0311456
789.060 .0311375
789.767 .0311297
790.475 .0311217
791.182 .0311132
791.889 .0311047
792.595 .0310956
793.301 .0310857
794.008 .0310750
794.713 .0310640
795.419 .0310529
796.124 .0310417
796.829 .0310307
797.534 .0310195
798.238 .0310080
798.942 .0309971
799.646 .0309860
800.350 .0309751
801.053 .0309643
801.756 .0309534
802.459 .0309422
803.162 .0309309
803.864 .0309193
804.566 .0309073
805.267 .0308954
805.969 .0308835
806.670 .0308711
807.371 .0308587
808.071 .0308466
808.772 .0308343
809.472 .0308218
810.171 .0308090
810.871 .0307957
811.570 .0307825
812.269 .0307692
812.967 .0307558
813.666 .0307425
814.364 .0307293
815.061 .0307162
815.759 .0307036
816.456 .0306912
817.153 .0306791
817.849 .0306669
818.545 .0306551
819.241 .0306430
819.937 .0306308
820.632 .0306186
821.327 .0306062
822.022 .0305937
822.717 .0305807
823.411 .0305671
824.105 .0305531
824.798 .0305387
825.491 .0305236
826.184 .0305080
826.877 .0304925
827.569 .0304767
828.261 .0304608
828.953 .0304449
829.645 .0304286
830.336 .0304125
831.027 .0303963
831.717 .0303802
832.407 .0303639
833.097 .0303480
833.787 .0303320
834.476 .0303164
835.165 .0303015
835.854 .0302866
836.542 .0302721
837.230 .0302583
837.918 .0302444
838.605 .0302305
839.292 .0302166
839.979 .0302023
840.665 .0301878
841.352 .0301734
842.037 .0301583
842.723 .0301430
843.408 .0301283
844.093 .0301135
844.777 .0300987
845.462 .0300844
846.145 .0300702
846.829 .0300556
847.512 .0300412
848.195 .0300267
848.878 .0300120
849.560 .0299984
850.242 .0299855
850.923 .0299730
851.605 .0299618
852.286 .0299510
852.966 .0299403
853.646 .0299302
854.326 .0299205
855.006 .0299104
855.685 .0299006
856.364 .0298910
857.043 .0298812
857.721 .0298712
858.399 .0298615
859.077 .0298515
859.754 .0298415
860.431 .0298317
861.107 .0298221
861.784 .0298129
862.459 .0298048
863.135 .0297967
863.810 .0297890
864.485 .0297813
865.160 .0297734
865.834 .0297646
866.508 .0297554
867.181 .0297455
867.854 .0297349
868.527 .0297245
869.199 .0297142
869.872 .0297041
870.543 .0296946
871.215 .0296850
871.886 .0296750
872.557 .0296646
873.227 .0296533
873.897 .0296411
874.567 .0296283
875.236 .0296154
875.905 .0296024
876.573 .0295896
877.242 .0295768
877.909 .0295645
878.577 .0295526
879.244 .0295414
879.911 .0295297
880.577 .0295184
881.243 .0295074
881.909 .0294964
882.575 .0294857
883.240 .0294751
883.904 .0294649
884.569 .0294548
885.232 .0294447
885.896 .0294346
886.559 .0294243
887.222 .0294147
887.885 .0294052
888.547 .0293958
889.208 .0293864
889.870 .0293767
890.531 .0293669
891.192 .0293577
891.852 .0293487
892.512 .0293400
893.171 .0293323
893.830 .0293257
894.489 .0293201
895.148 .0293151
895.806 .0293108
896.464 .0293069
897.121 .0293027
897.778 .0292979
898.434 .0292918
899.091 .0292849
899.747 .0292775
900.402 .0292693
901.057 .0292606
901.712 .0292510
902.366 .0292400
903.020 .0292280
903.674 .0292143
904.327 .0291992
904.980 .0291825
905.633 .0291644
906.285 .0291458
906.936 .0291267
907.588 .0291074
908.239 .0290882
908.889 .0290697
909.540 .0290522
910.190 .0290351
910.839 .0290190
911.488 .0290041
912.137 .0289904
912.785 .0289777
913.433 .0289662
914.081 .0289549
914.728 .0289443
915.375 .0289334
916.021 .0289218
916.668 .0289097
917.313 .0288971
917.959 .0288836
918.604 .0288694
919.248 .0288548
919.892 .0288395
920.536 .0288232
921.180 .0288064
921.823 .0287882
922.465 .0287689
923.108 .0287484
923.750 .0287266
924.391 .0287037
925.032 .0286807
925.673 .0286574
926.313 .0286343
926.953 .0286120
927.593 .0285902
928.232 .0285683
928.871 .0285468
929.510 .0285258
930.148 .0285052
930.786 .0284855
931.423 .0284669
932.060 .0284493
932.697 .0284333
933.333 .0284183
933.969 .0284037
934.604 .0283897
935.239 .0283756
935.874 .0283610
936.508 .0283457
937.142 .0283303
937.776 .0283145
938.409 .0282987
939.042 .0282824
939.674 .0282657
940.306 .0282481
940.938 .0282294
941.569 .0282090
942.200 .0281868
942.830 .0281629
943.460 .0281374
944.090 .0281108
944.720 .0280838
945.349 .0280569
945.977 .0280313
946.606 .0280071
947.233 .0279843
947.861 .0279627
948.488 .0279420
949.115 .0279216
949.741 .0279016
950.367 .0278821
950.993 .0278625
951.618 .0278438
952.243 .0278259
952.868 .0278094
953.492 .0277941
954.115 .0277802
954.739 .0277671
955.362 .0277547
955.984 .0277424
956.607 .0277295
957.229 .0277163
957.850 .0277029
958.471 .0276890
959.092 .0276744
959.713 .0276597
960.333 .0276451
960.952 .0276303
961.572 .0276155
962.191 .0276008
962.809 .0275862
963.428 .0275719
964.045 .0275576
964.663 .0275440
965.280 .0275310
965.897 .0275189
966.513 .0275070
967.129 .0274958
967.745 .0274850
968.361 .0274747
968.976 .0274643
969.590 .0274546
970.205 .0274453
970.818 .0274369
971.432 .0274295
972.045 .0274236
972.658 .0274192
973.271 .0274164
973.883 .0274142
974.495 .0274124
975.106 .0274106
975.717 .0274086
976.328 .0274060
976.938 .0274041
977.548 .0274023
978.158 .0274009
978.768 .0273998
979.377 .0273993
979.985 .0273983
980.594 .0273972
981.202 .0273954
981.809 .0273926
982.417 .0273885
983.024 .0273839
983.631 .0273784
984.237 .0273734
984.843 .0273682
985.449 .0273625
986.054 .0273561
986.659 .0273494
987.264 .0273414
987.868 .0273325
988.472 .0273233
989.076 .0273142
989.679 .0273051
990.282 .0272970
990.885 .0272895
991.487 .0272825
992.090 .0272759
992.691 .0272695
993.293 .0272625
993.894 .0272547
994.495 .0272465
995.095 .0272383
995.696 .0272304
996.296 .0272232
996.895 .0272170
997.494 .0272122
998.093 .0272087
998.692 .0272059
999.291 .0272031
999.889 .0272005
1000.487 .0271973
1001.084 .0271934
1001.681 .0271888
1002.278 .0271839
1002.875 .0271786
1003.471 .0271739
1004.067 .0271704
1004.663 .0271674
1005.258 .0271658
1005.854 .0271649
1006.449 .0271643
1007.043 .0271632
1007.638 .0271604
1008.232 .0271564
1008.826 .0271510
1009.419 .0271451
1010.012 .0271391
1010.605 .0271335
1011.198 .0271300
1011.791 .0271275
1012.383 .0271264
1012.975 .0271258
1013.566 .0271248
1014.158 .0271224
1014.749 .0271181
1015.340 .0271121
1015.931 .0271047
1016.521 .0270968
1017.111 .0270892
1017.701 .0270833
1018.291 .0270783
1018.880 .0270738
1019.470 .0270700
1020.059 .0270664
1020.647 .0270625
1021.236 .0270574
1021.824 .0270524
1022.412 .0270475
1023.000 .0270435
1023.588 .0270409
1024.175 .0270393
1024.762 .0270393
1025.349 .0270405
1025.936 .0270419
1026.523 .0270431
1027.109 .0270445
1027.695 .0270457
1028.281 .0270467
1028.867 .0270482
1029.452 .0270493
1030.038 .0270500
1030.623 .0270503
1031.208 .0270498
1031.792 .0270478
1032.377 .0270447
1032.961 .0270405
1033.546 .0270361
1034.130 .0270323
1034.714 .0270293
1035.297 .0270270
1035.881 .0270261
1036.464 .0270262
1037.047 .0270263
1037.630 .0270256
1038.213 .0270248
1038.796 .0270237
1039.378 .0270229
1039.961 .0270226
1040.543 .0270235
1041.125 .0270266
1041.707 .0270323
1042.289 .0270388
1042.871 .0270462
1043.452 .0270533
1044.034 .0270603
1044.615 .0270656
1045.196 .0270695
1045.777 .0270717
1046.358 .0270723
1046.939 .0270716
1047.520 .0270702
1048.101 .0270676
1048.681 .0270644
1049.262 .0270594
1049.842 .0270531
1050.422 .0270445
1051.002 .0270340
1051.582 .0270207
1052.162 .0270071
1052.742 .0269923
1053.322 .0269770
1053.902 .0269613
1054.482 .0269466
1055.061 .0269331
1055.641 .0269211
1056.220 .0269110
1056.800 .0269023
1057.379 .0268946
1057.958 .0268884
1058.538 .0268815
1059.117 .0268755
1059.696 .0268697
1060.275 .0268645
1060.854 .0268582
1061.433 .0268523
1062.012 .0268466
1062.592 .0268414
1063.171 .0268380
1063.750 .0268351
1064.329 .0268327
1064.908 .0268303
1065.487 .0268264
1066.066 .0268207
1066.645 .0268136
1067.224 .0268057
1067.803 .0267951
1068.382 .0267833
1068.961 .0267709
1069.540 .0267583
1070.119 .0267467
1070.698 .0267366
1071.278 .0267287
1071.857 .0267222
1072.436 .0267175
1073.016 .0267129
1073.595 .0267092
1074.175 .0267074
1074.754 .0267058
1075.334 .0267050
1075.913 .0267039
1076.493 .0267035
1077.073 .0267021
1077.653 .0267008
1078.233 .0266998
1078.813 .0266979
1079.393 .0266957
1079.974 .0266934
1080.554 .0266904
1081.135 .0266869
1081.716 .0266834
1082.296 .0266803
1082.877 .0266778
1083.458 .0266756
1084.040 .0266718
1084.621 .0266681
1085.202 .0266643
1085.784 .0266597
1086.366 .0266539
1086.948 .0266484
1087.530 .0266442
1088.112 .0266408
1088.695 .0266400
1089.277 .0266413
1089.860 .0266438
1090.443 .0266473
1091.026 .0266499
1091.610 .0266505
1092.193 .0266483
1092.777 .0266429
1093.361 .0266346
1093.946 .0266223
1094.530 .0266085
1095.115 .0265927
1095.700 .0265772
1096.285 .0265636
1096.871 .0265502
1097.456 .0265368
1098.042 .0265250
1098.628 .0265142
1099.215 .0265020
1099.802 .0264900
1100.389 .0264788
1100.976 .0264671
1101.564 .0264571
1102.152 .0264487
1102.740 .0264427
1103.329 .0264403
1103.917 .0264443
1104.507 .0264508
1105.096 .0264625
1105.686 .0264797
1106.276 .0264994
1106.867 .0265225
1107.457 .0265490
1108.049 .0265755
1108.640 .0266003
1109.232 .0266251
1109.825 .0266481
1110.417 .0266669
1111.010 .0266833
1111.604 .0266962
1112.198 .0267064
1112.792 .0267138
1113.387 .0267198
1113.982 .0267233
1114.577 .0267261
1115.173 .0267294
1115.769 .0267302
1116.366 .0267305
1116.963 .0267305
1117.561 .0267285
1118.159 .0267246
1118.758 .0267208
1119.357 .0267167
1119.957 .0267125
1120.557 .0267123
1121.157 .0267187
1121.758 .0267297
1122.360 .0267482
1122.962 .0267739
1123.564 .0268064
1124.167 .0268440
1124.771 .0268868
1125.375 .0269308
1125.980 .0269798
1126.585 .0270302
1127.191 .0270792
1127.797 .0271300
1128.404 .0271816
1129.012 .0272323
1129.620 .0272829
1130.229 .0273331
1130.838 .0273820
1131.448 .0274272
1132.058 .0274718
1132.669 .0275111
1133.281 .0275471
1133.894 .0275776
1134.507 .0276011
1135.120 .0276174
1135.735 .0276260
1136.350 .0276273
1136.965 .0276248
1137.582 .0276253
1138.199 .0276298
1138.816 .0276386
1139.435 .0276582
1140.054 .0276846
1140.674 .0277178
1141.294 .0277542
1141.916 .0278179
1142.538 .0278730
1143.160 .0278451
1143.784 .0278710
1144.408 .0279565
1145.033 .0286583
