Measurement Sequence started on: 14-45-04-498
Integration time: 36
Scans to Average: 2 
>>>>>Begin Spectral Data<<<<<
433.946 .0373965
434.870 .0478199
435.793 .0450771
436.715 .0438289
437.635 .0432372
438.555 .0424858
439.473 .0421513
440.389 .0415568
441.305 .0411392
442.219 .0408261
443.132 .0405951
444.044 .0404165
444.954 .0403097
445.863 .0402167
446.771 .0401174
447.678 .0400219
448.584 .0399314
449.488 .0398310
450.391 .0397266
451.293 .0396153
452.194 .0394985
453.094 .0393717
453.992 .0392429
454.890 .0391026
455.786 .0389493
456.681 .0387910
457.575 .0386335
458.468 .0384769
459.360 .0383306
460.250 .0381963
461.140 .0380751
462.028 .0379735
462.915 .0378793
463.801 .0377939
464.687 .0377192
465.571 .0376549
466.454 .0375951
467.335 .0375359
468.216 .0374827
469.096 .0374293
469.975 .0373771
470.853 .0373229
471.729 .0372615
472.605 .0371970
473.479 .0371276
474.353 .0370552
475.226 .0369787
476.097 .0369048
476.968 .0368318
477.838 .0367596
478.706 .0366865
479.574 .0366113
480.441 .0365333
481.306 .0364534
482.171 .0363702
483.035 .0362863
483.898 .0362066
484.760 .0361357
485.621 .0360772
486.481 .0360320
487.340 .0359973
488.198 .0359717
489.055 .0359472
489.912 .0359260
490.767 .0358987
491.622 .0358668
492.476 .0358360
493.329 .0358103
494.180 .0357919
495.032 .0357852
495.882 .0357893
496.731 .0358107
497.580 .0358421
498.427 .0358775
499.274 .0359074
500.120 .0359315
500.965 .0359441
501.809 .0359417
502.653 .0359292
503.495 .0359141
504.337 .0358933
505.178 .0358782
506.018 .0358623
506.858 .0358439
507.696 .0358242
508.534 .0358006
509.371 .0357661
510.208 .0357273
511.043 .0356786
511.878 .0356257
512.712 .0355706
513.545 .0355188
514.377 .0354677
515.209 .0354225
516.040 .0353839
516.870 .0353421
517.699 .0352943
518.528 .0352436
519.356 .0351826
520.183 .0351154
521.010 .0350458
521.836 .0349758
522.661 .0349032
523.485 .0348323
524.309 .0347611
525.132 .0346955
525.954 .0346300
526.776 .0345675
527.597 .0345066
528.417 .0344496
529.237 .0344028
530.056 .0343627
530.874 .0343326
531.692 .0343159
532.508 .0343068
533.325 .0343003
534.140 .0342951
534.955 .0342899
535.770 .0342727
536.583 .0342484
537.397 .0342178
538.209 .0341792
539.021 .0341342
539.832 .0340851
540.643 .0340283
541.453 .0339678
542.262 .0339098
543.071 .0338458
543.879 .0337825
544.687 .0337260
545.494 .0336716
546.300 .0336211
547.106 .0335740
547.911 .0335307
548.716 .0334936
549.520 .0334602
550.323 .0334277
551.126 .0333940
551.929 .0333662
552.731 .0333394
553.532 .0333100
554.332 .0332787
555.133 .0332500
555.932 .0332219
556.731 .0331979
557.530 .0331739
558.328 .0331538
559.125 .0331392
559.922 .0331316
560.719 .0331277
561.515 .0331276
562.310 .0331285
563.105 .0331349
563.899 .0331404
564.693 .0331484
565.487 .0331504
566.280 .0331479
567.072 .0331398
567.864 .0331221
568.655 .0330911
569.446 .0330515
570.236 .0330019
571.026 .0329486
571.816 .0328907
572.605 .0328334
573.393 .0327762
574.181 .0327260
574.969 .0326800
575.756 .0326352
576.543 .0325926
577.329 .0325532
578.115 .0325106
578.900 .0324686
579.685 .0324235
580.469 .0323781
581.253 .0323349
582.036 .0322942
582.820 .0322547
583.602 .0322192
584.384 .0321872
585.166 .0321577
585.947 .0321302
586.728 .0321057
587.509 .0320808
588.289 .0320562
589.069 .0320331
589.848 .0320106
590.627 .0319883
591.405 .0319667
592.183 .0319443
592.961 .0319213
593.738 .0318969
594.515 .0318713
595.291 .0318449
596.067 .0318179
596.843 .0317920
597.618 .0317664
598.393 .0317429
599.167 .0317207
599.941 .0317004
600.715 .0316819
601.488 .0316646
602.261 .0316471
603.034 .0316296
603.806 .0316131
604.578 .0315966
605.349 .0315810
606.121 .0315676
606.891 .0315563
607.662 .0315475
608.432 .0315403
609.201 .0315338
609.971 .0315269
610.740 .0315193
611.508 .0315092
612.277 .0314970
613.045 .0314831
613.812 .0314672
614.579 .0314500
615.346 .0314316
616.113 .0314127
616.879 .0313922
617.645 .0313711
618.411 .0313482
619.176 .0313241
619.941 .0312987
620.705 .0312721
621.470 .0312463
622.233 .0312211
622.997 .0311968
623.760 .0311741
624.523 .0311526
625.286 .0311317
626.048 .0311101
626.810 .0310874
627.572 .0310632
628.333 .0310388
629.095 .0310133
629.855 .0309878
630.616 .0309635
631.376 .0309414
632.136 .0309212
632.895 .0309038
633.655 .0308881
634.414 .0308733
635.172 .0308598
635.931 .0308470
636.689 .0308340
637.447 .0308219
638.204 .0308101
638.962 .0307988
639.718 .0307886
640.475 .0307795
641.231 .0307703
641.988 .0307619
642.743 .0307532
643.499 .0307436
644.254 .0307335
645.009 .0307230
645.764 .0307114
646.518 .0306997
647.272 .0306880
648.026 .0306754
648.780 .0306623
649.533 .0306484
650.286 .0306330
651.039 .0306165
651.792 .0305986
652.544 .0305797
653.296 .0305603
654.048 .0305425
654.799 .0305258
655.550 .0305110
656.301 .0304986
657.052 .0304871
657.802 .0304764
658.552 .0304656
659.302 .0304528
660.052 .0304379
660.801 .0304211
661.550 .0304025
662.299 .0303824
663.048 .0303626
663.796 .0303430
664.544 .0303244
665.292 .0303074
666.040 .0302921
666.787 .0302774
667.534 .0302637
668.281 .0302499
669.028 .0302355
669.774 .0302212
670.521 .0302068
671.266 .0301925
672.012 .0301800
672.758 .0301692
673.503 .0301605
674.248 .0301534
674.992 .0301485
675.737 .0301442
676.481 .0301408
677.225 .0301376
677.969 .0301337
678.712 .0301286
679.455 .0301226
680.199 .0301152
680.941 .0301074
681.684 .0300991
682.426 .0300897
683.168 .0300793
683.910 .0300681
684.652 .0300555
685.393 .0300417
686.134 .0300266
686.875 .0300110
687.616 .0299953
688.356 .0299808
689.097 .0299668
689.837 .0299539
690.576 .0299427
691.316 .0299321
692.055 .0299212
692.794 .0299094
693.533 .0298964
694.272 .0298824
695.010 .0298683
695.748 .0298541
696.486 .0298405
697.224 .0298279
697.962 .0298167
698.699 .0298062
699.436 .0297963
700.173 .0297862
700.909 .0297750
701.646 .0297632
702.382 .0297505
703.118 .0297366
703.853 .0297229
704.589 .0297101
705.324 .0296992
706.059 .0296901
706.794 .0296824
707.529 .0296762
708.263 .0296711
708.997 .0296660
709.731 .0296599
710.465 .0296521
711.198 .0296429
711.931 .0296316
712.664 .0296188
713.397 .0296053
714.130 .0295911
714.862 .0295773
715.594 .0295634
716.326 .0295501
717.058 .0295373
717.789 .0295245
718.520 .0295110
719.251 .0294973
719.982 .0294823
720.713 .0294663
721.443 .0294493
722.173 .0294328
722.903 .0294171
723.633 .0294024
724.362 .0293890
725.091 .0293767
725.820 .0293653
726.549 .0293542
727.278 .0293420
728.006 .0293292
728.734 .0293149
729.462 .0292989
730.190 .0292816
730.917 .0292645
731.644 .0292479
732.371 .0292327
733.098 .0292191
733.825 .0292074
734.551 .0291973
735.277 .0291887
736.003 .0291816
736.728 .0291754
737.454 .0291698
738.179 .0291644
738.904 .0291587
739.629 .0291535
740.353 .0291487
741.077 .0291446
741.801 .0291408
742.525 .0291369
743.249 .0291326
743.972 .0291270
744.695 .0291205
745.418 .0291126
746.141 .0291029
746.863 .0290913
747.585 .0290780
748.307 .0290625
749.029 .0290456
749.750 .0290278
750.472 .0290095
751.193 .0289911
751.913 .0289730
752.634 .0289548
753.354 .0289370
754.074 .0289199
754.794 .0289035
755.514 .0288875
756.233 .0288723
756.952 .0288578
757.671 .0288438
758.390 .0288304
759.108 .0288176
759.826 .0288053
760.544 .0287943
761.262 .0287842
761.979 .0287745
762.697 .0287658
763.414 .0287577
764.130 .0287505
764.847 .0287441
765.563 .0287383
766.279 .0287330
766.995 .0287279
767.710 .0287227
768.426 .0287170
769.141 .0287109
769.855 .0287045
770.570 .0286980
771.284 .0286914
771.998 .0286842
772.712 .0286767
773.426 .0286694
774.139 .0286624
774.852 .0286552
775.565 .0286483
776.277 .0286413
776.990 .0286343
777.702 .0286269
778.414 .0286187
779.125 .0286108
779.836 .0286029
780.547 .0285951
781.258 .0285874
781.969 .0285800
782.679 .0285732
783.389 .0285670
784.099 .0285613
784.808 .0285562
785.517 .0285516
786.226 .0285474
786.935 .0285431
787.643 .0285391
788.352 .0285353
789.060 .0285316
789.767 .0285280
790.475 .0285246
791.182 .0285207
791.889 .0285167
792.595 .0285132
793.301 .0285098
794.008 .0285074
794.713 .0285053
795.419 .0285035
796.124 .0285021
796.829 .0285001
797.534 .0284977
798.238 .0284942
798.942 .0284897
799.646 .0284841
800.350 .0284770
801.053 .0284687
801.756 .0284588
802.459 .0284477
803.162 .0284347
803.864 .0284201
804.566 .0284036
805.267 .0283854
805.969 .0283656
806.670 .0283452
807.371 .0283248
808.071 .0283055
808.772 .0282879
809.472 .0282716
810.171 .0282572
810.871 .0282448
811.570 .0282337
812.269 .0282243
812.967 .0282159
813.666 .0282088
814.364 .0282024
815.061 .0281972
815.759 .0281926
816.456 .0281887
817.153 .0281854
817.849 .0281815
818.545 .0281769
819.241 .0281713
819.937 .0281639
820.632 .0281547
821.327 .0281429
822.022 .0281280
822.717 .0281101
823.411 .0280895
824.105 .0280664
824.798 .0280417
825.491 .0280166
826.184 .0279918
826.877 .0279683
827.569 .0279463
828.261 .0279263
828.953 .0279075
829.645 .0278898
830.336 .0278722
831.027 .0278540
831.717 .0278358
832.407 .0278176
833.097 .0278000
833.787 .0277835
834.476 .0277686
835.165 .0277562
835.854 .0277453
836.542 .0277364
837.230 .0277283
837.918 .0277209
838.605 .0277136
839.292 .0277065
839.979 .0276985
840.665 .0276907
841.352 .0276832
842.037 .0276762
842.723 .0276701
843.408 .0276650
844.093 .0276604
844.777 .0276567
845.462 .0276539
846.145 .0276511
846.829 .0276475
847.512 .0276437
848.195 .0276396
848.878 .0276348
849.560 .0276297
850.242 .0276246
850.923 .0276193
851.605 .0276141
852.286 .0276087
852.966 .0276027
853.646 .0275961
854.326 .0275887
855.006 .0275804
855.685 .0275708
856.364 .0275610
857.043 .0275509
857.721 .0275412
858.399 .0275323
859.077 .0275242
859.754 .0275162
860.431 .0275084
861.107 .0275003
861.784 .0274917
862.459 .0274827
863.135 .0274739
863.810 .0274657
864.485 .0274587
865.160 .0274535
865.834 .0274505
866.508 .0274490
867.181 .0274489
867.854 .0274491
868.527 .0274488
869.199 .0274472
869.872 .0274441
870.543 .0274402
871.215 .0274353
871.886 .0274301
872.557 .0274249
873.227 .0274200
873.897 .0274149
874.567 .0274097
875.236 .0274030
875.905 .0273949
876.573 .0273852
877.242 .0273733
877.909 .0273598
878.577 .0273459
879.244 .0273317
879.911 .0273176
880.577 .0273040
881.243 .0272915
881.909 .0272785
882.575 .0272661
883.240 .0272531
883.904 .0272392
884.569 .0272248
885.232 .0272101
885.896 .0271948
886.559 .0271801
887.222 .0271657
887.885 .0271520
888.547 .0271391
889.208 .0271273
889.870 .0271163
890.531 .0271061
891.192 .0270972
891.852 .0270888
892.512 .0270806
893.171 .0270733
893.830 .0270657
894.489 .0270579
895.148 .0270501
895.806 .0270420
896.464 .0270337
897.121 .0270252
897.778 .0270165
898.434 .0270071
899.091 .0269968
899.747 .0269854
900.402 .0269724
901.057 .0269579
901.712 .0269420
902.366 .0269241
903.020 .0269055
903.674 .0268865
904.327 .0268670
904.980 .0268476
905.633 .0268291
906.285 .0268107
906.936 .0267924
907.588 .0267739
908.239 .0267554
908.889 .0267368
909.540 .0267185
910.190 .0266999
910.839 .0266820
911.488 .0266651
912.137 .0266494
912.785 .0266345
913.433 .0266215
914.081 .0266093
914.728 .0265977
915.375 .0265863
916.021 .0265747
916.668 .0265620
917.313 .0265490
917.959 .0265352
918.604 .0265211
919.248 .0265066
919.892 .0264921
920.536 .0264773
921.180 .0264633
921.823 .0264495
922.465 .0264354
923.108 .0264209
923.750 .0264056
924.391 .0263893
925.032 .0263722
925.673 .0263547
926.313 .0263373
926.953 .0263205
927.593 .0263046
928.232 .0262891
928.871 .0262742
929.510 .0262601
930.148 .0262464
930.786 .0262328
931.423 .0262194
932.060 .0262063
932.697 .0261934
933.333 .0261809
933.969 .0261683
934.604 .0261560
935.239 .0261434
935.874 .0261307
936.508 .0261174
937.142 .0261038
937.776 .0260902
938.409 .0260772
939.042 .0260645
939.674 .0260527
940.306 .0260409
940.938 .0260300
941.569 .0260192
942.200 .0260090
942.830 .0259989
943.460 .0259891
944.090 .0259793
944.720 .0259692
945.349 .0259590
945.977 .0259493
946.606 .0259402
947.233 .0259320
947.861 .0259242
948.488 .0259176
949.115 .0259117
949.741 .0259067
950.367 .0259024
950.993 .0258987
951.618 .0258949
952.243 .0258913
952.868 .0258876
953.492 .0258839
954.115 .0258798
954.739 .0258755
955.362 .0258711
955.984 .0258664
956.607 .0258610
957.229 .0258549
957.850 .0258484
958.471 .0258419
959.092 .0258346
959.713 .0258266
960.333 .0258183
960.952 .0258104
961.572 .0258026
962.191 .0257952
962.809 .0257889
963.428 .0257830
964.045 .0257776
964.663 .0257730
965.280 .0257692
965.897 .0257662
966.513 .0257649
967.129 .0257648
967.745 .0257662
968.361 .0257689
968.976 .0257716
969.590 .0257747
970.205 .0257781
970.818 .0257808
971.432 .0257819
972.045 .0257818
972.658 .0257811
973.271 .0257792
973.883 .0257767
974.495 .0257734
975.106 .0257696
975.717 .0257658
976.328 .0257612
976.938 .0257560
977.548 .0257504
978.158 .0257445
978.768 .0257372
979.377 .0257297
979.985 .0257212
980.594 .0257113
981.202 .0257008
981.809 .0256899
982.417 .0256792
983.024 .0256691
983.631 .0256599
984.237 .0256520
984.843 .0256459
985.449 .0256405
986.054 .0256347
986.659 .0256288
987.264 .0256218
987.868 .0256128
988.472 .0256023
989.076 .0255909
989.679 .0255792
990.282 .0255682
990.885 .0255590
991.487 .0255514
992.090 .0255457
992.691 .0255403
993.293 .0255343
993.894 .0255269
994.495 .0255172
995.095 .0255042
995.696 .0254886
996.296 .0254705
996.895 .0254509
997.494 .0254309
998.093 .0254119
998.692 .0253943
999.291 .0253784
999.889 .0253637
1000.487 .0253498
1001.084 .0253360
1001.681 .0253218
1002.278 .0253068
1002.875 .0252921
1003.471 .0252777
1004.067 .0252637
1004.663 .0252508
1005.258 .0252394
1005.854 .0252292
1006.449 .0252205
1007.043 .0252129
1007.638 .0252051
1008.232 .0251971
1008.826 .0251892
1009.419 .0251803
1010.012 .0251706
1010.605 .0251604
1011.198 .0251499
1011.791 .0251393
1012.383 .0251292
1012.975 .0251192
1013.566 .0251096
1014.158 .0251011
1014.749 .0250935
1015.340 .0250857
1015.931 .0250783
1016.521 .0250714
1017.111 .0250652
1017.701 .0250596
1018.291 .0250553
1018.880 .0250513
1019.470 .0250491
1020.059 .0250484
1020.647 .0250482
1021.236 .0250485
1021.824 .0250489
1022.412 .0250493
1023.000 .0250491
1023.588 .0250482
1024.175 .0250469
1024.762 .0250450
1025.349 .0250438
1025.936 .0250428
1026.523 .0250417
1027.109 .0250403
1027.695 .0250389
1028.281 .0250363
1028.867 .0250318
1029.452 .0250252
1030.038 .0250164
1030.623 .0250059
1031.208 .0249946
1031.792 .0249832
1032.377 .0249713
1032.961 .0249610
1033.546 .0249522
1034.130 .0249439
1034.714 .0249376
1035.297 .0249332
1035.881 .0249304
1036.464 .0249303
1037.047 .0249324
1037.630 .0249358
1038.213 .0249407
1038.796 .0249484
1039.378 .0249561
1039.961 .0249642
1040.543 .0249726
1041.125 .0249800
1041.707 .0249865
1042.289 .0249930
1042.871 .0249983
1043.452 .0250023
1044.034 .0250061
1044.615 .0250084
1045.196 .0250087
1045.777 .0250078
1046.358 .0250048
1046.939 .0250006
1047.520 .0249961
1048.101 .0249908
1048.681 .0249847
1049.262 .0249804
1049.842 .0249769
1050.422 .0249746
1051.002 .0249740
1051.582 .0249743
1052.162 .0249758
1052.742 .0249776
1053.322 .0249796
1053.902 .0249809
1054.482 .0249821
1055.061 .0249830
1055.641 .0249836
1056.220 .0249852
1056.800 .0249868
1057.379 .0249892
1057.958 .0249924
1058.538 .0249957
1059.117 .0249985
1059.696 .0250011
1060.275 .0250033
1060.854 .0250060
1061.433 .0250097
1062.012 .0250143
1062.592 .0250220
1063.171 .0250327
1063.750 .0250453
1064.329 .0250596
1064.908 .0250745
1065.487 .0250881
1066.066 .0251001
1066.645 .0251111
1067.224 .0251206
1067.803 .0251297
1068.382 .0251396
1068.961 .0251491
1069.540 .0251593
1070.119 .0251704
1070.698 .0251804
1071.278 .0251880
1071.857 .0251943
1072.436 .0251972
1073.016 .0251975
1073.595 .0251966
1074.175 .0251957
1074.754 .0251946
1075.334 .0251954
1075.913 .0251967
1076.493 .0251978
1077.073 .0251982
1077.653 .0251987
1078.233 .0251971
1078.813 .0251961
1079.393 .0251943
1079.974 .0251928
1080.554 .0251915
1081.135 .0251925
1081.716 .0251933
1082.296 .0251922
1082.877 .0251908
1083.458 .0251887
1084.040 .0251831
1084.621 .0251779
1085.202 .0251726
1085.784 .0251694
1086.366 .0251671
1086.948 .0251672
1087.530 .0251668
1088.112 .0251683
1088.695 .0251714
1089.277 .0251752
1089.860 .0251778
1090.443 .0251813
1091.026 .0251828
1091.610 .0251822
1092.193 .0251829
1092.777 .0251825
1093.361 .0251801
1093.946 .0251788
1094.530 .0251755
1095.115 .0251714
1095.700 .0251659
1096.285 .0251637
1096.871 .0251626
1097.456 .0251656
1098.042 .0251709
1098.628 .0251773
1099.215 .0251862
1099.802 .0251986
1100.389 .0252096
1100.976 .0252210
1101.564 .0252320
1102.152 .0252416
1102.740 .0252492
1103.329 .0252567
1103.917 .0252636
1104.507 .0252725
1105.096 .0252829
1105.686 .0252942
1106.276 .0253045
1106.867 .0253177
1107.457 .0253294
1108.049 .0253412
1108.640 .0253516
1109.232 .0253578
1109.825 .0253595
1110.417 .0253562
1111.010 .0253481
1111.604 .0253366
1112.198 .0253240
1112.792 .0253130
1113.387 .0253043
1113.982 .0253016
1114.577 .0253070
1115.173 .0253168
1115.769 .0253309
1116.366 .0253463
1116.963 .0253585
1117.561 .0253701
1118.159 .0253765
1118.758 .0253802
1119.357 .0253826
1119.957 .0253874
1120.557 .0253970
1121.157 .0254094
1121.758 .0254276
1122.360 .0254491
1122.962 .0254673
1123.564 .0254828
1124.167 .0254909
1124.771 .0254899
1125.375 .0254841
1125.980 .0254750
1126.585 .0254621
1127.191 .0254502
1127.797 .0254378
1128.404 .0254299
1129.012 .0254257
1129.620 .0254297
1130.229 .0254368
1130.838 .0254488
1131.448 .0254696
1132.058 .0254931
1132.669 .0255186
1133.281 .0255519
1133.894 .0255886
1134.507 .0256314
1135.120 .0256780
1135.735 .0257278
1136.350 .0257813
1136.965 .0258415
1137.582 .0259036
1138.199 .0259676
1138.816 .0260257
1139.435 .0260770
1140.054 .0261253
1140.674 .0261703
1141.294 .0262117
1141.916 .0262505
1142.538 .0261378
1143.160 .0263811
1143.784 .0264436
1144.408 .0264255
1145.033 .0264540
