Measurement Sequence started on: 14-45-04-498
Integration time: 36
Scans to Average: 2 
>>>>>Begin Spectral Data<<<<<
433.946 .0649418
434.870 .0630299
435.793 .0551646
436.715 .0570630
437.635 .0537187
438.555 .0551491
439.473 .0543236
440.389 .0537779
441.305 .0535831
442.219 .0534064
443.132 .0533779
444.044 .0533789
444.954 .0534178
445.863 .0534728
446.771 .0535186
447.678 .0535559
448.584 .0535817
449.488 .0535731
450.391 .0535465
451.293 .0535141
452.194 .0534987
453.094 .0534812
453.992 .0534543
454.890 .0534145
455.786 .0533663
456.681 .0532972
457.575 .0532099
458.468 .0531144
459.360 .0530065
460.250 .0528969
461.140 .0527811
462.028 .0526648
462.915 .0525386
463.801 .0524022
464.687 .0522595
465.571 .0521119
466.454 .0519615
467.335 .0518086
468.216 .0516698
469.096 .0515500
469.975 .0514470
470.853 .0513567
471.729 .0512733
472.605 .0511927
473.479 .0511038
474.353 .0510029
475.226 .0508999
476.097 .0508031
476.968 .0507151
477.838 .0506374
478.706 .0505791
479.574 .0505379
480.441 .0505072
481.306 .0504818
482.171 .0504562
483.035 .0504242
483.898 .0503859
484.760 .0503338
485.621 .0502732
486.481 .0502122
487.340 .0501559
488.198 .0501070
489.055 .0500690
489.912 .0500415
490.767 .0500197
491.622 .0499986
492.476 .0499764
493.329 .0499464
494.180 .0499036
495.032 .0498500
495.882 .0497804
496.731 .0496958
497.580 .0495980
498.427 .0494922
499.274 .0493820
500.120 .0492763
500.965 .0491773
501.809 .0490839
502.653 .0489952
503.495 .0489169
504.337 .0488344
505.178 .0487523
506.018 .0486665
506.858 .0485770
507.696 .0484875
508.534 .0484016
509.371 .0483208
510.208 .0482584
511.043 .0482162
511.878 .0481972
512.712 .0481941
513.545 .0482096
514.377 .0482300
515.209 .0482501
516.040 .0482676
516.870 .0482779
517.699 .0482834
518.528 .0482881
519.356 .0482956
520.183 .0483178
521.010 .0483580
521.836 .0484139
522.661 .0484869
523.485 .0485732
524.309 .0486648
525.132 .0487596
525.954 .0488491
526.776 .0489316
527.597 .0490147
528.417 .0490939
529.237 .0491654
530.056 .0492268
530.874 .0492821
531.692 .0493191
532.508 .0493401
533.325 .0493363
534.140 .0492991
534.955 .0492333
535.770 .0491407
536.583 .0490233
537.397 .0488968
538.209 .0487601
539.021 .0486199
539.832 .0484739
540.643 .0483324
541.453 .0481812
542.262 .0480282
543.071 .0478780
543.879 .0477321
544.687 .0475945
545.494 .0474709
546.300 .0473629
547.106 .0472794
547.911 .0472075
548.716 .0471512
549.520 .0470954
550.323 .0470425
551.126 .0469844
551.929 .0469273
552.731 .0468707
553.532 .0468175
554.332 .0467630
555.133 .0467161
555.932 .0466713
556.731 .0466265
557.530 .0465735
558.328 .0465197
559.125 .0464625
559.922 .0464032
560.719 .0463330
561.515 .0462646
562.310 .0461921
563.105 .0461235
563.899 .0460520
564.693 .0459809
565.487 .0459093
566.280 .0458432
567.072 .0457774
567.864 .0457187
568.655 .0456598
569.446 .0456050
570.236 .0455501
571.026 .0454985
571.816 .0454410
572.605 .0453779
573.393 .0453074
574.181 .0452398
574.969 .0451709
575.756 .0451089
576.543 .0450488
577.329 .0449991
578.115 .0449553
578.900 .0449161
579.685 .0448774
580.469 .0448433
581.253 .0448096
582.036 .0447803
582.820 .0447496
583.602 .0447199
584.384 .0446939
585.166 .0446720
585.947 .0446506
586.728 .0446303
587.509 .0446088
588.289 .0445862
589.069 .0445599
589.848 .0445326
590.627 .0445002
591.405 .0444661
592.183 .0444312
592.961 .0443940
593.738 .0443555
594.515 .0443169
595.291 .0442771
596.067 .0442365
596.843 .0441972
597.618 .0441580
598.393 .0441192
599.167 .0440828
599.941 .0440500
600.715 .0440212
601.488 .0439966
602.261 .0439767
603.034 .0439606
603.806 .0439496
604.578 .0439433
605.349 .0439394
606.121 .0439385
606.891 .0439392
607.662 .0439406
608.432 .0439406
609.201 .0439407
609.971 .0439390
610.740 .0439335
611.508 .0439248
612.277 .0439133
613.045 .0438977
613.812 .0438792
614.579 .0438589
615.346 .0438382
616.113 .0438175
616.879 .0437981
617.645 .0437793
618.411 .0437625
619.176 .0437474
619.941 .0437330
620.705 .0437184
621.470 .0437058
622.233 .0436937
622.997 .0436828
623.760 .0436748
624.523 .0436706
625.286 .0436688
626.048 .0436694
626.810 .0436696
627.572 .0436685
628.333 .0436641
629.095 .0436554
629.855 .0436415
630.616 .0436235
631.376 .0436016
632.136 .0435775
632.895 .0435527
633.655 .0435287
634.414 .0435053
635.172 .0434822
635.931 .0434589
636.689 .0434336
637.447 .0434060
638.204 .0433765
638.962 .0433461
639.718 .0433171
640.475 .0432896
641.231 .0432643
641.988 .0432423
642.743 .0432228
643.499 .0432055
644.254 .0431898
645.009 .0431746
645.764 .0431593
646.518 .0431438
647.272 .0431263
648.026 .0431081
648.780 .0430890
649.533 .0430709
650.286 .0430529
651.039 .0430358
651.792 .0430196
652.544 .0430035
653.296 .0429887
654.048 .0429750
654.799 .0429616
655.550 .0429484
656.301 .0429340
657.052 .0429181
657.802 .0429013
658.552 .0428833
659.302 .0428635
660.052 .0428436
660.801 .0428237
661.550 .0428039
662.299 .0427848
663.048 .0427666
663.796 .0427499
664.544 .0427327
665.292 .0427161
666.040 .0426980
666.787 .0426786
667.534 .0426581
668.281 .0426353
669.028 .0426113
669.774 .0425867
670.521 .0425613
671.266 .0425362
672.012 .0425121
672.758 .0424898
673.503 .0424681
674.248 .0424482
674.992 .0424295
675.737 .0424116
676.481 .0423941
677.225 .0423762
677.969 .0423568
678.712 .0423358
679.455 .0423125
680.199 .0422869
680.941 .0422601
681.684 .0422328
682.426 .0422054
683.168 .0421790
683.910 .0421534
684.652 .0421289
685.393 .0421056
686.134 .0420837
686.875 .0420623
687.616 .0420409
688.356 .0420189
689.097 .0419954
689.837 .0419713
690.576 .0419464
691.316 .0419221
692.055 .0418995
692.794 .0418786
693.533 .0418604
694.272 .0418443
695.010 .0418299
695.748 .0418158
696.486 .0418012
697.224 .0417857
697.962 .0417676
698.699 .0417476
699.436 .0417260
700.173 .0417036
700.909 .0416815
701.646 .0416605
702.382 .0416412
703.118 .0416241
703.853 .0416081
704.589 .0415924
705.324 .0415769
706.059 .0415612
706.794 .0415446
707.529 .0415274
708.263 .0415096
708.997 .0414919
709.731 .0414735
710.465 .0414560
711.198 .0414390
711.931 .0414221
712.664 .0414045
713.397 .0413859
714.130 .0413661
714.862 .0413450
715.594 .0413224
716.326 .0412996
717.058 .0412768
717.789 .0412550
718.520 .0412335
719.251 .0412133
719.982 .0411939
720.713 .0411753
721.443 .0411563
722.173 .0411366
722.903 .0411158
723.633 .0410940
724.362 .0410710
725.091 .0410477
725.820 .0410246
726.549 .0410024
727.278 .0409815
728.006 .0409618
728.734 .0409429
729.462 .0409243
730.190 .0409056
730.917 .0408864
731.644 .0408660
732.371 .0408450
733.098 .0408242
733.825 .0408037
734.551 .0407851
735.277 .0407680
736.003 .0407532
736.728 .0407404
737.454 .0407291
738.179 .0407185
738.904 .0407082
739.629 .0406983
740.353 .0406887
741.077 .0406795
741.801 .0406714
742.525 .0406641
743.249 .0406583
743.972 .0406533
744.695 .0406487
745.418 .0406430
746.141 .0406352
746.863 .0406251
747.585 .0406123
748.307 .0405964
749.029 .0405785
749.750 .0405599
750.472 .0405414
751.193 .0405230
751.913 .0405047
752.634 .0404860
753.354 .0404670
754.074 .0404472
754.794 .0404253
755.514 .0404019
756.233 .0403775
756.952 .0403524
757.671 .0403282
758.390 .0403061
759.108 .0402865
759.826 .0402705
760.544 .0402578
761.262 .0402478
761.979 .0402393
762.697 .0402317
763.414 .0402242
764.130 .0402162
764.847 .0402073
765.563 .0401967
766.279 .0401840
766.995 .0401705
767.710 .0401552
768.426 .0401389
769.141 .0401217
769.855 .0401040
770.570 .0400859
771.284 .0400675
771.998 .0400486
772.712 .0400295
773.426 .0400097
774.139 .0399896
774.852 .0399684
775.565 .0399463
776.277 .0399240
776.990 .0399026
777.702 .0398816
778.414 .0398618
779.125 .0398434
779.836 .0398261
780.547 .0398092
781.258 .0397937
781.969 .0397782
782.679 .0397628
783.389 .0397477
784.099 .0397319
784.808 .0397156
785.517 .0397001
786.226 .0396851
786.935 .0396705
787.643 .0396578
788.352 .0396460
789.060 .0396347
789.767 .0396248
790.475 .0396155
791.182 .0396062
791.889 .0395977
792.595 .0395894
793.301 .0395804
794.008 .0395719
794.713 .0395635
795.419 .0395545
796.124 .0395455
796.829 .0395358
797.534 .0395244
798.238 .0395118
798.942 .0394984
799.646 .0394838
800.350 .0394687
801.053 .0394534
801.756 .0394378
802.459 .0394226
803.162 .0394082
803.864 .0393937
804.566 .0393795
805.267 .0393650
805.969 .0393495
806.670 .0393342
807.371 .0393194
808.071 .0393059
808.772 .0392948
809.472 .0392855
810.171 .0392782
810.871 .0392721
811.570 .0392665
812.269 .0392596
812.967 .0392518
813.666 .0392423
814.364 .0392315
815.061 .0392203
815.759 .0392104
816.456 .0392016
817.153 .0391948
817.849 .0391889
818.545 .0391824
819.241 .0391741
819.937 .0391630
820.632 .0391477
821.327 .0391288
822.022 .0391063
822.717 .0390817
823.411 .0390556
824.105 .0390294
824.798 .0390029
825.491 .0389768
826.184 .0389510
826.877 .0389247
827.569 .0388975
828.261 .0388696
828.953 .0388407
829.645 .0388117
830.336 .0387826
831.027 .0387542
831.717 .0387270
832.407 .0387011
833.097 .0386765
833.787 .0386529
834.476 .0386302
835.165 .0386087
835.854 .0385884
836.542 .0385697
837.230 .0385514
837.918 .0385339
838.605 .0385167
839.292 .0384998
839.979 .0384831
840.665 .0384667
841.352 .0384506
842.037 .0384353
842.723 .0384208
843.408 .0384074
844.093 .0383953
844.777 .0383849
845.462 .0383757
846.145 .0383665
846.829 .0383576
847.512 .0383481
848.195 .0383377
848.878 .0383261
849.560 .0383129
850.242 .0382980
850.923 .0382817
851.605 .0382637
852.286 .0382444
852.966 .0382244
853.646 .0382041
854.326 .0381837
855.006 .0381633
855.685 .0381428
856.364 .0381216
857.043 .0381001
857.721 .0380782
858.399 .0380552
859.077 .0380316
859.754 .0380070
860.431 .0379822
861.107 .0379573
861.784 .0379325
862.459 .0379079
863.135 .0378838
863.810 .0378609
864.485 .0378381
865.160 .0378158
865.834 .0377943
866.508 .0377733
867.181 .0377534
867.854 .0377342
868.527 .0377167
869.199 .0376998
869.872 .0376853
870.543 .0376724
871.215 .0376612
871.886 .0376522
872.557 .0376446
873.227 .0376382
873.897 .0376330
874.567 .0376285
875.236 .0376242
875.905 .0376205
876.573 .0376177
877.242 .0376144
877.909 .0376111
878.577 .0376070
879.244 .0376018
879.911 .0375950
880.577 .0375871
881.243 .0375768
881.909 .0375655
882.575 .0375536
883.240 .0375406
883.904 .0375271
884.569 .0375130
885.232 .0374981
885.896 .0374816
886.559 .0374643
887.222 .0374457
887.885 .0374259
888.547 .0374059
889.208 .0373857
889.870 .0373654
890.531 .0373465
891.192 .0373277
891.852 .0373093
892.512 .0372913
893.171 .0372731
893.830 .0372544
894.489 .0372358
895.148 .0372174
895.806 .0372003
896.464 .0371846
897.121 .0371710
897.778 .0371583
898.434 .0371472
899.091 .0371363
899.747 .0371247
900.402 .0371120
901.057 .0370978
901.712 .0370813
902.366 .0370629
903.020 .0370433
903.674 .0370231
904.327 .0370025
904.980 .0369826
905.633 .0369624
906.285 .0369427
906.936 .0369223
907.588 .0369008
908.239 .0368776
908.889 .0368531
909.540 .0368264
910.190 .0367975
910.839 .0367678
911.488 .0367378
912.137 .0367079
912.785 .0366784
913.433 .0366497
914.081 .0366218
914.728 .0365942
915.375 .0365667
916.021 .0365390
916.668 .0365116
917.313 .0364841
917.959 .0364565
918.604 .0364296
919.248 .0364031
919.892 .0363777
920.536 .0363526
921.180 .0363288
921.823 .0363052
922.465 .0362815
923.108 .0362578
923.750 .0362342
924.391 .0362110
925.032 .0361878
925.673 .0361645
926.313 .0361412
926.953 .0361182
927.593 .0360944
928.232 .0360698
928.871 .0360450
929.510 .0360201
930.148 .0359950
930.786 .0359702
931.423 .0359459
932.060 .0359231
932.697 .0359019
933.333 .0358816
933.969 .0358616
934.604 .0358428
935.239 .0358244
935.874 .0358062
936.508 .0357888
937.142 .0357725
937.776 .0357566
938.409 .0357424
939.042 .0357293
939.674 .0357176
940.306 .0357073
940.938 .0356987
941.569 .0356919
942.200 .0356865
942.830 .0356823
943.460 .0356787
944.090 .0356758
944.720 .0356734
945.349 .0356707
945.977 .0356673
946.606 .0356637
947.233 .0356597
947.861 .0356546
948.488 .0356486
949.115 .0356414
949.741 .0356329
950.367 .0356229
950.993 .0356112
951.618 .0355980
952.243 .0355832
952.868 .0355670
953.492 .0355488
954.115 .0355292
954.739 .0355090
955.362 .0354886
955.984 .0354680
956.607 .0354477
957.229 .0354287
957.850 .0354102
958.471 .0353927
959.092 .0353757
959.713 .0353594
960.333 .0353435
960.952 .0353280
961.572 .0353127
962.191 .0352977
962.809 .0352835
963.428 .0352701
964.045 .0352571
964.663 .0352452
965.280 .0352342
965.897 .0352241
966.513 .0352142
967.129 .0352049
967.745 .0351950
968.361 .0351853
968.976 .0351752
969.590 .0351651
970.205 .0351548
970.818 .0351455
971.432 .0351371
972.045 .0351288
972.658 .0351211
973.271 .0351130
973.883 .0351034
974.495 .0350922
975.106 .0350787
975.717 .0350630
976.328 .0350451
976.938 .0350265
977.548 .0350075
978.158 .0349889
978.768 .0349706
979.377 .0349528
979.985 .0349349
980.594 .0349163
981.202 .0348965
981.809 .0348757
982.417 .0348541
983.024 .0348326
983.631 .0348113
984.237 .0347913
984.843 .0347731
985.449 .0347563
986.054 .0347394
986.659 .0347230
987.264 .0347062
987.868 .0346883
988.472 .0346698
989.076 .0346517
989.679 .0346342
990.282 .0346187
990.885 .0346045
991.487 .0345918
992.090 .0345798
992.691 .0345686
993.293 .0345564
993.894 .0345439
994.495 .0345322
995.095 .0345206
995.696 .0345102
996.296 .0345013
996.895 .0344928
997.494 .0344852
998.093 .0344775
998.692 .0344698
999.291 .0344609
999.889 .0344509
1000.487 .0344393
1001.084 .0344270
1001.681 .0344138
1002.278 .0343996
1002.875 .0343851
1003.471 .0343699
1004.067 .0343540
1004.663 .0343368
1005.258 .0343190
1005.854 .0343005
1006.449 .0342819
1007.043 .0342640
1007.638 .0342464
1008.232 .0342300
1008.826 .0342147
1009.419 .0342003
1010.012 .0341878
1010.605 .0341764
1011.198 .0341655
1011.791 .0341548
1012.383 .0341447
1012.975 .0341348
1013.566 .0341251
1014.158 .0341153
1014.749 .0341061
1015.340 .0340978
1015.931 .0340898
1016.521 .0340823
1017.111 .0340754
1017.701 .0340697
1018.291 .0340649
1018.880 .0340604
1019.470 .0340564
1020.059 .0340526
1020.647 .0340485
1021.236 .0340443
1021.824 .0340401
1022.412 .0340364
1023.000 .0340327
1023.588 .0340306
1024.175 .0340294
1024.762 .0340298
1025.349 .0340318
1025.936 .0340353
1026.523 .0340401
1027.109 .0340468
1027.695 .0340535
1028.281 .0340611
1028.867 .0340686
1029.452 .0340764
1030.038 .0340832
1030.623 .0340897
1031.208 .0340967
1031.792 .0341039
1032.377 .0341116
1032.961 .0341197
1033.546 .0341272
1034.130 .0341353
1034.714 .0341420
1035.297 .0341482
1035.881 .0341534
1036.464 .0341583
1037.047 .0341626
1037.630 .0341669
1038.213 .0341720
1038.796 .0341781
1039.378 .0341855
1039.961 .0341937
1040.543 .0342029
1041.125 .0342121
1041.707 .0342213
1042.289 .0342298
1042.871 .0342376
1043.452 .0342455
1044.034 .0342529
1044.615 .0342607
1045.196 .0342690
1045.777 .0342766
1046.358 .0342845
1046.939 .0342912
1047.520 .0342956
1048.101 .0342957
1048.681 .0342914
1049.262 .0342817
1049.842 .0342685
1050.422 .0342515
1051.002 .0342335
1051.582 .0342157
1052.162 .0342006
1052.742 .0341881
1053.322 .0341785
1053.902 .0341728
1054.482 .0341694
1055.061 .0341651
1055.641 .0341625
1056.220 .0341576
1056.800 .0341524
1057.379 .0341468
1057.958 .0341423
1058.538 .0341408
1059.117 .0341427
1059.696 .0341485
1060.275 .0341576
1060.854 .0341694
1061.433 .0341819
1062.012 .0341932
1062.592 .0342037
1063.171 .0342128
1063.750 .0342196
1064.329 .0342231
1064.908 .0342234
1065.487 .0342196
1066.066 .0342137
1066.645 .0342044
1067.224 .0341942
1067.803 .0341835
1068.382 .0341705
1068.961 .0341582
1069.540 .0341456
1070.119 .0341329
1070.698 .0341181
1071.278 .0341013
1071.857 .0340815
1072.436 .0340574
1073.016 .0340303
1073.595 .0339986
1074.175 .0339682
1074.754 .0339399
1075.334 .0339151
1075.913 .0338937
1076.493 .0338784
1077.073 .0338681
1077.653 .0338619
1078.233 .0338593
1078.813 .0338583
1079.393 .0338571
1079.974 .0338566
1080.554 .0338550
1081.135 .0338545
1081.716 .0338534
1082.296 .0338558
1082.877 .0338592
1083.458 .0338646
1084.040 .0338669
1084.621 .0338675
1085.202 .0338658
1085.784 .0338611
1086.366 .0338514
1086.948 .0338377
1087.530 .0338224
1088.112 .0338087
1088.695 .0337939
1089.277 .0337814
1089.860 .0337705
1090.443 .0337622
1091.026 .0337519
1091.610 .0337401
1092.193 .0337247
1092.777 .0337078
1093.361 .0336895
1093.946 .0336713
1094.530 .0336561
1095.115 .0336436
1095.700 .0336339
1096.285 .0336260
1096.871 .0336186
1097.456 .0336092
1098.042 .0335929
1098.628 .0335736
1099.215 .0335457
1099.802 .0335118
1100.389 .0334737
1100.976 .0334329
1101.564 .0333947
1102.152 .0333584
1102.740 .0333241
1103.329 .0332921
1103.917 .0332622
1104.507 .0332325
1105.096 .0331990
1105.686 .0331666
1106.276 .0331340
1106.867 .0331029
1107.457 .0330740
1108.049 .0330501
1108.640 .0330334
1109.232 .0330289
1109.825 .0330357
1110.417 .0330526
1111.010 .0330809
1111.604 .0331158
1112.198 .0331541
1112.792 .0331932
1113.387 .0332300
1113.982 .0332668
1114.577 .0333049
1115.173 .0333473
1115.769 .0333912
1116.366 .0334390
1116.963 .0334901
1117.561 .0335404
1118.159 .0335883
1118.758 .0336260
1119.357 .0336522
1119.957 .0336661
1120.557 .0336714
1121.157 .0336714
1121.758 .0336690
1122.360 .0336715
1122.962 .0336824
1123.564 .0337033
1124.167 .0337299
1124.771 .0337595
1125.375 .0337907
1125.980 .0338216
1126.585 .0338540
1127.191 .0338816
1127.797 .0339088
1128.404 .0339391
1129.012 .0339731
1129.620 .0340102
1130.229 .0340538
1130.838 .0341005
1131.448 .0341481
1132.058 .0341980
1132.669 .0342486
1133.281 .0342945
1133.894 .0343449
1134.507 .0343960
1135.120 .0344498
1135.735 .0345007
1136.350 .0345498
1136.965 .0345966
1137.582 .0346466
1138.199 .0347000
1138.816 .0347583
1139.435 .0348257
1140.054 .0349104
1140.674 .0350042
1141.294 .0351043
1141.916 .0352320
1142.538 .0353407
1143.160 .0355226
1143.784 .0355812
1144.408 .0355343
1145.033 .0363327
