Measurement Sequence started on: 14-45-04-498
Integration time: 36
Scans to Average: 2 
>>>>>Begin Spectral Data<<<<<
433.946 .0500140
434.870 .0475078
435.793 .0450360
436.715 .0423613
437.635 .0418171
438.555 .0437695
439.473 .0435912
440.389 .0436625
441.305 .0438863
442.219 .0441864
443.132 .0444769
444.044 .0447240
444.954 .0449520
445.863 .0451625
446.771 .0453688
447.678 .0455647
448.584 .0457538
449.488 .0459077
450.391 .0460173
451.293 .0460824
452.194 .0461021
453.094 .0460725
453.992 .0460079
454.890 .0459250
455.786 .0458326
456.681 .0457356
457.575 .0456403
458.468 .0455436
459.360 .0454513
460.250 .0453567
461.140 .0452498
462.028 .0451349
462.915 .0450133
463.801 .0448822
464.687 .0447460
465.571 .0446128
466.454 .0444874
467.335 .0443730
468.216 .0442733
469.096 .0441858
469.975 .0441067
470.853 .0440379
471.729 .0439695
472.605 .0439006
473.479 .0438300
474.353 .0437520
475.226 .0436694
476.097 .0435908
476.968 .0435133
477.838 .0434425
478.706 .0433859
479.574 .0433441
480.441 .0433140
481.306 .0432926
482.171 .0432730
483.035 .0432516
483.898 .0432272
484.760 .0431944
485.621 .0431512
486.481 .0431050
487.340 .0430595
488.198 .0430189
489.055 .0429891
489.912 .0429713
490.767 .0429624
491.622 .0429588
492.476 .0429553
493.329 .0429445
494.180 .0429264
495.032 .0429002
495.882 .0428681
496.731 .0428350
497.580 .0428027
498.427 .0427714
499.274 .0427445
500.120 .0427208
500.965 .0426964
501.809 .0426659
502.653 .0426259
503.495 .0425753
504.337 .0425138
505.178 .0424477
506.018 .0423812
506.858 .0423207
507.696 .0422710
508.534 .0422292
509.371 .0421969
510.208 .0421729
511.043 .0421539
511.878 .0421408
512.712 .0421318
513.545 .0421259
514.377 .0421240
515.209 .0421267
516.040 .0421372
516.870 .0421560
517.699 .0421816
518.528 .0422066
519.356 .0422289
520.183 .0422464
521.010 .0422523
521.836 .0422478
522.661 .0422330
523.485 .0422049
524.309 .0421654
525.132 .0421162
525.954 .0420572
526.776 .0419926
527.597 .0419331
528.417 .0418748
529.237 .0418276
530.056 .0417898
530.874 .0417607
531.692 .0417408
532.508 .0417287
533.325 .0417183
534.140 .0417037
534.955 .0416836
535.770 .0416554
536.583 .0416220
537.397 .0415884
538.209 .0415534
539.021 .0415196
539.832 .0414856
540.643 .0414495
541.453 .0414032
542.262 .0413458
543.071 .0412745
543.879 .0411955
544.687 .0411106
545.494 .0410176
546.300 .0409294
547.106 .0408411
547.911 .0407615
548.716 .0406850
549.520 .0406060
550.323 .0405258
551.126 .0404433
551.929 .0403611
552.731 .0402783
553.532 .0402026
554.332 .0401391
555.133 .0400870
555.932 .0400534
556.731 .0400288
557.530 .0400134
558.328 .0400053
559.125 .0400014
559.922 .0399960
560.719 .0399883
561.515 .0399764
562.310 .0399605
563.105 .0399430
563.899 .0399243
564.693 .0399054
565.487 .0398858
566.280 .0398636
567.072 .0398411
567.864 .0398166
568.655 .0397881
569.446 .0397578
570.236 .0397287
571.026 .0396987
571.816 .0396682
572.605 .0396362
573.393 .0396042
574.181 .0395749
574.969 .0395474
575.756 .0395161
576.543 .0394819
577.329 .0394479
578.115 .0394090
578.900 .0393682
579.685 .0393291
580.469 .0392905
581.253 .0392546
582.036 .0392227
582.820 .0391933
583.602 .0391661
584.384 .0391425
585.166 .0391199
585.947 .0390978
586.728 .0390781
587.509 .0390595
588.289 .0390421
589.069 .0390293
589.848 .0390205
590.627 .0390126
591.405 .0390072
592.183 .0390026
592.961 .0389972
593.738 .0389908
594.515 .0389820
595.291 .0389714
596.067 .0389595
596.843 .0389461
597.618 .0389311
598.393 .0389162
599.167 .0389024
599.941 .0388870
600.715 .0388707
601.488 .0388538
602.261 .0388359
603.034 .0388163
603.806 .0387954
604.578 .0387742
605.349 .0387529
606.121 .0387316
606.891 .0387104
607.662 .0386893
608.432 .0386685
609.201 .0386473
609.971 .0386261
610.740 .0386045
611.508 .0385825
612.277 .0385604
613.045 .0385392
613.812 .0385191
614.579 .0384995
615.346 .0384807
616.113 .0384634
616.879 .0384474
617.645 .0384323
618.411 .0384181
619.176 .0384056
619.941 .0383949
620.705 .0383857
621.470 .0383778
622.233 .0383712
622.997 .0383660
623.760 .0383612
624.523 .0383565
625.286 .0383517
626.048 .0383459
626.810 .0383388
627.572 .0383308
628.333 .0383217
629.095 .0383115
629.855 .0383004
630.616 .0382890
631.376 .0382766
632.136 .0382635
632.895 .0382491
633.655 .0382336
634.414 .0382172
635.172 .0381994
635.931 .0381801
636.689 .0381594
637.447 .0381378
638.204 .0381151
638.962 .0380913
639.718 .0380676
640.475 .0380430
641.231 .0380184
641.988 .0379943
642.743 .0379710
643.499 .0379480
644.254 .0379259
645.009 .0379043
645.764 .0378824
646.518 .0378608
647.272 .0378391
648.026 .0378170
648.780 .0377952
649.533 .0377732
650.286 .0377517
651.039 .0377306
651.792 .0377105
652.544 .0376905
653.296 .0376719
654.048 .0376541
654.799 .0376362
655.550 .0376188
656.301 .0376015
657.052 .0375843
657.802 .0375669
658.552 .0375495
659.302 .0375322
660.052 .0375150
660.801 .0374981
661.550 .0374810
662.299 .0374651
663.048 .0374495
663.796 .0374346
664.544 .0374205
665.292 .0374068
666.040 .0373931
666.787 .0373791
667.534 .0373653
668.281 .0373510
669.028 .0373364
669.774 .0373219
670.521 .0373071
671.266 .0372929
672.012 .0372796
672.758 .0372668
673.503 .0372543
674.248 .0372421
674.992 .0372294
675.737 .0372161
676.481 .0372023
677.225 .0371879
677.969 .0371735
678.712 .0371597
679.455 .0371467
680.199 .0371339
680.941 .0371219
681.684 .0371104
682.426 .0370985
683.168 .0370864
683.910 .0370734
684.652 .0370597
685.393 .0370457
686.134 .0370320
686.875 .0370189
687.616 .0370073
688.356 .0369968
689.097 .0369874
689.837 .0369785
690.576 .0369695
691.316 .0369599
692.055 .0369494
692.794 .0369380
693.533 .0369258
694.272 .0369130
695.010 .0369008
695.748 .0368888
696.486 .0368775
697.224 .0368665
697.962 .0368551
698.699 .0368433
699.436 .0368301
700.173 .0368153
700.909 .0367986
701.646 .0367802
702.382 .0367603
703.118 .0367388
703.853 .0367165
704.589 .0366935
705.324 .0366704
706.059 .0366472
706.794 .0366240
707.529 .0366007
708.263 .0365776
708.997 .0365549
709.731 .0365316
710.465 .0365083
711.198 .0364849
711.931 .0364614
712.664 .0364379
713.397 .0364146
714.130 .0363918
714.862 .0363700
715.594 .0363493
716.326 .0363301
717.058 .0363124
717.789 .0362962
718.520 .0362807
719.251 .0362658
719.982 .0362506
720.713 .0362349
721.443 .0362182
722.173 .0362012
722.903 .0361839
723.633 .0361677
724.362 .0361526
725.091 .0361397
725.820 .0361290
726.549 .0361202
727.278 .0361127
728.006 .0361058
728.734 .0360983
729.462 .0360896
730.190 .0360794
730.917 .0360677
731.644 .0360543
732.371 .0360406
733.098 .0360268
733.825 .0360135
734.551 .0360017
735.277 .0359912
736.003 .0359815
736.728 .0359727
737.454 .0359640
738.179 .0359552
738.904 .0359460
739.629 .0359365
740.353 .0359266
741.077 .0359171
741.801 .0359082
742.525 .0359001
743.249 .0358934
743.972 .0358880
744.695 .0358839
745.418 .0358807
746.141 .0358771
746.863 .0358730
747.585 .0358674
748.307 .0358599
749.029 .0358498
749.750 .0358372
750.472 .0358226
751.193 .0358066
751.913 .0357899
752.634 .0357727
753.354 .0357551
754.074 .0357378
754.794 .0357201
755.514 .0357016
756.233 .0356820
756.952 .0356609
757.671 .0356389
758.390 .0356162
759.108 .0355933
759.826 .0355708
760.544 .0355494
761.262 .0355298
761.979 .0355113
762.697 .0354935
763.414 .0354758
764.130 .0354579
764.847 .0354399
765.563 .0354211
766.279 .0354016
766.995 .0353823
767.710 .0353633
768.426 .0353452
769.141 .0353280
769.855 .0353120
770.570 .0352966
771.284 .0352815
771.998 .0352662
772.712 .0352502
773.426 .0352335
774.139 .0352165
774.852 .0351994
775.565 .0351825
776.277 .0351660
776.990 .0351497
777.702 .0351339
778.414 .0351185
779.125 .0351032
779.836 .0350879
780.547 .0350728
781.258 .0350585
781.969 .0350446
782.679 .0350318
783.389 .0350201
784.099 .0350095
784.808 .0350000
785.517 .0349912
786.226 .0349826
786.935 .0349740
787.643 .0349650
788.352 .0349554
789.060 .0349455
789.767 .0349354
790.475 .0349249
791.182 .0349143
791.889 .0349036
792.595 .0348929
793.301 .0348814
794.008 .0348701
794.713 .0348583
795.419 .0348464
796.124 .0348346
796.829 .0348227
797.534 .0348111
798.238 .0348001
798.942 .0347894
799.646 .0347794
800.350 .0347699
801.053 .0347610
801.756 .0347520
802.459 .0347433
803.162 .0347343
803.864 .0347257
804.566 .0347168
805.267 .0347080
805.969 .0346983
806.670 .0346883
807.371 .0346777
808.071 .0346670
808.772 .0346557
809.472 .0346438
810.171 .0346318
810.871 .0346198
811.570 .0346075
812.269 .0345953
812.967 .0345831
813.666 .0345715
814.364 .0345603
815.061 .0345498
815.759 .0345396
816.456 .0345296
817.153 .0345194
817.849 .0345086
818.545 .0344965
819.241 .0344833
819.937 .0344690
820.632 .0344540
821.327 .0344383
822.022 .0344222
822.717 .0344060
823.411 .0343902
824.105 .0343745
824.798 .0343587
825.491 .0343425
826.184 .0343257
826.877 .0343078
827.569 .0342887
828.261 .0342689
828.953 .0342480
829.645 .0342266
830.336 .0342050
831.027 .0341837
831.717 .0341627
832.407 .0341424
833.097 .0341228
833.787 .0341035
834.476 .0340842
835.165 .0340645
835.854 .0340444
836.542 .0340241
837.230 .0340031
837.918 .0339819
838.605 .0339609
839.292 .0339403
839.979 .0339197
840.665 .0338997
841.352 .0338802
842.037 .0338610
842.723 .0338414
843.408 .0338217
844.093 .0338016
844.777 .0337812
845.462 .0337606
846.145 .0337402
846.829 .0337198
847.512 .0337002
848.195 .0336811
848.878 .0336631
849.560 .0336454
850.242 .0336282
850.923 .0336105
851.605 .0335920
852.286 .0335725
852.966 .0335525
853.646 .0335319
854.326 .0335115
855.006 .0334910
855.685 .0334706
856.364 .0334505
857.043 .0334309
857.721 .0334112
858.399 .0333919
859.077 .0333723
859.754 .0333520
860.431 .0333311
861.107 .0333103
861.784 .0332900
862.459 .0332711
863.135 .0332540
863.810 .0332386
864.485 .0332248
865.160 .0332130
865.834 .0332028
866.508 .0331939
867.181 .0331859
867.854 .0331779
868.527 .0331694
869.199 .0331605
869.872 .0331508
870.543 .0331408
871.215 .0331307
871.886 .0331207
872.557 .0331104
873.227 .0330998
873.897 .0330888
874.567 .0330778
875.236 .0330667
875.905 .0330559
876.573 .0330447
877.242 .0330330
877.909 .0330214
878.577 .0330101
879.244 .0329992
879.911 .0329889
880.577 .0329794
881.243 .0329706
881.909 .0329627
882.575 .0329555
883.240 .0329486
883.904 .0329428
884.569 .0329377
885.232 .0329329
885.896 .0329285
886.559 .0329248
887.222 .0329211
887.885 .0329180
888.547 .0329150
889.208 .0329117
889.870 .0329082
890.531 .0329047
891.192 .0329009
891.852 .0328972
892.512 .0328934
893.171 .0328894
893.830 .0328850
894.489 .0328803
895.148 .0328746
895.806 .0328677
896.464 .0328601
897.121 .0328514
897.778 .0328419
898.434 .0328316
899.091 .0328206
899.747 .0328092
900.402 .0327971
901.057 .0327842
901.712 .0327705
902.366 .0327556
903.020 .0327404
903.674 .0327249
904.327 .0327096
904.980 .0326949
905.633 .0326814
906.285 .0326685
906.936 .0326562
907.588 .0326441
908.239 .0326316
908.889 .0326183
909.540 .0326036
910.190 .0325872
910.839 .0325694
911.488 .0325500
912.137 .0325294
912.785 .0325071
913.433 .0324844
914.081 .0324603
914.728 .0324353
915.375 .0324091
916.021 .0323820
916.668 .0323540
917.313 .0323253
917.959 .0322954
918.604 .0322649
919.248 .0322336
919.892 .0322017
920.536 .0321695
921.180 .0321377
921.823 .0321068
922.465 .0320775
923.108 .0320500
923.750 .0320246
924.391 .0320008
925.032 .0319785
925.673 .0319572
926.313 .0319362
926.953 .0319149
927.593 .0318926
928.232 .0318693
928.871 .0318451
929.510 .0318206
930.148 .0317956
930.786 .0317709
931.423 .0317465
932.060 .0317222
932.697 .0316971
933.333 .0316713
933.969 .0316445
934.604 .0316166
935.239 .0315878
935.874 .0315585
936.508 .0315292
937.142 .0315006
937.776 .0314731
938.409 .0314469
939.042 .0314220
939.674 .0313983
940.306 .0313749
940.938 .0313526
941.569 .0313306
942.200 .0313095
942.830 .0312890
943.460 .0312698
944.090 .0312518
944.720 .0312346
945.349 .0312179
945.977 .0312013
946.606 .0311842
947.233 .0311665
947.861 .0311474
948.488 .0311273
949.115 .0311067
949.741 .0310865
950.367 .0310668
950.993 .0310488
951.618 .0310322
952.243 .0310170
952.868 .0310023
953.492 .0309880
954.115 .0309730
954.739 .0309574
955.362 .0309412
955.984 .0309248
956.607 .0309088
957.229 .0308944
957.850 .0308814
958.471 .0308705
959.092 .0308611
959.713 .0308530
960.333 .0308453
960.952 .0308381
961.572 .0308305
962.191 .0308232
962.809 .0308163
963.428 .0308099
964.045 .0308041
964.663 .0307996
965.280 .0307957
965.897 .0307930
966.513 .0307904
967.129 .0307880
967.745 .0307854
968.361 .0307831
968.976 .0307803
969.590 .0307772
970.205 .0307738
970.818 .0307700
971.432 .0307656
972.045 .0307610
972.658 .0307552
973.271 .0307490
973.883 .0307424
974.495 .0307357
975.106 .0307291
975.717 .0307232
976.328 .0307174
976.938 .0307125
977.548 .0307083
978.158 .0307042
978.768 .0307001
979.377 .0306964
979.985 .0306929
980.594 .0306896
981.202 .0306873
981.809 .0306860
982.417 .0306859
983.024 .0306879
983.631 .0306906
984.237 .0306940
984.843 .0306978
985.449 .0307008
986.054 .0307020
986.659 .0307018
987.264 .0307004
987.868 .0306978
988.472 .0306954
989.076 .0306937
989.679 .0306932
990.282 .0306941
990.885 .0306957
991.487 .0306975
992.090 .0306989
992.691 .0306990
993.293 .0306968
993.894 .0306929
994.495 .0306875
995.095 .0306815
995.696 .0306757
996.296 .0306711
996.895 .0306685
997.494 .0306673
998.093 .0306673
998.692 .0306678
999.291 .0306679
999.889 .0306662
1000.487 .0306626
1001.084 .0306572
1001.681 .0306495
1002.278 .0306403
1002.875 .0306305
1003.471 .0306213
1004.067 .0306133
1004.663 .0306066
1005.258 .0306010
1005.854 .0305961
1006.449 .0305913
1007.043 .0305852
1007.638 .0305780
1008.232 .0305698
1008.826 .0305603
1009.419 .0305506
1010.012 .0305411
1010.605 .0305318
1011.198 .0305229
1011.791 .0305144
1012.383 .0305057
1012.975 .0304965
1013.566 .0304854
1014.158 .0304727
1014.749 .0304585
1015.340 .0304436
1015.931 .0304281
1016.521 .0304127
1017.111 .0303978
1017.701 .0303832
1018.291 .0303688
1018.880 .0303536
1019.470 .0303376
1020.059 .0303214
1020.647 .0303048
1021.236 .0302882
1021.824 .0302725
1022.412 .0302579
1023.000 .0302444
1023.588 .0302330
1024.175 .0302227
1024.762 .0302128
1025.349 .0302025
1025.936 .0301918
1026.523 .0301802
1027.109 .0301683
1027.695 .0301561
1028.281 .0301436
1028.867 .0301315
1029.452 .0301198
1030.038 .0301075
1030.623 .0300951
1031.208 .0300824
1031.792 .0300696
1032.377 .0300562
1032.961 .0300432
1033.546 .0300300
1034.130 .0300175
1034.714 .0300060
1035.297 .0299954
1035.881 .0299854
1036.464 .0299767
1037.047 .0299682
1037.630 .0299599
1038.213 .0299525
1038.796 .0299454
1039.378 .0299378
1039.961 .0299307
1040.543 .0299232
1041.125 .0299146
1041.707 .0299048
1042.289 .0298934
1042.871 .0298806
1043.452 .0298674
1044.034 .0298544
1044.615 .0298411
1045.196 .0298292
1045.777 .0298189
1046.358 .0298089
1046.939 .0297997
1047.520 .0297901
1048.101 .0297795
1048.681 .0297673
1049.262 .0297534
1049.842 .0297382
1050.422 .0297224
1051.002 .0297074
1051.582 .0296931
1052.162 .0296814
1052.742 .0296718
1053.322 .0296629
1053.902 .0296540
1054.482 .0296448
1055.061 .0296338
1055.641 .0296202
1056.220 .0296043
1056.800 .0295868
1057.379 .0295688
1057.958 .0295511
1058.538 .0295344
1059.117 .0295210
1059.696 .0295110
1060.275 .0295034
1060.854 .0294976
1061.433 .0294947
1062.012 .0294928
1062.592 .0294914
1063.171 .0294912
1063.750 .0294918
1064.329 .0294935
1064.908 .0294956
1065.487 .0294976
1066.066 .0295001
1066.645 .0295024
1067.224 .0295044
1067.803 .0295043
1068.382 .0295027
1068.961 .0294999
1069.540 .0294931
1070.119 .0294845
1070.698 .0294749
1071.278 .0294636
1071.857 .0294525
1072.436 .0294425
1073.016 .0294343
1073.595 .0294275
1074.175 .0294227
1074.754 .0294191
1075.334 .0294168
1075.913 .0294162
1076.493 .0294167
1077.073 .0294170
1077.653 .0294205
1078.233 .0294275
1078.813 .0294365
1079.393 .0294500
1079.974 .0294672
1080.554 .0294867
1081.135 .0295067
1081.716 .0295238
1082.296 .0295364
1082.877 .0295443
1083.458 .0295477
1084.040 .0295459
1084.621 .0295406
1085.202 .0295347
1085.784 .0295280
1086.366 .0295230
1086.948 .0295218
1087.530 .0295224
1088.112 .0295245
1088.695 .0295283
1089.277 .0295319
1089.860 .0295355
1090.443 .0295382
1091.026 .0295416
1091.610 .0295471
1092.193 .0295567
1092.777 .0295681
1093.361 .0295828
1093.946 .0296014
1094.530 .0296238
1095.115 .0296469
1095.700 .0296713
1096.285 .0296952
1096.871 .0297175
1097.456 .0297379
1098.042 .0297557
1098.628 .0297701
1099.215 .0297822
1099.802 .0297904
1100.389 .0297961
1100.976 .0297986
1101.564 .0298007
1102.152 .0297990
1102.740 .0297971
1103.329 .0297942
1103.917 .0297898
1104.507 .0297840
1105.096 .0297774
1105.686 .0297693
1106.276 .0297614
1106.867 .0297538
1107.457 .0297463
1108.049 .0297406
1108.640 .0297397
1109.232 .0297419
1109.825 .0297497
1110.417 .0297621
1111.010 .0297788
1111.604 .0297976
1112.198 .0298213
1112.792 .0298455
1113.387 .0298701
1113.982 .0298962
1114.577 .0299233
1115.173 .0299527
1115.769 .0299843
1116.366 .0300176
1116.963 .0300536
1117.561 .0300916
1118.159 .0301304
1118.758 .0301673
1119.357 .0302039
1119.957 .0302383
1120.557 .0302704
1121.157 .0303020
1121.758 .0303306
1122.360 .0303565
1122.962 .0303796
1123.564 .0304008
1124.167 .0304195
1124.771 .0304375
1125.375 .0304522
1125.980 .0304674
1126.585 .0304843
1127.191 .0305012
1127.797 .0305199
1128.404 .0305420
1129.012 .0305651
1129.620 .0305897
1130.229 .0306139
1130.838 .0306373
1131.448 .0306572
1132.058 .0306780
1132.669 .0306978
1133.281 .0307189
1133.894 .0307448
1134.507 .0307764
1135.120 .0308149
1135.735 .0308630
1136.350 .0309168
1136.965 .0309751
1137.582 .0310356
1138.199 .0310964
1138.816 .0311524
1139.435 .0312103
1140.054 .0312728
1140.674 .0313459
1141.294 .0314206
1141.916 .0315100
1142.538 .0315678
1143.160 .0317530
1143.784 .0319946
1144.408 .0318220
1145.033 .0320663
