Measurement Sequence started on: 14-45-04-498
Integration time: 36
Scans to Average: 2 
>>>>>Begin Spectral Data<<<<<
433.946 .0632411
434.870 .0552680
435.793 .0530426
436.715 .0501267
437.635 .0496152
438.555 .0499580
439.473 .0488480
440.389 .0481242
441.305 .0475510
442.219 .0471044
443.132 .0467176
444.044 .0463869
444.954 .0461116
445.863 .0458876
446.771 .0457202
447.678 .0455638
448.584 .0454226
449.488 .0452892
450.391 .0451672
451.293 .0450634
452.194 .0449801
453.094 .0449064
453.992 .0448500
454.890 .0447972
455.786 .0447450
456.681 .0446848
457.575 .0446235
458.468 .0445499
459.360 .0444637
460.250 .0443682
461.140 .0442608
462.028 .0441511
462.915 .0440437
463.801 .0439328
464.687 .0438211
465.571 .0437102
466.454 .0436028
467.335 .0434939
468.216 .0433902
469.096 .0432898
469.975 .0431967
470.853 .0431108
471.729 .0430324
472.605 .0429567
473.479 .0428896
474.353 .0428291
475.226 .0427747
476.097 .0427279
476.968 .0426903
477.838 .0426565
478.706 .0426309
479.574 .0426111
480.441 .0425964
481.306 .0425837
482.171 .0425732
483.035 .0425609
483.898 .0425508
484.760 .0425401
485.621 .0425264
486.481 .0425105
487.340 .0424944
488.198 .0424735
489.055 .0424495
489.912 .0424223
490.767 .0423905
491.622 .0423515
492.476 .0423081
493.329 .0422592
494.180 .0422057
495.032 .0421496
495.882 .0420919
496.731 .0420356
497.580 .0419844
498.427 .0419330
499.274 .0418842
500.120 .0418403
500.965 .0418006
501.809 .0417628
502.653 .0417259
503.495 .0416890
504.337 .0416495
505.178 .0416081
506.018 .0415647
506.858 .0415198
507.696 .0414764
508.534 .0414335
509.371 .0413894
510.208 .0413472
511.043 .0413045
511.878 .0412571
512.712 .0412053
513.545 .0411432
514.377 .0410730
515.209 .0409941
516.040 .0409124
516.870 .0408332
517.699 .0407613
518.528 .0407033
519.356 .0406562
520.183 .0406208
521.010 .0405963
521.836 .0405762
522.661 .0405563
523.485 .0405318
524.309 .0405008
525.132 .0404643
525.954 .0404222
526.776 .0403840
527.597 .0403534
528.417 .0403302
529.237 .0403149
530.056 .0403013
530.874 .0402839
531.692 .0402602
532.508 .0402237
533.325 .0401700
534.140 .0400978
534.955 .0400098
535.770 .0399030
536.583 .0397872
537.397 .0396700
538.209 .0395538
539.021 .0394470
539.832 .0393513
540.643 .0392652
541.453 .0391894
542.262 .0391269
543.071 .0390673
543.879 .0390096
544.687 .0389529
545.494 .0388977
546.300 .0388439
547.106 .0387977
547.911 .0387621
548.716 .0387434
549.520 .0387412
550.323 .0387497
551.126 .0387623
551.929 .0387751
552.731 .0387794
553.532 .0387694
554.332 .0387420
555.133 .0387032
555.932 .0386517
556.731 .0385955
557.530 .0385386
558.328 .0384872
559.125 .0384430
559.922 .0384023
560.719 .0383639
561.515 .0383224
562.310 .0382762
563.105 .0382248
563.899 .0381708
564.693 .0381159
565.487 .0380619
566.280 .0380124
567.072 .0379686
567.864 .0379275
568.655 .0378899
569.446 .0378487
570.236 .0378051
571.026 .0377577
571.816 .0377073
572.605 .0376531
573.393 .0375986
574.181 .0375450
574.969 .0374927
575.756 .0374385
576.543 .0373853
577.329 .0373294
578.115 .0372723
578.900 .0372130
579.685 .0371533
580.469 .0370954
581.253 .0370414
582.036 .0369908
582.820 .0369438
583.602 .0368992
584.384 .0368565
585.166 .0368121
585.947 .0367668
586.728 .0367216
587.509 .0366761
588.289 .0366315
589.069 .0365901
589.848 .0365500
590.627 .0365122
591.405 .0364757
592.183 .0364392
592.961 .0364019
593.738 .0363633
594.515 .0363231
595.291 .0362809
596.067 .0362394
596.843 .0361983
597.618 .0361577
598.393 .0361195
599.167 .0360820
599.941 .0360448
600.715 .0360088
601.488 .0359730
602.261 .0359368
603.034 .0359008
603.806 .0358649
604.578 .0358284
605.349 .0357930
606.121 .0357585
606.891 .0357238
607.662 .0356904
608.432 .0356584
609.201 .0356273
609.971 .0355978
610.740 .0355695
611.508 .0355421
612.277 .0355160
613.045 .0354908
613.812 .0354661
614.579 .0354422
615.346 .0354196
616.113 .0353981
616.879 .0353772
617.645 .0353579
618.411 .0353394
619.176 .0353214
619.941 .0353038
620.705 .0352860
621.470 .0352670
622.233 .0352466
622.997 .0352250
623.760 .0352023
624.523 .0351782
625.286 .0351530
626.048 .0351266
626.810 .0350991
627.572 .0350702
628.333 .0350401
629.095 .0350087
629.855 .0349768
630.616 .0349452
631.376 .0349141
632.136 .0348845
632.895 .0348572
633.655 .0348319
634.414 .0348088
635.172 .0347873
635.931 .0347674
636.689 .0347477
637.447 .0347282
638.204 .0347083
638.962 .0346866
639.718 .0346634
640.475 .0346386
641.231 .0346113
641.988 .0345816
642.743 .0345498
643.499 .0345154
644.254 .0344783
645.009 .0344389
645.764 .0343979
646.518 .0343554
647.272 .0343125
648.026 .0342693
648.780 .0342257
649.533 .0341828
650.286 .0341405
651.039 .0340986
651.792 .0340581
652.544 .0340193
653.296 .0339820
654.048 .0339467
654.799 .0339140
655.550 .0338835
656.301 .0338553
657.052 .0338293
657.802 .0338052
658.552 .0337819
659.302 .0337597
660.052 .0337379
660.801 .0337161
661.550 .0336953
662.299 .0336747
663.048 .0336547
663.796 .0336362
664.544 .0336189
665.292 .0336025
666.040 .0335870
666.787 .0335726
667.534 .0335588
668.281 .0335456
669.028 .0335326
669.774 .0335192
670.521 .0335053
671.266 .0334910
672.012 .0334760
672.758 .0334607
673.503 .0334452
674.248 .0334292
674.992 .0334131
675.737 .0333965
676.481 .0333802
677.225 .0333643
677.969 .0333489
678.712 .0333341
679.455 .0333199
680.199 .0333055
680.941 .0332910
681.684 .0332766
682.426 .0332622
683.168 .0332479
683.910 .0332339
684.652 .0332200
685.393 .0332065
686.134 .0331938
686.875 .0331817
687.616 .0331698
688.356 .0331588
689.097 .0331474
689.837 .0331352
690.576 .0331224
691.316 .0331089
692.055 .0330947
692.794 .0330806
693.533 .0330661
694.272 .0330511
695.010 .0330361
695.748 .0330206
696.486 .0330041
697.224 .0329869
697.962 .0329686
698.699 .0329493
699.436 .0329292
700.173 .0329092
700.909 .0328887
701.646 .0328687
702.382 .0328489
703.118 .0328290
703.853 .0328090
704.589 .0327885
705.324 .0327676
706.059 .0327466
706.794 .0327259
707.529 .0327059
708.263 .0326866
708.997 .0326689
709.731 .0326523
710.465 .0326368
711.198 .0326216
711.931 .0326067
712.664 .0325915
713.397 .0325759
714.130 .0325592
714.862 .0325422
715.594 .0325247
716.326 .0325071
717.058 .0324891
717.789 .0324711
718.520 .0324530
719.251 .0324345
719.982 .0324148
720.713 .0323945
721.443 .0323729
722.173 .0323503
722.903 .0323267
723.633 .0323033
724.362 .0322799
725.091 .0322564
725.820 .0322334
726.549 .0322113
727.278 .0321901
728.006 .0321699
728.734 .0321502
729.462 .0321319
730.190 .0321150
730.917 .0320994
731.644 .0320851
732.371 .0320728
733.098 .0320625
733.825 .0320537
734.551 .0320462
735.277 .0320394
736.003 .0320328
736.728 .0320261
737.454 .0320191
738.179 .0320124
738.904 .0320054
739.629 .0319986
740.353 .0319926
741.077 .0319880
741.801 .0319843
742.525 .0319811
743.249 .0319787
743.972 .0319765
744.695 .0319741
745.418 .0319711
746.141 .0319672
746.863 .0319634
747.585 .0319598
748.307 .0319562
749.029 .0319528
749.750 .0319500
750.472 .0319470
751.193 .0319441
751.913 .0319406
752.634 .0319363
753.354 .0319314
754.074 .0319256
754.794 .0319189
755.514 .0319109
756.233 .0319018
756.952 .0318915
757.671 .0318802
758.390 .0318685
759.108 .0318559
759.826 .0318434
760.544 .0318307
761.262 .0318185
761.979 .0318072
762.697 .0317965
763.414 .0317866
764.130 .0317771
764.847 .0317680
765.563 .0317589
766.279 .0317498
766.995 .0317408
767.710 .0317317
768.426 .0317225
769.141 .0317131
769.855 .0317034
770.570 .0316937
771.284 .0316838
771.998 .0316739
772.712 .0316642
773.426 .0316544
774.139 .0316446
774.852 .0316347
775.565 .0316246
776.277 .0316146
776.990 .0316039
777.702 .0315927
778.414 .0315807
779.125 .0315681
779.836 .0315551
780.547 .0315415
781.258 .0315278
781.969 .0315136
782.679 .0314993
783.389 .0314844
784.099 .0314690
784.808 .0314534
785.517 .0314373
786.226 .0314207
786.935 .0314035
787.643 .0313857
788.352 .0313674
789.060 .0313482
789.767 .0313287
790.475 .0313085
791.182 .0312881
791.889 .0312676
792.595 .0312476
793.301 .0312284
794.008 .0312106
794.713 .0311937
795.419 .0311780
796.124 .0311630
796.829 .0311484
797.534 .0311342
798.238 .0311200
798.942 .0311059
799.646 .0310925
800.350 .0310795
801.053 .0310678
801.756 .0310563
802.459 .0310459
803.162 .0310355
803.864 .0310253
804.566 .0310151
805.267 .0310045
805.969 .0309941
806.670 .0309839
807.371 .0309748
808.071 .0309668
808.772 .0309598
809.472 .0309536
810.171 .0309474
810.871 .0309412
811.570 .0309338
812.269 .0309252
812.967 .0309157
813.666 .0309057
814.364 .0308954
815.061 .0308851
815.759 .0308756
816.456 .0308663
817.153 .0308577
817.849 .0308489
818.545 .0308399
819.241 .0308300
819.937 .0308192
820.632 .0308074
821.327 .0307948
822.022 .0307819
822.717 .0307693
823.411 .0307576
824.105 .0307474
824.798 .0307385
825.491 .0307307
826.184 .0307233
826.877 .0307167
827.569 .0307098
828.261 .0307029
828.953 .0306955
829.645 .0306876
830.336 .0306795
831.027 .0306722
831.717 .0306654
832.407 .0306593
833.097 .0306544
833.787 .0306502
834.476 .0306463
835.165 .0306427
835.854 .0306391
836.542 .0306355
837.230 .0306321
837.918 .0306289
838.605 .0306256
839.292 .0306231
839.979 .0306213
840.665 .0306200
841.352 .0306195
842.037 .0306191
842.723 .0306182
843.408 .0306169
844.093 .0306143
844.777 .0306105
845.462 .0306052
846.145 .0305985
846.829 .0305907
847.512 .0305818
848.195 .0305719
848.878 .0305612
849.560 .0305497
850.242 .0305383
850.923 .0305267
851.605 .0305151
852.286 .0305033
852.966 .0304916
853.646 .0304799
854.326 .0304684
855.006 .0304569
855.685 .0304455
856.364 .0304341
857.043 .0304230
857.721 .0304114
858.399 .0303994
859.077 .0303869
859.754 .0303735
860.431 .0303594
861.107 .0303446
861.784 .0303288
862.459 .0303126
863.135 .0302958
863.810 .0302786
864.485 .0302606
865.160 .0302423
865.834 .0302235
866.508 .0302041
867.181 .0301845
867.854 .0301652
868.527 .0301466
869.199 .0301292
869.872 .0301130
870.543 .0300982
871.215 .0300843
871.886 .0300711
872.557 .0300581
873.227 .0300446
873.897 .0300308
874.567 .0300163
875.236 .0300007
875.905 .0299844
876.573 .0299673
877.242 .0299489
877.909 .0299295
878.577 .0299096
879.244 .0298885
879.911 .0298659
880.577 .0298429
881.243 .0298189
881.909 .0297942
882.575 .0297692
883.240 .0297439
883.904 .0297187
884.569 .0296938
885.232 .0296684
885.896 .0296431
886.559 .0296183
887.222 .0295944
887.885 .0295711
888.547 .0295495
889.208 .0295296
889.870 .0295114
890.531 .0294950
891.192 .0294804
891.852 .0294671
892.512 .0294551
893.171 .0294437
893.830 .0294332
894.489 .0294232
895.148 .0294136
895.806 .0294042
896.464 .0293956
897.121 .0293875
897.778 .0293796
898.434 .0293714
899.091 .0293630
899.747 .0293539
900.402 .0293440
901.057 .0293329
901.712 .0293209
902.366 .0293078
903.020 .0292937
903.674 .0292788
904.327 .0292641
904.980 .0292499
905.633 .0292369
906.285 .0292252
906.936 .0292156
907.588 .0292073
908.239 .0292003
908.889 .0291946
909.540 .0291895
910.190 .0291846
910.839 .0291799
911.488 .0291750
912.137 .0291702
912.785 .0291651
913.433 .0291599
914.081 .0291544
914.728 .0291484
915.375 .0291412
916.021 .0291329
916.668 .0291235
917.313 .0291129
917.959 .0291008
918.604 .0290879
919.248 .0290745
919.892 .0290604
920.536 .0290463
921.180 .0290322
921.823 .0290183
922.465 .0290045
923.108 .0289909
923.750 .0289782
924.391 .0289661
925.032 .0289546
925.673 .0289437
926.313 .0289334
926.953 .0289230
927.593 .0289118
928.232 .0288995
928.871 .0288865
929.510 .0288722
930.148 .0288564
930.786 .0288399
931.423 .0288231
932.060 .0288072
932.697 .0287917
933.333 .0287774
933.969 .0287642
934.604 .0287517
935.239 .0287399
935.874 .0287285
936.508 .0287182
937.142 .0287095
937.776 .0287021
938.409 .0286966
939.042 .0286920
939.674 .0286881
940.306 .0286846
940.938 .0286809
941.569 .0286761
942.200 .0286698
942.830 .0286615
943.460 .0286513
944.090 .0286392
944.720 .0286256
945.349 .0286105
945.977 .0285943
946.606 .0285773
947.233 .0285589
947.861 .0285391
948.488 .0285183
949.115 .0284968
949.741 .0284752
950.367 .0284536
950.993 .0284324
951.618 .0284121
952.243 .0283936
952.868 .0283774
953.492 .0283629
954.115 .0283502
954.739 .0283388
955.362 .0283282
955.984 .0283176
956.607 .0283065
957.229 .0282951
957.850 .0282835
958.471 .0282713
959.092 .0282583
959.713 .0282443
960.333 .0282302
960.952 .0282159
961.572 .0282017
962.191 .0281872
962.809 .0281725
963.428 .0281577
964.045 .0281425
964.663 .0281271
965.280 .0281121
965.897 .0280972
966.513 .0280830
967.129 .0280698
967.745 .0280573
968.361 .0280459
968.976 .0280356
969.590 .0280267
970.205 .0280188
970.818 .0280118
971.432 .0280058
972.045 .0280005
972.658 .0279961
973.271 .0279927
973.883 .0279886
974.495 .0279841
975.106 .0279783
975.717 .0279708
976.328 .0279618
976.938 .0279516
977.548 .0279410
978.158 .0279300
978.768 .0279192
979.377 .0279085
979.985 .0278972
980.594 .0278855
981.202 .0278727
981.809 .0278579
982.417 .0278419
983.024 .0278242
983.631 .0278054
984.237 .0277865
984.843 .0277680
985.449 .0277501
986.054 .0277328
986.659 .0277162
987.264 .0277004
987.868 .0276844
988.472 .0276689
989.076 .0276532
989.679 .0276377
990.282 .0276226
990.885 .0276077
991.487 .0275929
992.090 .0275785
992.691 .0275645
993.293 .0275512
993.894 .0275377
994.495 .0275244
995.095 .0275114
995.696 .0274984
996.296 .0274857
996.895 .0274724
997.494 .0274591
998.093 .0274460
998.692 .0274329
999.291 .0274198
999.889 .0274062
1000.487 .0273927
1001.084 .0273795
1001.681 .0273659
1002.278 .0273521
1002.875 .0273383
1003.471 .0273243
1004.067 .0273109
1004.663 .0272979
1005.258 .0272859
1005.854 .0272750
1006.449 .0272655
1007.043 .0272570
1007.638 .0272485
1008.232 .0272400
1008.826 .0272312
1009.419 .0272216
1010.012 .0272122
1010.605 .0272023
1011.198 .0271925
1011.791 .0271835
1012.383 .0271748
1012.975 .0271662
1013.566 .0271574
1014.158 .0271482
1014.749 .0271377
1015.340 .0271255
1015.931 .0271116
1016.521 .0270960
1017.111 .0270795
1017.701 .0270625
1018.291 .0270452
1018.880 .0270286
1019.470 .0270131
1020.059 .0269990
1020.647 .0269858
1021.236 .0269744
1021.824 .0269646
1022.412 .0269569
1023.000 .0269508
1023.588 .0269463
1024.175 .0269437
1024.762 .0269434
1025.349 .0269448
1025.936 .0269479
1026.523 .0269529
1027.109 .0269595
1027.695 .0269674
1028.281 .0269757
1028.867 .0269838
1029.452 .0269914
1030.038 .0269987
1030.623 .0270053
1031.208 .0270106
1031.792 .0270157
1032.377 .0270200
1032.961 .0270239
1033.546 .0270279
1034.130 .0270311
1034.714 .0270340
1035.297 .0270360
1035.881 .0270375
1036.464 .0270376
1037.047 .0270375
1037.630 .0270371
1038.213 .0270373
1038.796 .0270384
1039.378 .0270397
1039.961 .0270400
1040.543 .0270401
1041.125 .0270381
1041.707 .0270334
1042.289 .0270254
1042.871 .0270154
1043.452 .0270035
1044.034 .0269911
1044.615 .0269780
1045.196 .0269670
1045.777 .0269574
1046.358 .0269507
1046.939 .0269451
1047.520 .0269416
1048.101 .0269387
1048.681 .0269362
1049.262 .0269339
1049.842 .0269329
1050.422 .0269333
1051.002 .0269354
1051.582 .0269386
1052.162 .0269446
1052.742 .0269510
1053.322 .0269579
1053.902 .0269652
1054.482 .0269742
1055.061 .0269830
1055.641 .0269923
1056.220 .0270010
1056.800 .0270098
1057.379 .0270187
1057.958 .0270268
1058.538 .0270334
1059.117 .0270397
1059.696 .0270450
1060.275 .0270493
1060.854 .0270530
1061.433 .0270574
1062.012 .0270614
1062.592 .0270663
1063.171 .0270713
1063.750 .0270749
1064.329 .0270761
1064.908 .0270754
1065.487 .0270724
1066.066 .0270676
1066.645 .0270616
1067.224 .0270548
1067.803 .0270492
1068.382 .0270459
1068.961 .0270447
1069.540 .0270464
1070.119 .0270510
1070.698 .0270584
1071.278 .0270676
1071.857 .0270787
1072.436 .0270910
1073.016 .0271053
1073.595 .0271208
1074.175 .0271371
1074.754 .0271537
1075.334 .0271699
1075.913 .0271846
1076.493 .0271969
1077.073 .0272049
1077.653 .0272089
1078.233 .0272088
1078.813 .0272044
1079.393 .0271947
1079.974 .0271815
1080.554 .0271656
1081.135 .0271485
1081.716 .0271312
1082.296 .0271146
1082.877 .0270991
1083.458 .0270843
1084.040 .0270692
1084.621 .0270529
1085.202 .0270366
1085.784 .0270203
1086.366 .0270042
1086.948 .0269896
1087.530 .0269770
1088.112 .0269671
1088.695 .0269605
1089.277 .0269570
1089.860 .0269567
1090.443 .0269580
1091.026 .0269597
1091.610 .0269633
1092.193 .0269684
1092.777 .0269750
1093.361 .0269831
1093.946 .0269933
1094.530 .0270049
1095.115 .0270155
1095.700 .0270247
1096.285 .0270329
1096.871 .0270410
1097.456 .0270490
1098.042 .0270556
1098.628 .0270640
1099.215 .0270735
1099.802 .0270841
1100.389 .0270948
1100.976 .0271049
1101.564 .0271119
1102.152 .0271137
1102.740 .0271097
1103.329 .0271036
1103.917 .0270964
1104.507 .0270911
1105.096 .0270898
1105.686 .0270960
1106.276 .0271079
1106.867 .0271247
1107.457 .0271446
1108.049 .0271654
1108.640 .0271831
1109.232 .0271969
1109.825 .0272072
1110.417 .0272164
1111.010 .0272246
1111.604 .0272346
1112.198 .0272482
1112.792 .0272665
1113.387 .0272870
1113.982 .0273084
1114.577 .0273305
1115.173 .0273536
1115.769 .0273734
1116.366 .0273917
1116.963 .0274088
1117.561 .0274279
1118.159 .0274484
1118.758 .0274695
1119.357 .0274917
1119.957 .0275126
1120.557 .0275323
1121.157 .0275487
1121.758 .0275606
1122.360 .0275691
1122.962 .0275725
1123.564 .0275728
1124.167 .0275702
1124.771 .0275684
1125.375 .0275660
1125.980 .0275655
1126.585 .0275659
1127.191 .0275676
1127.797 .0275697
1128.404 .0275740
1129.012 .0275813
1129.620 .0275944
1130.229 .0276143
1130.838 .0276373
1131.448 .0276666
1132.058 .0277008
1132.669 .0277375
1133.281 .0277762
1133.894 .0278154
1134.507 .0278539
1135.120 .0278909
1135.735 .0279279
1136.350 .0279659
1136.965 .0280061
1137.582 .0280516
1138.199 .0280973
1138.816 .0281465
1139.435 .0281949
1140.054 .0282473
1140.674 .0283038
1141.294 .0283697
1141.916 .0284553
1142.538 .0284004
1143.160 .0285837
1143.784 .0287300
1144.408 .0288746
1145.033 .0292704
