Measurement Sequence started on: 14-45-04-498
Integration time: 36
Scans to Average: 2 
>>>>>Begin Spectral Data<<<<<
433.946 .0402120
434.870 .0429388
435.793 .0397263
436.715 .0395560
437.635 .0386763
438.555 .0389785
439.473 .0386792
440.389 .0383777
441.305 .0382247
442.219 .0381134
443.132 .0380573
444.044 .0380203
444.954 .0380275
445.863 .0380604
446.771 .0381112
447.678 .0381657
448.584 .0382324
449.488 .0383000
450.391 .0383600
451.293 .0384112
452.194 .0384568
453.094 .0384892
453.992 .0385116
454.890 .0385222
455.786 .0385138
456.681 .0384935
457.575 .0384628
458.468 .0384132
459.360 .0383646
460.250 .0383163
461.140 .0382651
462.028 .0382110
462.915 .0381602
463.801 .0381013
464.687 .0380335
465.571 .0379617
466.454 .0378831
467.335 .0378014
468.216 .0377246
469.096 .0376541
469.975 .0375912
470.853 .0375370
471.729 .0374838
472.605 .0374283
473.479 .0373676
474.353 .0372948
475.226 .0372107
476.097 .0371175
476.968 .0370207
477.838 .0369194
478.706 .0368203
479.574 .0367277
480.441 .0366432
481.306 .0365669
482.171 .0364943
483.035 .0364263
483.898 .0363590
484.760 .0362910
485.621 .0362279
486.481 .0361693
487.340 .0361167
488.198 .0360735
489.055 .0360413
489.912 .0360173
490.767 .0360005
491.622 .0359880
492.476 .0359762
493.329 .0359651
494.180 .0359503
495.032 .0359277
495.882 .0359004
496.731 .0358699
497.580 .0358320
498.427 .0357885
499.274 .0357423
500.120 .0356898
500.965 .0356337
501.809 .0355736
502.653 .0355081
503.495 .0354356
504.337 .0353574
505.178 .0352741
506.018 .0351874
506.858 .0351008
507.696 .0350147
508.534 .0349360
509.371 .0348698
510.208 .0348149
511.043 .0347749
511.878 .0347513
512.712 .0347419
513.545 .0347405
514.377 .0347476
515.209 .0347579
516.040 .0347761
516.870 .0347969
517.699 .0348207
518.528 .0348474
519.356 .0348803
520.183 .0349128
521.010 .0349455
521.836 .0349775
522.661 .0349999
523.485 .0350063
524.309 .0349975
525.132 .0349655
525.954 .0349142
526.776 .0348427
527.597 .0347601
528.417 .0346662
529.237 .0345718
530.056 .0344743
530.874 .0343823
531.692 .0343019
532.508 .0342237
533.325 .0341439
534.140 .0340645
534.955 .0339844
535.770 .0339034
536.583 .0338234
537.397 .0337527
538.209 .0336927
539.021 .0336456
539.832 .0336062
540.643 .0335722
541.453 .0335476
542.262 .0335257
543.071 .0335003
543.879 .0334694
544.687 .0334386
545.494 .0334069
546.300 .0333817
547.106 .0333600
547.911 .0333429
548.716 .0333347
549.520 .0333308
550.323 .0333263
551.126 .0333214
551.929 .0333141
552.731 .0333061
553.532 .0332929
554.332 .0332800
555.133 .0332641
555.932 .0332511
556.731 .0332410
557.530 .0332293
558.328 .0332161
559.125 .0331997
559.922 .0331765
560.719 .0331501
561.515 .0331209
562.310 .0330882
563.105 .0330559
563.899 .0330254
564.693 .0329962
565.487 .0329668
566.280 .0329352
567.072 .0329042
567.864 .0328714
568.655 .0328370
569.446 .0328005
570.236 .0327644
571.026 .0327297
571.816 .0326937
572.605 .0326573
573.393 .0326215
574.181 .0325844
574.969 .0325460
575.756 .0325059
576.543 .0324644
577.329 .0324223
578.115 .0323790
578.900 .0323349
579.685 .0322918
580.469 .0322489
581.253 .0322078
582.036 .0321682
582.820 .0321314
583.602 .0320978
584.384 .0320673
585.166 .0320404
585.947 .0320162
586.728 .0319945
587.509 .0319746
588.289 .0319556
589.069 .0319380
589.848 .0319197
590.627 .0319006
591.405 .0318815
592.183 .0318621
592.961 .0318424
593.738 .0318228
594.515 .0318030
595.291 .0317839
596.067 .0317651
596.843 .0317455
597.618 .0317241
598.393 .0317017
599.167 .0316781
599.941 .0316525
600.715 .0316255
601.488 .0315984
602.261 .0315706
603.034 .0315436
603.806 .0315178
604.578 .0314926
605.349 .0314696
606.121 .0314481
606.891 .0314283
607.662 .0314088
608.432 .0313888
609.201 .0313681
609.971 .0313463
610.740 .0313238
611.508 .0313002
612.277 .0312762
613.045 .0312540
613.812 .0312327
614.579 .0312133
615.346 .0311955
616.113 .0311797
616.879 .0311650
617.645 .0311515
618.411 .0311376
619.176 .0311240
619.941 .0311102
620.705 .0310970
621.470 .0310842
622.233 .0310726
622.997 .0310627
623.760 .0310543
624.523 .0310473
625.286 .0310406
626.048 .0310329
626.810 .0310240
627.572 .0310125
628.333 .0309987
629.095 .0309822
629.855 .0309635
630.616 .0309438
631.376 .0309238
632.136 .0309041
632.895 .0308843
633.655 .0308653
634.414 .0308471
635.172 .0308289
635.931 .0308103
636.689 .0307909
637.447 .0307716
638.204 .0307524
638.962 .0307332
639.718 .0307145
640.475 .0306968
641.231 .0306802
641.988 .0306641
642.743 .0306485
643.499 .0306327
644.254 .0306167
645.009 .0306001
645.764 .0305831
646.518 .0305652
647.272 .0305470
648.026 .0305292
648.780 .0305113
649.533 .0304945
650.286 .0304782
651.039 .0304625
651.792 .0304479
652.544 .0304342
653.296 .0304207
654.048 .0304074
654.799 .0303948
655.550 .0303819
656.301 .0303685
657.052 .0303551
657.802 .0303407
658.552 .0303265
659.302 .0303129
660.052 .0302996
660.801 .0302860
661.550 .0302729
662.299 .0302597
663.048 .0302462
663.796 .0302331
664.544 .0302197
665.292 .0302063
666.040 .0301940
666.787 .0301827
667.534 .0301720
668.281 .0301622
669.028 .0301539
669.774 .0301460
670.521 .0301385
671.266 .0301310
672.012 .0301233
672.758 .0301160
673.503 .0301090
674.248 .0301013
674.992 .0300932
675.737 .0300847
676.481 .0300757
677.225 .0300660
677.969 .0300559
678.712 .0300454
679.455 .0300346
680.199 .0300236
680.941 .0300126
681.684 .0300011
682.426 .0299892
683.168 .0299762
683.910 .0299623
684.652 .0299467
685.393 .0299295
686.134 .0299112
686.875 .0298930
687.616 .0298753
688.356 .0298584
689.097 .0298422
689.837 .0298271
690.576 .0298125
691.316 .0297981
692.055 .0297832
692.794 .0297679
693.533 .0297524
694.272 .0297374
695.010 .0297231
695.748 .0297105
696.486 .0296995
697.224 .0296904
697.962 .0296818
698.699 .0296731
699.436 .0296641
700.173 .0296537
700.909 .0296421
701.646 .0296299
702.382 .0296179
703.118 .0296060
703.853 .0295949
704.589 .0295848
705.324 .0295753
706.059 .0295667
706.794 .0295578
707.529 .0295484
708.263 .0295390
708.997 .0295294
709.731 .0295195
710.465 .0295099
711.198 .0295011
711.931 .0294923
712.664 .0294837
713.397 .0294747
714.130 .0294650
714.862 .0294543
715.594 .0294429
716.326 .0294305
717.058 .0294179
717.789 .0294054
718.520 .0293924
719.251 .0293797
719.982 .0293670
720.713 .0293535
721.443 .0293393
722.173 .0293241
722.903 .0293082
723.633 .0292916
724.362 .0292753
725.091 .0292591
725.820 .0292436
726.549 .0292293
727.278 .0292153
728.006 .0292014
728.734 .0291876
729.462 .0291731
730.190 .0291580
730.917 .0291425
731.644 .0291267
732.371 .0291108
733.098 .0290957
733.825 .0290812
734.551 .0290679
735.277 .0290556
736.003 .0290447
736.728 .0290345
737.454 .0290259
738.179 .0290185
738.904 .0290117
739.629 .0290055
740.353 .0289999
741.077 .0289943
741.801 .0289888
742.525 .0289827
743.249 .0289764
743.972 .0289697
744.695 .0289632
745.418 .0289564
746.141 .0289497
746.863 .0289434
747.585 .0289372
748.307 .0289303
749.029 .0289226
749.750 .0289134
750.472 .0289026
751.193 .0288902
751.913 .0288768
752.634 .0288630
753.354 .0288495
754.074 .0288370
754.794 .0288259
755.514 .0288158
756.233 .0288068
756.952 .0287978
757.671 .0287886
758.390 .0287787
759.108 .0287679
759.826 .0287565
760.544 .0287454
761.262 .0287351
761.979 .0287261
762.697 .0287187
763.414 .0287127
764.130 .0287074
764.847 .0287020
765.563 .0286963
766.279 .0286896
766.995 .0286817
767.710 .0286728
768.426 .0286631
769.141 .0286532
769.855 .0286435
770.570 .0286342
771.284 .0286251
771.998 .0286163
772.712 .0286078
773.426 .0285984
774.139 .0285889
774.852 .0285785
775.565 .0285680
776.277 .0285573
776.990 .0285470
777.702 .0285367
778.414 .0285269
779.125 .0285174
779.836 .0285080
780.547 .0284984
781.258 .0284888
781.969 .0284791
782.679 .0284693
783.389 .0284595
784.099 .0284497
784.808 .0284398
785.517 .0284304
786.226 .0284209
786.935 .0284117
787.643 .0284024
788.352 .0283935
789.060 .0283846
789.767 .0283760
790.475 .0283675
791.182 .0283594
791.889 .0283522
792.595 .0283454
793.301 .0283387
794.008 .0283324
794.713 .0283266
795.419 .0283209
796.124 .0283151
796.829 .0283093
797.534 .0283033
798.238 .0282971
798.942 .0282903
799.646 .0282828
800.350 .0282749
801.053 .0282666
801.756 .0282572
802.459 .0282472
803.162 .0282366
803.864 .0282253
804.566 .0282136
805.267 .0282021
805.969 .0281904
806.670 .0281788
807.371 .0281678
808.071 .0281577
808.772 .0281486
809.472 .0281404
810.171 .0281331
810.871 .0281270
811.570 .0281222
812.269 .0281178
812.967 .0281138
813.666 .0281103
814.364 .0281069
815.061 .0281033
815.759 .0280994
816.456 .0280953
817.153 .0280904
817.849 .0280845
818.545 .0280778
819.241 .0280695
819.937 .0280603
820.632 .0280497
821.327 .0280379
822.022 .0280252
822.717 .0280117
823.411 .0279975
824.105 .0279833
824.798 .0279693
825.491 .0279556
826.184 .0279421
826.877 .0279292
827.569 .0279169
828.261 .0279048
828.953 .0278931
829.645 .0278816
830.336 .0278705
831.027 .0278602
831.717 .0278502
832.407 .0278413
833.097 .0278336
833.787 .0278266
834.476 .0278201
835.165 .0278137
835.854 .0278073
836.542 .0278007
837.230 .0277933
837.918 .0277853
838.605 .0277767
839.292 .0277680
839.979 .0277590
840.665 .0277503
841.352 .0277418
842.037 .0277337
842.723 .0277254
843.408 .0277171
844.093 .0277082
844.777 .0276990
845.462 .0276893
846.145 .0276791
846.829 .0276683
847.512 .0276573
848.195 .0276459
848.878 .0276350
849.560 .0276244
850.242 .0276137
850.923 .0276026
851.605 .0275913
852.286 .0275792
852.966 .0275666
853.646 .0275531
854.326 .0275395
855.006 .0275256
855.685 .0275116
856.364 .0274972
857.043 .0274827
857.721 .0274680
858.399 .0274528
859.077 .0274368
859.754 .0274202
860.431 .0274025
861.107 .0273845
861.784 .0273666
862.459 .0273491
863.135 .0273321
863.810 .0273159
864.485 .0273002
865.160 .0272856
865.834 .0272714
866.508 .0272580
867.181 .0272448
867.854 .0272323
868.527 .0272200
869.199 .0272079
869.872 .0271962
870.543 .0271857
871.215 .0271754
871.886 .0271659
872.557 .0271568
873.227 .0271482
873.897 .0271401
874.567 .0271329
875.236 .0271261
875.905 .0271201
876.573 .0271143
877.242 .0271085
877.909 .0271028
878.577 .0270972
879.244 .0270913
879.911 .0270858
880.577 .0270807
881.243 .0270763
881.909 .0270717
882.575 .0270676
883.240 .0270635
883.904 .0270591
884.569 .0270540
885.232 .0270480
885.896 .0270411
886.559 .0270337
887.222 .0270256
887.885 .0270173
888.547 .0270088
889.208 .0270002
889.870 .0269913
890.531 .0269822
891.192 .0269726
891.852 .0269628
892.512 .0269528
893.171 .0269436
893.830 .0269351
894.489 .0269270
895.148 .0269199
895.806 .0269137
896.464 .0269081
897.121 .0269031
897.778 .0268987
898.434 .0268947
899.091 .0268908
899.747 .0268870
900.402 .0268830
901.057 .0268790
901.712 .0268752
902.366 .0268712
903.020 .0268671
903.674 .0268631
904.327 .0268586
904.980 .0268543
905.633 .0268506
906.285 .0268474
906.936 .0268445
907.588 .0268417
908.239 .0268387
908.889 .0268354
909.540 .0268315
910.190 .0268268
910.839 .0268218
911.488 .0268165
912.137 .0268107
912.785 .0268046
913.433 .0267984
914.081 .0267917
914.728 .0267844
915.375 .0267760
916.021 .0267661
916.668 .0267542
917.313 .0267406
917.959 .0267252
918.604 .0267088
919.248 .0266919
919.892 .0266745
920.536 .0266568
921.180 .0266396
921.823 .0266226
922.465 .0266057
923.108 .0265890
923.750 .0265724
924.391 .0265551
925.032 .0265376
925.673 .0265196
926.313 .0265014
926.953 .0264835
927.593 .0264656
928.232 .0264472
928.871 .0264286
929.510 .0264097
930.148 .0263900
930.786 .0263695
931.423 .0263488
932.060 .0263277
932.697 .0263064
933.333 .0262847
933.969 .0262629
934.604 .0262408
935.239 .0262182
935.874 .0261949
936.508 .0261711
937.142 .0261472
937.776 .0261233
938.409 .0261004
939.042 .0260787
939.674 .0260584
940.306 .0260395
940.938 .0260218
941.569 .0260050
942.200 .0259884
942.830 .0259718
943.460 .0259547
944.090 .0259377
944.720 .0259205
945.349 .0259032
945.977 .0258866
946.606 .0258707
947.233 .0258551
947.861 .0258398
948.488 .0258249
949.115 .0258100
949.741 .0257954
950.367 .0257815
950.993 .0257678
951.618 .0257549
952.243 .0257426
952.868 .0257305
953.492 .0257184
954.115 .0257062
954.739 .0256928
955.362 .0256789
955.984 .0256646
956.607 .0256501
957.229 .0256358
957.850 .0256228
958.471 .0256108
959.092 .0255994
959.713 .0255884
960.333 .0255775
960.952 .0255663
961.572 .0255551
962.191 .0255437
962.809 .0255322
963.428 .0255216
964.045 .0255114
964.663 .0255018
965.280 .0254932
965.897 .0254853
966.513 .0254777
967.129 .0254704
967.745 .0254634
968.361 .0254567
968.976 .0254503
969.590 .0254448
970.205 .0254396
970.818 .0254353
971.432 .0254314
972.045 .0254276
972.658 .0254241
973.271 .0254206
973.883 .0254167
974.495 .0254127
975.106 .0254088
975.717 .0254052
976.328 .0254020
976.938 .0253991
977.548 .0253970
978.158 .0253950
978.768 .0253931
979.377 .0253904
979.985 .0253868
980.594 .0253823
981.202 .0253769
981.809 .0253711
982.417 .0253655
983.024 .0253609
983.631 .0253581
984.237 .0253573
984.843 .0253584
985.449 .0253608
986.054 .0253636
986.659 .0253665
987.264 .0253690
987.868 .0253704
988.472 .0253720
989.076 .0253740
989.679 .0253772
990.282 .0253823
990.885 .0253891
991.487 .0253976
992.090 .0254064
992.691 .0254145
993.293 .0254205
993.894 .0254238
994.495 .0254243
995.095 .0254224
995.696 .0254189
996.296 .0254151
996.895 .0254114
997.494 .0254092
998.093 .0254087
998.692 .0254096
999.291 .0254111
999.889 .0254124
1000.487 .0254128
1001.084 .0254122
1001.681 .0254096
1002.278 .0254062
1002.875 .0254025
1003.471 .0253987
1004.067 .0253956
1004.663 .0253937
1005.258 .0253929
1005.854 .0253931
1006.449 .0253939
1007.043 .0253955
1007.638 .0253965
1008.232 .0253971
1008.826 .0253969
1009.419 .0253959
1010.012 .0253947
1010.605 .0253926
1011.198 .0253900
1011.791 .0253874
1012.383 .0253844
1012.975 .0253810
1013.566 .0253774
1014.158 .0253740
1014.749 .0253703
1015.340 .0253663
1015.931 .0253622
1016.521 .0253581
1017.111 .0253535
1017.701 .0253487
1018.291 .0253437
1018.880 .0253379
1019.470 .0253318
1020.059 .0253249
1020.647 .0253178
1021.236 .0253113
1021.824 .0253052
1022.412 .0252997
1023.000 .0252954
1023.588 .0252924
1024.175 .0252897
1024.762 .0252872
1025.349 .0252847
1025.936 .0252812
1026.523 .0252767
1027.109 .0252714
1027.695 .0252662
1028.281 .0252609
1028.867 .0252562
1029.452 .0252515
1030.038 .0252473
1030.623 .0252431
1031.208 .0252386
1031.792 .0252335
1032.377 .0252280
1032.961 .0252220
1033.546 .0252156
1034.130 .0252094
1034.714 .0252048
1035.297 .0252017
1035.881 .0252002
1036.464 .0252001
1037.047 .0252010
1037.630 .0252015
1038.213 .0252021
1038.796 .0252024
1039.378 .0252025
1039.961 .0252024
1040.543 .0252022
1041.125 .0252015
1041.707 .0252009
1042.289 .0252003
1042.871 .0251992
1043.452 .0251968
1044.034 .0251930
1044.615 .0251872
1045.196 .0251796
1045.777 .0251710
1046.358 .0251617
1046.939 .0251523
1047.520 .0251428
1048.101 .0251330
1048.681 .0251228
1049.262 .0251125
1049.842 .0251022
1050.422 .0250923
1051.002 .0250828
1051.582 .0250741
1052.162 .0250662
1052.742 .0250593
1053.322 .0250541
1053.902 .0250501
1054.482 .0250468
1055.061 .0250442
1055.641 .0250413
1056.220 .0250386
1056.800 .0250353
1057.379 .0250316
1057.958 .0250271
1058.538 .0250216
1059.117 .0250144
1059.696 .0250054
1060.275 .0249954
1060.854 .0249837
1061.433 .0249721
1062.012 .0249610
1062.592 .0249502
1063.171 .0249400
1063.750 .0249303
1064.329 .0249207
1064.908 .0249103
1065.487 .0248988
1066.066 .0248850
1066.645 .0248692
1067.224 .0248532
1067.803 .0248357
1068.382 .0248191
1068.961 .0248053
1069.540 .0247941
1070.119 .0247848
1070.698 .0247782
1071.278 .0247718
1071.857 .0247655
1072.436 .0247589
1073.016 .0247515
1073.595 .0247437
1074.175 .0247377
1074.754 .0247334
1075.334 .0247305
1075.913 .0247310
1076.493 .0247338
1077.073 .0247372
1077.653 .0247422
1078.233 .0247482
1078.813 .0247541
1079.393 .0247602
1079.974 .0247670
1080.554 .0247745
1081.135 .0247832
1081.716 .0247926
1082.296 .0248018
1082.877 .0248114
1083.458 .0248206
1084.040 .0248279
1084.621 .0248335
1085.202 .0248394
1085.784 .0248432
1086.366 .0248463
1086.948 .0248474
1087.530 .0248474
1088.112 .0248448
1088.695 .0248395
1089.277 .0248327
1089.860 .0248243
1090.443 .0248150
1091.026 .0248046
1091.610 .0247942
1092.193 .0247864
1092.777 .0247805
1093.361 .0247779
1093.946 .0247778
1094.530 .0247812
1095.115 .0247856
1095.700 .0247910
1096.285 .0247990
1096.871 .0248108
1097.456 .0248255
1098.042 .0248433
1098.628 .0248641
1099.215 .0248861
1099.802 .0249095
1100.389 .0249308
1100.976 .0249498
1101.564 .0249647
1102.152 .0249732
1102.740 .0249758
1103.329 .0249729
1103.917 .0249659
1104.507 .0249559
1105.096 .0249452
1105.686 .0249364
1106.276 .0249273
1106.867 .0249206
1107.457 .0249151
1108.049 .0249098
1108.640 .0249054
1109.232 .0248996
1109.825 .0248913
1110.417 .0248844
1111.010 .0248765
1111.604 .0248705
1112.198 .0248687
1112.792 .0248723
1113.387 .0248793
1113.982 .0248925
1114.577 .0249103
1115.173 .0249286
1115.769 .0249463
1116.366 .0249638
1116.963 .0249791
1117.561 .0249951
1118.159 .0250123
1118.758 .0250310
1119.357 .0250543
1119.957 .0250826
1120.557 .0251109
1121.157 .0251416
1121.758 .0251713
1122.360 .0251981
1122.962 .0252183
1123.564 .0252353
1124.167 .0252481
1124.771 .0252586
1125.375 .0252722
1125.980 .0252895
1126.585 .0253126
1127.191 .0253389
1127.797 .0253687
1128.404 .0254018
1129.012 .0254367
1129.620 .0254739
1130.229 .0255098
1130.838 .0255475
1131.448 .0255877
1132.058 .0256290
1132.669 .0256708
1133.281 .0257133
1133.894 .0257547
1134.507 .0257925
1135.120 .0258266
1135.735 .0258561
1136.350 .0258838
1136.965 .0259079
1137.582 .0259328
1138.199 .0259555
1138.816 .0259759
1139.435 .0259947
1140.054 .0260108
1140.674 .0260368
1141.294 .0260674
1141.916 .0261035
1142.538 .0260333
1143.160 .0260726
1143.784 .0263985
1144.408 .0264318
1145.033 .0263797
