Measurement Sequence started on: 14-45-04-498
Integration time: 36
Scans to Average: 2 
>>>>>Begin Spectral Data<<<<<
433.946 .0521372
434.870 .0430452
435.793 .0428722
436.715 .0416755
437.635 .0419330
438.555 .0425522
439.473 .0420888
440.389 .0419556
441.305 .0418319
442.219 .0417409
443.132 .0416577
444.044 .0415827
444.954 .0415389
445.863 .0415290
446.771 .0415230
447.678 .0415137
448.584 .0414942
449.488 .0414685
450.391 .0414434
451.293 .0414346
452.194 .0414402
453.094 .0414565
453.992 .0414816
454.890 .0415102
455.786 .0415347
456.681 .0415386
457.575 .0415283
458.468 .0414928
459.360 .0414391
460.250 .0413682
461.140 .0412810
462.028 .0411888
462.915 .0410884
463.801 .0409773
464.687 .0408589
465.571 .0407366
466.454 .0406092
467.335 .0404792
468.216 .0403556
469.096 .0402412
469.975 .0401393
470.853 .0400525
471.729 .0399773
472.605 .0399098
473.479 .0398524
474.353 .0397981
475.226 .0397431
476.097 .0396920
476.968 .0396371
477.838 .0395801
478.706 .0395265
479.574 .0394750
480.441 .0394296
481.306 .0393900
482.171 .0393574
483.035 .0393245
483.898 .0392896
484.760 .0392507
485.621 .0392016
486.481 .0391506
487.340 .0390986
488.198 .0390479
489.055 .0390043
489.912 .0389720
490.767 .0389513
491.622 .0389412
492.476 .0389406
493.329 .0389461
494.180 .0389554
495.032 .0389639
495.882 .0389689
496.731 .0389689
497.580 .0389687
498.427 .0389683
499.274 .0389645
500.120 .0389626
500.965 .0389606
501.809 .0389583
502.653 .0389508
503.495 .0389408
504.337 .0389270
505.178 .0389062
506.018 .0388808
506.858 .0388452
507.696 .0388006
508.534 .0387465
509.371 .0386823
510.208 .0386113
511.043 .0385372
511.878 .0384624
512.712 .0383891
513.545 .0383233
514.377 .0382677
515.209 .0382177
516.040 .0381729
516.870 .0381323
517.699 .0380903
518.528 .0380435
519.356 .0379950
520.183 .0379451
521.010 .0379043
521.836 .0378698
522.661 .0378422
523.485 .0378206
524.309 .0378017
525.132 .0377805
525.954 .0377466
526.776 .0376994
527.597 .0376384
528.417 .0375583
529.237 .0374652
530.056 .0373620
530.874 .0372553
531.692 .0371500
532.508 .0370454
533.325 .0369436
534.140 .0368415
534.955 .0367376
535.770 .0366313
536.583 .0365260
537.397 .0364257
538.209 .0363336
539.021 .0362491
539.832 .0361801
540.643 .0361243
541.453 .0360835
542.262 .0360577
543.071 .0360386
543.879 .0360267
544.687 .0360206
545.494 .0360131
546.300 .0360100
547.106 .0360075
547.911 .0360124
548.716 .0360210
549.520 .0360329
550.323 .0360445
551.126 .0360530
551.929 .0360591
552.731 .0360564
553.532 .0360388
554.332 .0360147
555.133 .0359837
555.932 .0359473
556.731 .0359090
557.530 .0358718
558.328 .0358375
559.125 .0358046
559.922 .0357710
560.719 .0357378
561.515 .0357014
562.310 .0356650
563.105 .0356298
563.899 .0355978
564.693 .0355725
565.487 .0355504
566.280 .0355338
567.072 .0355231
567.864 .0355121
568.655 .0354959
569.446 .0354750
570.236 .0354483
571.026 .0354153
571.816 .0353754
572.605 .0353351
573.393 .0352950
574.181 .0352557
574.969 .0352198
575.756 .0351881
576.543 .0351590
577.329 .0351334
578.115 .0351060
578.900 .0350789
579.685 .0350506
580.469 .0350230
581.253 .0349960
582.036 .0349715
582.820 .0349497
583.602 .0349290
584.384 .0349069
585.166 .0348859
585.947 .0348620
586.728 .0348363
587.509 .0348082
588.289 .0347768
589.069 .0347423
589.848 .0347069
590.627 .0346711
591.405 .0346356
592.183 .0346004
592.961 .0345672
593.738 .0345345
594.515 .0345025
595.291 .0344695
596.067 .0344358
596.843 .0344002
597.618 .0343638
598.393 .0343252
599.167 .0342864
599.941 .0342477
600.715 .0342105
601.488 .0341739
602.261 .0341392
603.034 .0341056
603.806 .0340735
604.578 .0340422
605.349 .0340124
606.121 .0339828
606.891 .0339535
607.662 .0339246
608.432 .0338974
609.201 .0338714
609.971 .0338473
610.740 .0338248
611.508 .0338043
612.277 .0337848
613.045 .0337659
613.812 .0337469
614.579 .0337286
615.346 .0337105
616.113 .0336925
616.879 .0336743
617.645 .0336570
618.411 .0336406
619.176 .0336253
619.941 .0336110
620.705 .0335977
621.470 .0335842
622.233 .0335701
622.997 .0335549
623.760 .0335388
624.523 .0335219
625.286 .0335045
626.048 .0334874
626.810 .0334703
627.572 .0334533
628.333 .0334370
629.095 .0334209
629.855 .0334051
630.616 .0333888
631.376 .0333717
632.136 .0333534
632.895 .0333338
633.655 .0333124
634.414 .0332893
635.172 .0332649
635.931 .0332398
636.689 .0332139
637.447 .0331879
638.204 .0331619
638.962 .0331358
639.718 .0331105
640.475 .0330860
641.231 .0330608
641.988 .0330351
642.743 .0330088
643.499 .0329813
644.254 .0329525
645.009 .0329231
645.764 .0328933
646.518 .0328641
647.272 .0328362
648.026 .0328093
648.780 .0327835
649.533 .0327589
650.286 .0327344
651.039 .0327095
651.792 .0326842
652.544 .0326578
653.296 .0326308
654.048 .0326037
654.799 .0325775
655.550 .0325519
656.301 .0325277
657.052 .0325052
657.802 .0324844
658.552 .0324651
659.302 .0324467
660.052 .0324290
660.801 .0324121
661.550 .0323961
662.299 .0323809
663.048 .0323658
663.796 .0323513
664.544 .0323367
665.292 .0323218
666.040 .0323062
666.787 .0322905
667.534 .0322740
668.281 .0322574
669.028 .0322409
669.774 .0322244
670.521 .0322079
671.266 .0321919
672.012 .0321766
672.758 .0321615
673.503 .0321467
674.248 .0321323
674.992 .0321178
675.737 .0321042
676.481 .0320914
677.225 .0320795
677.969 .0320689
678.712 .0320596
679.455 .0320507
680.199 .0320423
680.941 .0320338
681.684 .0320250
682.426 .0320152
683.168 .0320046
683.910 .0319932
684.652 .0319813
685.393 .0319689
686.134 .0319565
686.875 .0319442
687.616 .0319323
688.356 .0319202
689.097 .0319078
689.837 .0318945
690.576 .0318803
691.316 .0318652
692.055 .0318494
692.794 .0318329
693.533 .0318167
694.272 .0318011
695.010 .0317865
695.748 .0317730
696.486 .0317604
697.224 .0317484
697.962 .0317368
698.699 .0317248
699.436 .0317118
700.173 .0316977
700.909 .0316829
701.646 .0316674
702.382 .0316517
703.118 .0316365
703.853 .0316218
704.589 .0316084
705.324 .0315961
706.059 .0315843
706.794 .0315722
707.529 .0315601
708.263 .0315471
708.997 .0315326
709.731 .0315166
710.465 .0314995
711.198 .0314817
711.931 .0314638
712.664 .0314460
713.397 .0314284
714.130 .0314116
714.862 .0313949
715.594 .0313778
716.326 .0313605
717.058 .0313426
717.789 .0313244
718.520 .0313054
719.251 .0312864
719.982 .0312677
720.713 .0312496
721.443 .0312326
722.173 .0312164
722.903 .0312014
723.633 .0311874
724.362 .0311743
725.091 .0311616
725.820 .0311490
726.549 .0311361
727.278 .0311230
728.006 .0311093
728.734 .0310952
729.462 .0310806
730.190 .0310664
730.917 .0310528
731.644 .0310404
732.371 .0310293
733.098 .0310201
733.825 .0310118
734.551 .0310043
735.277 .0309964
736.003 .0309878
736.728 .0309781
737.454 .0309677
738.179 .0309567
738.904 .0309457
739.629 .0309352
740.353 .0309262
741.077 .0309187
741.801 .0309127
742.525 .0309072
743.249 .0309019
743.972 .0308959
744.695 .0308888
745.418 .0308803
746.141 .0308713
746.863 .0308628
747.585 .0308554
748.307 .0308495
749.029 .0308454
749.750 .0308431
750.472 .0308423
751.193 .0308418
751.913 .0308415
752.634 .0308404
753.354 .0308376
754.074 .0308336
754.794 .0308284
755.514 .0308223
756.233 .0308157
756.952 .0308084
757.671 .0308006
758.390 .0307921
759.108 .0307827
759.826 .0307729
760.544 .0307624
761.262 .0307514
761.979 .0307396
762.697 .0307273
763.414 .0307152
764.130 .0307030
764.847 .0306914
765.563 .0306805
766.279 .0306704
766.995 .0306611
767.710 .0306526
768.426 .0306448
769.141 .0306382
769.855 .0306318
770.570 .0306257
771.284 .0306195
771.998 .0306131
772.712 .0306067
773.426 .0306004
774.139 .0305940
774.852 .0305878
775.565 .0305817
776.277 .0305759
776.990 .0305694
777.702 .0305626
778.414 .0305547
779.125 .0305456
779.836 .0305353
780.547 .0305238
781.258 .0305111
781.969 .0304984
782.679 .0304857
783.389 .0304733
784.099 .0304613
784.808 .0304498
785.517 .0304386
786.226 .0304276
786.935 .0304164
787.643 .0304047
788.352 .0303923
789.060 .0303794
789.767 .0303658
790.475 .0303518
791.182 .0303373
791.889 .0303226
792.595 .0303079
793.301 .0302928
794.008 .0302770
794.713 .0302608
795.419 .0302438
796.124 .0302258
796.829 .0302071
797.534 .0301878
798.238 .0301682
798.942 .0301491
799.646 .0301311
800.350 .0301143
801.053 .0300990
801.756 .0300853
802.459 .0300725
803.162 .0300608
803.864 .0300495
804.566 .0300383
805.267 .0300270
805.969 .0300157
806.670 .0300044
807.371 .0299936
808.071 .0299837
808.772 .0299746
809.472 .0299659
810.171 .0299578
810.871 .0299496
811.570 .0299408
812.269 .0299314
812.967 .0299212
813.666 .0299104
814.364 .0298997
815.061 .0298890
815.759 .0298793
816.456 .0298704
817.153 .0298621
817.849 .0298542
818.545 .0298464
819.241 .0298383
819.937 .0298297
820.632 .0298201
821.327 .0298099
822.022 .0297991
822.717 .0297882
823.411 .0297774
824.105 .0297675
824.798 .0297583
825.491 .0297495
826.184 .0297408
826.877 .0297324
827.569 .0297238
828.261 .0297153
828.953 .0297068
829.645 .0296986
830.336 .0296911
831.027 .0296846
831.717 .0296788
832.407 .0296745
833.097 .0296713
833.787 .0296689
834.476 .0296665
835.165 .0296647
835.854 .0296625
836.542 .0296607
837.230 .0296589
837.918 .0296568
838.605 .0296545
839.292 .0296524
839.979 .0296500
840.665 .0296481
841.352 .0296465
842.037 .0296448
842.723 .0296426
843.408 .0296398
844.093 .0296354
844.777 .0296294
845.462 .0296220
846.145 .0296133
846.829 .0296032
847.512 .0295927
848.195 .0295817
848.878 .0295715
849.560 .0295622
850.242 .0295535
850.923 .0295449
851.605 .0295363
852.286 .0295268
852.966 .0295162
853.646 .0295043
854.326 .0294920
855.006 .0294796
855.685 .0294674
856.364 .0294558
857.043 .0294451
857.721 .0294353
858.399 .0294264
859.077 .0294172
859.754 .0294077
860.431 .0293967
861.107 .0293843
861.784 .0293705
862.459 .0293554
863.135 .0293398
863.810 .0293238
864.485 .0293074
865.160 .0292918
865.834 .0292765
866.508 .0292621
867.181 .0292484
867.854 .0292360
868.527 .0292237
869.199 .0292114
869.872 .0291986
870.543 .0291851
871.215 .0291705
871.886 .0291553
872.557 .0291388
873.227 .0291220
873.897 .0291049
874.567 .0290875
875.236 .0290700
875.905 .0290528
876.573 .0290354
877.242 .0290174
877.909 .0289986
878.577 .0289789
879.244 .0289576
879.911 .0289354
880.577 .0289125
881.243 .0288892
881.909 .0288664
882.575 .0288441
883.240 .0288224
883.904 .0288019
884.569 .0287824
885.232 .0287635
885.896 .0287449
886.559 .0287267
887.222 .0287083
887.885 .0286898
888.547 .0286716
889.208 .0286537
889.870 .0286366
890.531 .0286210
891.192 .0286068
891.852 .0285936
892.512 .0285817
893.171 .0285709
893.830 .0285606
894.489 .0285507
895.148 .0285413
895.806 .0285320
896.464 .0285229
897.121 .0285144
897.778 .0285058
898.434 .0284974
899.091 .0284890
899.747 .0284798
900.402 .0284699
901.057 .0284590
901.712 .0284475
902.366 .0284348
903.020 .0284220
903.674 .0284092
904.327 .0283961
904.980 .0283837
905.633 .0283717
906.285 .0283601
906.936 .0283491
907.588 .0283385
908.239 .0283282
908.889 .0283182
909.540 .0283088
910.190 .0282997
910.839 .0282917
911.488 .0282845
912.137 .0282778
912.785 .0282712
913.433 .0282650
914.081 .0282582
914.728 .0282506
915.375 .0282419
916.021 .0282318
916.668 .0282206
917.313 .0282084
917.959 .0281949
918.604 .0281809
919.248 .0281664
919.892 .0281514
920.536 .0281358
921.180 .0281203
921.823 .0281044
922.465 .0280882
923.108 .0280722
923.750 .0280562
924.391 .0280402
925.032 .0280247
925.673 .0280098
926.313 .0279960
926.953 .0279833
927.593 .0279715
928.232 .0279604
928.871 .0279503
929.510 .0279404
930.148 .0279304
930.786 .0279206
931.423 .0279109
932.060 .0279007
932.697 .0278902
933.333 .0278791
933.969 .0278672
934.604 .0278546
935.239 .0278413
935.874 .0278276
936.508 .0278140
937.142 .0278011
937.776 .0277887
938.409 .0277772
939.042 .0277660
939.674 .0277550
940.306 .0277437
940.938 .0277323
941.569 .0277203
942.200 .0277083
942.830 .0276968
943.460 .0276857
944.090 .0276753
944.720 .0276659
945.349 .0276571
945.977 .0276492
946.606 .0276410
947.233 .0276322
947.861 .0276221
948.488 .0276108
949.115 .0275984
949.741 .0275854
950.367 .0275726
950.993 .0275607
951.618 .0275501
952.243 .0275407
952.868 .0275327
953.492 .0275254
954.115 .0275187
954.739 .0275117
955.362 .0275040
955.984 .0274956
956.607 .0274866
957.229 .0274780
957.850 .0274701
958.471 .0274631
959.092 .0274575
959.713 .0274524
960.333 .0274474
960.952 .0274421
961.572 .0274359
962.191 .0274285
962.809 .0274202
963.428 .0274107
964.045 .0274007
964.663 .0273908
965.280 .0273820
965.897 .0273740
966.513 .0273676
967.129 .0273621
967.745 .0273564
968.361 .0273505
968.976 .0273436
969.590 .0273352
970.205 .0273262
970.818 .0273169
971.432 .0273075
972.045 .0272987
972.658 .0272915
973.271 .0272848
973.883 .0272790
974.495 .0272729
975.106 .0272659
975.717 .0272576
976.328 .0272481
976.938 .0272371
977.548 .0272257
978.158 .0272147
978.768 .0272036
979.377 .0271928
979.985 .0271824
980.594 .0271717
981.202 .0271606
981.809 .0271489
982.417 .0271365
983.024 .0271232
983.631 .0271095
984.237 .0270953
984.843 .0270808
985.449 .0270657
986.054 .0270489
986.659 .0270310
987.264 .0270115
987.868 .0269907
988.472 .0269697
989.076 .0269490
989.679 .0269298
990.282 .0269124
990.885 .0268968
991.487 .0268827
992.090 .0268698
992.691 .0268575
993.293 .0268446
993.894 .0268317
994.495 .0268185
995.095 .0268055
995.696 .0267931
996.296 .0267824
996.895 .0267726
997.494 .0267639
998.093 .0267554
998.692 .0267456
999.291 .0267348
999.889 .0267222
1000.487 .0267073
1001.084 .0266909
1001.681 .0266732
1002.278 .0266554
1002.875 .0266375
1003.471 .0266208
1004.067 .0266056
1004.663 .0265917
1005.258 .0265790
1005.854 .0265667
1006.449 .0265552
1007.043 .0265445
1007.638 .0265344
1008.232 .0265252
1008.826 .0265173
1009.419 .0265106
1010.012 .0265051
1010.605 .0265006
1011.198 .0264965
1011.791 .0264923
1012.383 .0264870
1012.975 .0264801
1013.566 .0264719
1014.158 .0264622
1014.749 .0264516
1015.340 .0264402
1015.931 .0264301
1016.521 .0264210
1017.111 .0264134
1017.701 .0264076
1018.291 .0264029
1018.880 .0263986
1019.470 .0263942
1020.059 .0263890
1020.647 .0263832
1021.236 .0263766
1021.824 .0263702
1022.412 .0263643
1023.000 .0263599
1023.588 .0263570
1024.175 .0263559
1024.762 .0263559
1025.349 .0263566
1025.936 .0263561
1026.523 .0263542
1027.109 .0263503
1027.695 .0263450
1028.281 .0263385
1028.867 .0263312
1029.452 .0263244
1030.038 .0263192
1030.623 .0263154
1031.208 .0263136
1031.792 .0263134
1032.377 .0263146
1032.961 .0263161
1033.546 .0263174
1034.130 .0263180
1034.714 .0263180
1035.297 .0263177
1035.881 .0263179
1036.464 .0263181
1037.047 .0263192
1037.630 .0263201
1038.213 .0263216
1038.796 .0263235
1039.378 .0263250
1039.961 .0263251
1040.543 .0263239
1041.125 .0263209
1041.707 .0263167
1042.289 .0263114
1042.871 .0263063
1043.452 .0263021
1044.034 .0262994
1044.615 .0262980
1045.196 .0262973
1045.777 .0262972
1046.358 .0262975
1046.939 .0262971
1047.520 .0262960
1048.101 .0262944
1048.681 .0262923
1049.262 .0262913
1049.842 .0262920
1050.422 .0262943
1051.002 .0262985
1051.582 .0263030
1052.162 .0263076
1052.742 .0263114
1053.322 .0263139
1053.902 .0263147
1054.482 .0263137
1055.061 .0263124
1055.641 .0263101
1056.220 .0263080
1056.800 .0263071
1057.379 .0263079
1057.958 .0263103
1058.538 .0263142
1059.117 .0263186
1059.696 .0263233
1060.275 .0263290
1060.854 .0263344
1061.433 .0263410
1062.012 .0263481
1062.592 .0263561
1063.171 .0263654
1063.750 .0263755
1064.329 .0263871
1064.908 .0263988
1065.487 .0264107
1066.066 .0264226
1066.645 .0264326
1067.224 .0264409
1067.803 .0264463
1068.382 .0264492
1068.961 .0264499
1069.540 .0264480
1070.119 .0264447
1070.698 .0264405
1071.278 .0264358
1071.857 .0264312
1072.436 .0264266
1073.016 .0264223
1073.595 .0264180
1074.175 .0264135
1074.754 .0264101
1075.334 .0264069
1075.913 .0264047
1076.493 .0264049
1077.073 .0264064
1077.653 .0264094
1078.233 .0264142
1078.813 .0264205
1079.393 .0264288
1079.974 .0264383
1080.554 .0264499
1081.135 .0264618
1081.716 .0264746
1082.296 .0264871
1082.877 .0264982
1083.458 .0265087
1084.040 .0265178
1084.621 .0265249
1085.202 .0265328
1085.784 .0265413
1086.366 .0265508
1086.948 .0265616
1087.530 .0265743
1088.112 .0265876
1088.695 .0265993
1089.277 .0266096
1089.860 .0266187
1090.443 .0266242
1091.026 .0266276
1091.610 .0266276
1092.193 .0266259
1092.777 .0266230
1093.361 .0266182
1093.946 .0266123
1094.530 .0266058
1095.115 .0265988
1095.700 .0265900
1096.285 .0265800
1096.871 .0265699
1097.456 .0265588
1098.042 .0265477
1098.628 .0265373
1099.215 .0265268
1099.802 .0265163
1100.389 .0265057
1100.976 .0264947
1101.564 .0264843
1102.152 .0264743
1102.740 .0264645
1103.329 .0264572
1103.917 .0264514
1104.507 .0264469
1105.096 .0264441
1105.686 .0264438
1106.276 .0264435
1106.867 .0264447
1107.457 .0264479
1108.049 .0264515
1108.640 .0264569
1109.232 .0264641
1109.825 .0264720
1110.417 .0264828
1111.010 .0264941
1111.604 .0265041
1112.198 .0265125
1112.792 .0265210
1113.387 .0265267
1113.982 .0265313
1114.577 .0265380
1115.173 .0265443
1115.769 .0265521
1116.366 .0265632
1116.963 .0265762
1117.561 .0265913
1118.159 .0266085
1118.758 .0266257
1119.357 .0266412
1119.957 .0266552
1120.557 .0266679
1121.157 .0266801
1121.758 .0266952
1122.360 .0267133
1122.962 .0267311
1123.564 .0267516
1124.167 .0267738
1124.771 .0267931
1125.375 .0268104
1125.980 .0268241
1126.585 .0268341
1127.191 .0268412
1127.797 .0268478
1128.404 .0268552
1129.012 .0268645
1129.620 .0268801
1130.229 .0268991
1130.838 .0269215
1131.448 .0269466
1132.058 .0269728
1132.669 .0270025
1133.281 .0270389
1133.894 .0270788
1134.507 .0271232
1135.120 .0271750
1135.735 .0272316
1136.350 .0272914
1136.965 .0273544
1137.582 .0274179
1138.199 .0274829
1138.816 .0275506
1139.435 .0276176
1140.054 .0276887
1140.674 .0277563
1141.294 .0278281
1141.916 .0279026
1142.538 .0279839
1143.160 .0281568
1143.784 .0279352
1144.408 .0281719
1145.033 .0283559
