Measurement Sequence started on: 14-45-04-498
Integration time: 36
Scans to Average: 2 
>>>>>Begin Spectral Data<<<<<
433.946 .0439925
434.870 .0466594
435.793 .0433889
436.715 .0425902
437.635 .0436505
438.555 .0447263
439.473 .0450059
440.389 .0452419
441.305 .0455603
442.219 .0458246
443.132 .0460141
444.044 .0461415
444.954 .0462531
445.863 .0463545
446.771 .0464480
447.678 .0465466
448.584 .0466408
449.488 .0467104
450.391 .0467517
451.293 .0467501
452.194 .0467233
453.094 .0466558
453.992 .0465770
454.890 .0464796
455.786 .0463866
456.681 .0462960
457.575 .0462179
458.468 .0461464
459.360 .0460855
460.250 .0460206
461.140 .0459460
462.028 .0458620
462.915 .0457578
463.801 .0456335
464.687 .0455015
465.571 .0453648
466.454 .0452344
467.335 .0451113
468.216 .0450082
469.096 .0449206
469.975 .0448522
470.853 .0447937
471.729 .0447397
472.605 .0446903
473.479 .0446405
474.353 .0445834
475.226 .0445262
476.097 .0444731
476.968 .0444245
477.838 .0443805
478.706 .0443443
479.574 .0443128
480.441 .0442875
481.306 .0442646
482.171 .0442389
483.035 .0442089
483.898 .0441756
484.760 .0441355
485.621 .0440912
486.481 .0440456
487.340 .0440002
488.198 .0439525
489.055 .0439055
489.912 .0438557
490.767 .0438029
491.622 .0437484
492.476 .0436922
493.329 .0436357
494.180 .0435787
495.032 .0435215
495.882 .0434661
496.731 .0434154
497.580 .0433670
498.427 .0433188
499.274 .0432688
500.120 .0432162
500.965 .0431605
501.809 .0431051
502.653 .0430520
503.495 .0430072
504.337 .0429740
505.178 .0429492
506.018 .0429351
506.858 .0429297
507.696 .0429281
508.534 .0429263
509.371 .0429180
510.208 .0429012
511.043 .0428729
511.878 .0428403
512.712 .0428041
513.545 .0427689
514.377 .0427380
515.209 .0427101
516.040 .0426829
516.870 .0426562
517.699 .0426284
518.528 .0425961
519.356 .0425603
520.183 .0425175
521.010 .0424760
521.836 .0424317
522.661 .0423902
523.485 .0423528
524.309 .0423143
525.132 .0422746
525.954 .0422248
526.776 .0421631
527.597 .0420918
528.417 .0420121
529.237 .0419309
530.056 .0418340
530.874 .0417367
531.692 .0416344
532.508 .0415261
533.325 .0414160
534.140 .0412996
534.955 .0411804
535.770 .0410609
536.583 .0409410
537.397 .0408251
538.209 .0407137
539.021 .0406200
539.832 .0405367
540.643 .0404639
541.453 .0404039
542.262 .0403534
543.071 .0403089
543.879 .0402692
544.687 .0402250
545.494 .0401729
546.300 .0401104
547.106 .0400385
547.911 .0399558
548.716 .0398673
549.520 .0397779
550.323 .0396967
551.126 .0396227
551.929 .0395659
552.731 .0395172
553.532 .0394805
554.332 .0394530
555.133 .0394300
555.932 .0394073
556.731 .0393854
557.530 .0393636
558.328 .0393429
559.125 .0393230
559.922 .0393106
560.719 .0393003
561.515 .0392928
562.310 .0392861
563.105 .0392775
563.899 .0392618
564.693 .0392392
565.487 .0392035
566.280 .0391591
567.072 .0391071
567.864 .0390486
568.655 .0389850
569.446 .0389206
570.236 .0388572
571.026 .0387940
571.816 .0387326
572.605 .0386715
573.393 .0386090
574.181 .0385489
574.969 .0384889
575.756 .0384284
576.543 .0383688
577.329 .0383121
578.115 .0382587
578.900 .0382089
579.685 .0381615
580.469 .0381168
581.253 .0380750
582.036 .0380347
582.820 .0379925
583.602 .0379478
584.384 .0379028
585.166 .0378560
585.947 .0378081
586.728 .0377600
587.509 .0377107
588.289 .0376628
589.069 .0376169
589.848 .0375725
590.627 .0375293
591.405 .0374870
592.183 .0374461
592.961 .0374051
593.738 .0373650
594.515 .0373247
595.291 .0372832
596.067 .0372433
596.843 .0372029
597.618 .0371628
598.393 .0371244
599.167 .0370874
599.941 .0370525
600.715 .0370201
601.488 .0369903
602.261 .0369627
603.034 .0369371
603.806 .0369134
604.578 .0368907
605.349 .0368690
606.121 .0368477
606.891 .0368266
607.662 .0368053
608.432 .0367848
609.201 .0367638
609.971 .0367437
610.740 .0367239
611.508 .0367038
612.277 .0366832
613.045 .0366618
613.812 .0366394
614.579 .0366155
615.346 .0365898
616.113 .0365626
616.879 .0365342
617.645 .0365049
618.411 .0364745
619.176 .0364443
619.941 .0364138
620.705 .0363836
621.470 .0363534
622.233 .0363231
622.997 .0362929
623.760 .0362627
624.523 .0362327
625.286 .0362027
626.048 .0361728
626.810 .0361423
627.572 .0361112
628.333 .0360797
629.095 .0360475
629.855 .0360144
630.616 .0359813
631.376 .0359487
632.136 .0359163
632.895 .0358841
633.655 .0358528
634.414 .0358216
635.172 .0357905
635.931 .0357591
636.689 .0357271
637.447 .0356938
638.204 .0356603
638.962 .0356265
639.718 .0355927
640.475 .0355594
641.231 .0355272
641.988 .0354947
642.743 .0354631
643.499 .0354315
644.254 .0353990
645.009 .0353665
645.764 .0353336
646.518 .0353002
647.272 .0352676
648.026 .0352361
648.780 .0352060
649.533 .0351778
650.286 .0351515
651.039 .0351262
651.792 .0351011
652.544 .0350770
653.296 .0350519
654.048 .0350270
654.799 .0350026
655.550 .0349782
656.301 .0349544
657.052 .0349321
657.802 .0349108
658.552 .0348908
659.302 .0348718
660.052 .0348527
660.801 .0348330
661.550 .0348132
662.299 .0347921
663.048 .0347700
663.796 .0347471
664.544 .0347237
665.292 .0346995
666.040 .0346751
666.787 .0346505
667.534 .0346264
668.281 .0346033
669.028 .0345808
669.774 .0345589
670.521 .0345378
671.266 .0345177
672.012 .0344986
672.758 .0344803
673.503 .0344629
674.248 .0344453
674.992 .0344279
675.737 .0344103
676.481 .0343930
677.225 .0343760
677.969 .0343592
678.712 .0343433
679.455 .0343275
680.199 .0343120
680.941 .0342966
681.684 .0342811
682.426 .0342655
683.168 .0342493
683.910 .0342323
684.652 .0342145
685.393 .0341969
686.134 .0341794
686.875 .0341625
687.616 .0341464
688.356 .0341315
689.097 .0341174
689.837 .0341036
690.576 .0340903
691.316 .0340767
692.055 .0340631
692.794 .0340486
693.533 .0340331
694.272 .0340171
695.010 .0340003
695.748 .0339833
696.486 .0339656
697.224 .0339480
697.962 .0339301
698.699 .0339122
699.436 .0338945
700.173 .0338771
700.909 .0338599
701.646 .0338432
702.382 .0338266
703.118 .0338101
703.853 .0337937
704.589 .0337771
705.324 .0337602
706.059 .0337434
706.794 .0337260
707.529 .0337084
708.263 .0336908
708.997 .0336738
709.731 .0336565
710.465 .0336395
711.198 .0336226
711.931 .0336055
712.664 .0335885
713.397 .0335709
714.130 .0335530
714.862 .0335349
715.594 .0335168
716.326 .0334985
717.058 .0334806
717.789 .0334634
718.520 .0334465
719.251 .0334308
719.982 .0334157
720.713 .0334016
721.443 .0333882
722.173 .0333755
722.903 .0333632
723.633 .0333512
724.362 .0333397
725.091 .0333279
725.820 .0333168
726.549 .0333060
727.278 .0332953
728.006 .0332848
728.734 .0332744
729.462 .0332640
730.190 .0332535
730.917 .0332431
731.644 .0332324
732.371 .0332215
733.098 .0332106
733.825 .0331992
734.551 .0331880
735.277 .0331765
736.003 .0331650
736.728 .0331529
737.454 .0331407
738.179 .0331280
738.904 .0331151
739.629 .0331021
740.353 .0330888
741.077 .0330753
741.801 .0330621
742.525 .0330482
743.249 .0330341
743.972 .0330199
744.695 .0330057
745.418 .0329905
746.141 .0329750
746.863 .0329587
747.585 .0329421
748.307 .0329246
749.029 .0329066
749.750 .0328879
750.472 .0328697
751.193 .0328517
751.913 .0328343
752.634 .0328184
753.354 .0328046
754.074 .0327921
754.794 .0327813
755.514 .0327717
756.233 .0327631
756.952 .0327545
757.671 .0327463
758.390 .0327382
759.108 .0327304
759.826 .0327233
760.544 .0327168
761.262 .0327112
761.979 .0327065
762.697 .0327017
763.414 .0326966
764.130 .0326910
764.847 .0326847
765.563 .0326771
766.279 .0326689
766.995 .0326604
767.710 .0326517
768.426 .0326429
769.141 .0326347
769.855 .0326271
770.570 .0326201
771.284 .0326136
771.998 .0326069
772.712 .0326006
773.426 .0325947
774.139 .0325893
774.852 .0325843
775.565 .0325797
776.277 .0325750
776.990 .0325703
777.702 .0325651
778.414 .0325591
779.125 .0325521
779.836 .0325441
780.547 .0325351
781.258 .0325254
781.969 .0325152
782.679 .0325052
783.389 .0324955
784.099 .0324868
784.808 .0324781
785.517 .0324698
786.226 .0324613
786.935 .0324526
787.643 .0324437
788.352 .0324345
789.060 .0324248
789.767 .0324149
790.475 .0324052
791.182 .0323955
791.889 .0323863
792.595 .0323780
793.301 .0323700
794.008 .0323622
794.713 .0323541
795.419 .0323455
796.124 .0323356
796.829 .0323246
797.534 .0323125
798.238 .0322993
798.942 .0322853
799.646 .0322710
800.350 .0322571
801.053 .0322443
801.756 .0322325
802.459 .0322218
803.162 .0322121
803.864 .0322031
804.566 .0321943
805.267 .0321851
805.969 .0321759
806.670 .0321671
807.371 .0321587
808.071 .0321512
808.772 .0321449
809.472 .0321395
810.171 .0321349
810.871 .0321314
811.570 .0321281
812.269 .0321248
812.967 .0321211
813.666 .0321171
814.364 .0321124
815.061 .0321072
815.759 .0321015
816.456 .0320953
817.153 .0320888
817.849 .0320814
818.545 .0320727
819.241 .0320633
819.937 .0320534
820.632 .0320437
821.327 .0320337
822.022 .0320240
822.717 .0320144
823.411 .0320054
824.105 .0319970
824.798 .0319886
825.491 .0319805
826.184 .0319727
826.877 .0319652
827.569 .0319582
828.261 .0319514
828.953 .0319449
829.645 .0319383
830.336 .0319312
831.027 .0319224
831.717 .0319115
832.407 .0318985
833.097 .0318841
833.787 .0318680
834.476 .0318508
835.165 .0318331
835.854 .0318150
836.542 .0317970
837.230 .0317789
837.918 .0317607
838.605 .0317417
839.292 .0317226
839.979 .0317034
840.665 .0316843
841.352 .0316666
842.037 .0316505
842.723 .0316365
843.408 .0316248
844.093 .0316145
844.777 .0316052
845.462 .0315962
846.145 .0315875
846.829 .0315777
847.512 .0315674
848.195 .0315566
848.878 .0315453
849.560 .0315339
850.242 .0315230
850.923 .0315123
851.605 .0315017
852.286 .0314909
852.966 .0314792
853.646 .0314668
854.326 .0314538
855.006 .0314403
855.685 .0314267
856.364 .0314135
857.043 .0314007
857.721 .0313884
858.399 .0313770
859.077 .0313659
859.754 .0313549
860.431 .0313443
861.107 .0313339
861.784 .0313236
862.459 .0313137
863.135 .0313044
863.810 .0312959
864.485 .0312881
865.160 .0312805
865.834 .0312733
866.508 .0312663
867.181 .0312595
867.854 .0312528
868.527 .0312467
869.199 .0312411
869.872 .0312362
870.543 .0312321
871.215 .0312287
871.886 .0312259
872.557 .0312231
873.227 .0312203
873.897 .0312169
874.567 .0312130
875.236 .0312084
875.905 .0312032
876.573 .0311979
877.242 .0311922
877.909 .0311864
878.577 .0311806
879.244 .0311747
879.911 .0311679
880.577 .0311605
881.243 .0311523
881.909 .0311431
882.575 .0311329
883.240 .0311215
883.904 .0311094
884.569 .0310965
885.232 .0310829
885.896 .0310686
886.559 .0310536
887.222 .0310383
887.885 .0310222
888.547 .0310063
889.208 .0309902
889.870 .0309743
890.531 .0309592
891.192 .0309453
891.852 .0309322
892.512 .0309197
893.171 .0309076
893.830 .0308956
894.489 .0308833
895.148 .0308702
895.806 .0308562
896.464 .0308418
897.121 .0308266
897.778 .0308116
898.434 .0307963
899.091 .0307815
899.747 .0307665
900.402 .0307513
901.057 .0307352
901.712 .0307178
902.366 .0306987
903.020 .0306781
903.674 .0306567
904.327 .0306350
904.980 .0306132
905.633 .0305924
906.285 .0305726
906.936 .0305541
907.588 .0305364
908.239 .0305198
908.889 .0305035
909.540 .0304878
910.190 .0304718
910.839 .0304561
911.488 .0304404
912.137 .0304253
912.785 .0304105
913.433 .0303966
914.081 .0303834
914.728 .0303709
915.375 .0303588
916.021 .0303478
916.668 .0303375
917.313 .0303279
917.959 .0303189
918.604 .0303108
919.248 .0303028
919.892 .0302955
920.536 .0302885
921.180 .0302821
921.823 .0302761
922.465 .0302709
923.108 .0302661
923.750 .0302621
924.391 .0302581
925.032 .0302543
925.673 .0302498
926.313 .0302444
926.953 .0302372
927.593 .0302282
928.232 .0302178
928.871 .0302061
929.510 .0301940
930.148 .0301822
930.786 .0301714
931.423 .0301617
932.060 .0301530
932.697 .0301451
933.333 .0301372
933.969 .0301282
934.604 .0301179
935.239 .0301061
935.874 .0300929
936.508 .0300792
937.142 .0300655
937.776 .0300523
938.409 .0300399
939.042 .0300278
939.674 .0300157
940.306 .0300025
940.938 .0299878
941.569 .0299705
942.200 .0299502
942.830 .0299276
943.460 .0299021
944.090 .0298749
944.720 .0298464
945.349 .0298175
945.977 .0297885
946.606 .0297596
947.233 .0297309
947.861 .0297025
948.488 .0296745
949.115 .0296470
949.741 .0296199
950.367 .0295938
950.993 .0295686
951.618 .0295447
952.243 .0295218
952.868 .0294997
953.492 .0294781
954.115 .0294572
954.739 .0294362
955.362 .0294158
955.984 .0293953
956.607 .0293746
957.229 .0293540
957.850 .0293334
958.471 .0293121
959.092 .0292901
959.713 .0292672
960.333 .0292435
960.952 .0292193
961.572 .0291948
962.191 .0291706
962.809 .0291477
963.428 .0291265
964.045 .0291067
964.663 .0290890
965.280 .0290734
965.897 .0290595
966.513 .0290475
967.129 .0290372
967.745 .0290282
968.361 .0290202
968.976 .0290133
969.590 .0290072
970.205 .0290016
970.818 .0289967
971.432 .0289923
972.045 .0289883
972.658 .0289845
973.271 .0289803
973.883 .0289756
974.495 .0289701
975.106 .0289639
975.717 .0289570
976.328 .0289495
976.938 .0289421
977.548 .0289352
978.158 .0289287
978.768 .0289232
979.377 .0289185
979.985 .0289144
980.594 .0289105
981.202 .0289063
981.809 .0289013
982.417 .0288960
983.024 .0288906
983.631 .0288856
984.237 .0288806
984.843 .0288761
985.449 .0288719
986.054 .0288671
986.659 .0288621
987.264 .0288559
987.868 .0288490
988.472 .0288414
989.076 .0288333
989.679 .0288258
990.282 .0288185
990.885 .0288127
991.487 .0288083
992.090 .0288047
992.691 .0288017
993.293 .0287986
993.894 .0287950
994.495 .0287914
995.095 .0287876
995.696 .0287837
996.296 .0287806
996.895 .0287788
997.494 .0287787
998.093 .0287805
998.692 .0287843
999.291 .0287897
999.889 .0287961
1000.487 .0288037
1001.084 .0288114
1001.681 .0288193
1002.278 .0288271
1002.875 .0288347
1003.471 .0288423
1004.067 .0288498
1004.663 .0288570
1005.258 .0288640
1005.854 .0288709
1006.449 .0288771
1007.043 .0288819
1007.638 .0288846
1008.232 .0288856
1008.826 .0288853
1009.419 .0288830
1010.012 .0288794
1010.605 .0288745
1011.198 .0288694
1011.791 .0288638
1012.383 .0288584
1012.975 .0288533
1013.566 .0288484
1014.158 .0288440
1014.749 .0288399
1015.340 .0288362
1015.931 .0288336
1016.521 .0288321
1017.111 .0288319
1017.701 .0288330
1018.291 .0288346
1018.880 .0288355
1019.470 .0288362
1020.059 .0288359
1020.647 .0288346
1021.236 .0288318
1021.824 .0288280
1022.412 .0288237
1023.000 .0288187
1023.588 .0288137
1024.175 .0288084
1024.762 .0288031
1025.349 .0287978
1025.936 .0287912
1026.523 .0287836
1027.109 .0287752
1027.695 .0287656
1028.281 .0287556
1028.867 .0287450
1029.452 .0287343
1030.038 .0287233
1030.623 .0287124
1031.208 .0287015
1031.792 .0286909
1032.377 .0286798
1032.961 .0286684
1033.546 .0286561
1034.130 .0286435
1034.714 .0286302
1035.297 .0286164
1035.881 .0286022
1036.464 .0285876
1037.047 .0285722
1037.630 .0285568
1038.213 .0285404
1038.796 .0285246
1039.378 .0285086
1039.961 .0284931
1040.543 .0284783
1041.125 .0284640
1041.707 .0284501
1042.289 .0284370
1042.871 .0284251
1043.452 .0284141
1044.034 .0284030
1044.615 .0283930
1045.196 .0283833
1045.777 .0283739
1046.358 .0283652
1046.939 .0283566
1047.520 .0283475
1048.101 .0283385
1048.681 .0283282
1049.262 .0283174
1049.842 .0283068
1050.422 .0282962
1051.002 .0282859
1051.582 .0282758
1052.162 .0282666
1052.742 .0282579
1053.322 .0282505
1053.902 .0282446
1054.482 .0282395
1055.061 .0282359
1055.641 .0282333
1056.220 .0282311
1056.800 .0282307
1057.379 .0282322
1057.958 .0282357
1058.538 .0282418
1059.117 .0282495
1059.696 .0282581
1060.275 .0282684
1060.854 .0282788
1061.433 .0282883
1062.012 .0282970
1062.592 .0283052
1063.171 .0283128
1063.750 .0283196
1064.329 .0283259
1064.908 .0283310
1065.487 .0283349
1066.066 .0283383
1066.645 .0283394
1067.224 .0283385
1067.803 .0283365
1068.382 .0283325
1068.961 .0283290
1069.540 .0283260
1070.119 .0283234
1070.698 .0283227
1071.278 .0283236
1071.857 .0283257
1072.436 .0283272
1073.016 .0283279
1073.595 .0283286
1074.175 .0283279
1074.754 .0283272
1075.334 .0283272
1075.913 .0283288
1076.493 .0283330
1077.073 .0283389
1077.653 .0283470
1078.233 .0283578
1078.813 .0283692
1079.393 .0283819
1079.974 .0283954
1080.554 .0284100
1081.135 .0284258
1081.716 .0284423
1082.296 .0284614
1082.877 .0284824
1083.458 .0285037
1084.040 .0285251
1084.621 .0285438
1085.202 .0285596
1085.784 .0285709
1086.366 .0285781
1086.948 .0285821
1087.530 .0285819
1088.112 .0285782
1088.695 .0285717
1089.277 .0285629
1089.860 .0285522
1090.443 .0285375
1091.026 .0285225
1091.610 .0285077
1092.193 .0284924
1092.777 .0284771
1093.361 .0284647
1093.946 .0284556
1094.530 .0284506
1095.115 .0284487
1095.700 .0284499
1096.285 .0284535
1096.871 .0284596
1097.456 .0284665
1098.042 .0284741
1098.628 .0284829
1099.215 .0284913
1099.802 .0284979
1100.389 .0285033
1100.976 .0285044
1101.564 .0285021
1102.152 .0284951
1102.740 .0284843
1103.329 .0284685
1103.917 .0284495
1104.507 .0284282
1105.096 .0284070
1105.686 .0283883
1106.276 .0283718
1106.867 .0283601
1107.457 .0283518
1108.049 .0283481
1108.640 .0283473
1109.232 .0283475
1109.825 .0283476
1110.417 .0283491
1111.010 .0283504
1111.604 .0283506
1112.198 .0283523
1112.792 .0283555
1113.387 .0283596
1113.982 .0283678
1114.577 .0283788
1115.173 .0283934
1115.769 .0284101
1116.366 .0284293
1116.963 .0284467
1117.561 .0284663
1118.159 .0284840
1118.758 .0285003
1119.357 .0285158
1119.957 .0285337
1120.557 .0285493
1121.157 .0285665
1121.758 .0285845
1122.360 .0286037
1122.962 .0286224
1123.564 .0286403
1124.167 .0286520
1124.771 .0286612
1125.375 .0286649
1125.980 .0286642
1126.585 .0286581
1127.191 .0286532
1127.797 .0286475
1128.404 .0286466
1129.012 .0286502
1129.620 .0286620
1130.229 .0286770
1130.838 .0286980
1131.448 .0287178
1132.058 .0287371
1132.669 .0287548
1133.281 .0287727
1133.894 .0287911
1134.507 .0288183
1135.120 .0288550
1135.735 .0289023
1136.350 .0289608
1136.965 .0290321
1137.582 .0291074
1138.199 .0291848
1138.816 .0292562
1139.435 .0293281
1140.054 .0294027
1140.674 .0294778
1141.294 .0295636
1141.916 .0296614
1142.538 .0297146
1143.160 .0299499
1143.784 .0299528
1144.408 .0302733
1145.033 .0303325
