Measurement Sequence started on: 14-45-04-498
Integration time: 36
Scans to Average: 2 
>>>>>Begin Spectral Data<<<<<
433.946 .0607606
434.870 .0623383
435.793 .0593878
436.715 .0588165
437.635 .0580280
438.555 .0575148
439.473 .0568974
440.389 .0563326
441.305 .0559398
442.219 .0556311
443.132 .0553986
444.044 .0552176
444.954 .0550857
445.863 .0549555
446.771 .0548218
447.678 .0546969
448.584 .0545839
449.488 .0544831
450.391 .0543922
451.293 .0543048
452.194 .0542182
453.094 .0541258
453.992 .0540177
454.890 .0538906
455.786 .0537449
456.681 .0535857
457.575 .0534155
458.468 .0532486
459.360 .0530930
460.250 .0529518
461.140 .0528211
462.028 .0526925
462.915 .0525645
463.801 .0524325
464.687 .0523035
465.571 .0521718
466.454 .0520430
467.335 .0519218
468.216 .0518065
469.096 .0517000
469.975 .0516023
470.853 .0515143
471.729 .0514332
472.605 .0513547
473.479 .0512794
474.353 .0512015
475.226 .0511296
476.097 .0510620
476.968 .0509995
477.838 .0509406
478.706 .0508903
479.574 .0508407
480.441 .0507932
481.306 .0507463
482.171 .0506993
483.035 .0506526
483.898 .0506075
484.760 .0505652
485.621 .0505253
486.481 .0504850
487.340 .0504485
488.198 .0504119
489.055 .0503737
489.912 .0503307
490.767 .0502854
491.622 .0502392
492.476 .0501956
493.329 .0501527
494.180 .0501120
495.032 .0500774
495.882 .0500446
496.731 .0500075
497.580 .0499680
498.427 .0499260
499.274 .0498765
500.120 .0498199
500.965 .0497627
501.809 .0497036
502.653 .0496441
503.495 .0495884
504.337 .0495329
505.178 .0494787
506.018 .0494274
506.858 .0493677
507.696 .0493072
508.534 .0492442
509.371 .0491774
510.208 .0491132
511.043 .0490590
511.878 .0490140
512.712 .0489786
513.545 .0489566
514.377 .0489475
515.209 .0489360
516.040 .0489329
516.870 .0489253
517.699 .0489221
518.528 .0489257
519.356 .0489434
520.183 .0489723
521.010 .0490280
521.836 .0491016
522.661 .0491873
523.485 .0492775
524.309 .0493707
525.132 .0494457
525.954 .0495052
526.776 .0495470
527.597 .0495780
528.417 .0495967
529.237 .0496290
530.056 .0496567
530.874 .0496885
531.692 .0497179
532.508 .0497350
533.325 .0497233
534.140 .0496847
534.955 .0496129
535.770 .0495036
536.583 .0493702
537.397 .0492288
538.209 .0490753
539.021 .0489318
539.832 .0487959
540.643 .0486656
541.453 .0485343
542.262 .0484116
543.071 .0482834
543.879 .0481547
544.687 .0480295
545.494 .0479096
546.300 .0477940
547.106 .0476894
547.911 .0475922
548.716 .0475035
549.520 .0474261
550.323 .0473565
551.126 .0472863
551.929 .0472196
552.731 .0471541
553.532 .0470874
554.332 .0470113
555.133 .0469335
555.932 .0468462
556.731 .0467526
557.530 .0466511
558.328 .0465474
559.125 .0464467
559.922 .0463504
560.719 .0462585
561.515 .0461680
562.310 .0460819
563.105 .0459999
563.899 .0459193
564.693 .0458427
565.487 .0457685
566.280 .0456964
567.072 .0456238
567.864 .0455528
568.655 .0454771
569.446 .0454007
570.236 .0453202
571.026 .0452365
571.816 .0451520
572.605 .0450629
573.393 .0449760
574.181 .0448924
574.969 .0448120
575.756 .0447317
576.543 .0446496
577.329 .0445683
578.115 .0444842
578.900 .0444007
579.685 .0443183
580.469 .0442421
581.253 .0441768
582.036 .0441200
582.820 .0440698
583.602 .0440271
584.384 .0439899
585.166 .0439538
585.947 .0439163
586.728 .0438756
587.509 .0438318
588.289 .0437859
589.069 .0437392
589.848 .0436943
590.627 .0436538
591.405 .0436180
592.183 .0435874
592.961 .0435601
593.738 .0435349
594.515 .0435102
595.291 .0434844
596.067 .0434567
596.843 .0434268
597.618 .0433952
598.393 .0433635
599.167 .0433328
599.941 .0433052
600.715 .0432806
601.488 .0432595
602.261 .0432414
603.034 .0432245
603.806 .0432071
604.578 .0431876
605.349 .0431649
606.121 .0431403
606.891 .0431135
607.662 .0430838
608.432 .0430537
609.201 .0430239
609.971 .0429951
610.740 .0429668
611.508 .0429387
612.277 .0429102
613.045 .0428808
613.812 .0428506
614.579 .0428183
615.346 .0427854
616.113 .0427534
616.879 .0427222
617.645 .0426935
618.411 .0426675
619.176 .0426432
619.941 .0426207
620.705 .0426002
621.470 .0425800
622.233 .0425601
622.997 .0425399
623.760 .0425192
624.523 .0424983
625.286 .0424773
626.048 .0424548
626.810 .0424310
627.572 .0424062
628.333 .0423796
629.095 .0423516
629.855 .0423226
630.616 .0422929
631.376 .0422643
632.136 .0422371
632.895 .0422110
633.655 .0421865
634.414 .0421640
635.172 .0421427
635.931 .0421219
636.689 .0421007
637.447 .0420788
638.204 .0420564
638.962 .0420339
639.718 .0420114
640.475 .0419893
641.231 .0419681
641.988 .0419462
642.743 .0419236
643.499 .0418996
644.254 .0418727
645.009 .0418427
645.764 .0418097
646.518 .0417747
647.272 .0417376
648.026 .0417002
648.780 .0416634
649.533 .0416284
650.286 .0415949
651.039 .0415619
651.792 .0415295
652.544 .0414972
653.296 .0414644
654.048 .0414314
654.799 .0413987
655.550 .0413664
656.301 .0413346
657.052 .0413035
657.802 .0412726
658.552 .0412422
659.302 .0412106
660.052 .0411779
660.801 .0411432
661.550 .0411073
662.299 .0410705
663.048 .0410336
663.796 .0409982
664.544 .0409647
665.292 .0409331
666.040 .0409040
666.787 .0408762
667.534 .0408496
668.281 .0408234
669.028 .0407978
669.774 .0407727
670.521 .0407484
671.266 .0407258
672.012 .0407052
672.758 .0406866
673.503 .0406701
674.248 .0406543
674.992 .0406388
675.737 .0406229
676.481 .0406062
677.225 .0405879
677.969 .0405686
678.712 .0405484
679.455 .0405275
680.199 .0405064
680.941 .0404852
681.684 .0404638
682.426 .0404418
683.168 .0404198
683.910 .0403966
684.652 .0403730
685.393 .0403489
686.134 .0403244
686.875 .0402999
687.616 .0402760
688.356 .0402525
689.097 .0402293
689.837 .0402066
690.576 .0401837
691.316 .0401602
692.055 .0401371
692.794 .0401129
693.533 .0400887
694.272 .0400638
695.010 .0400390
695.748 .0400140
696.486 .0399892
697.224 .0399644
697.962 .0399401
698.699 .0399168
699.436 .0398939
700.173 .0398710
700.909 .0398486
701.646 .0398263
702.382 .0398043
703.118 .0397820
703.853 .0397595
704.589 .0397362
705.324 .0397124
706.059 .0396880
706.794 .0396631
707.529 .0396380
708.263 .0396127
708.997 .0395878
709.731 .0395629
710.465 .0395378
711.198 .0395124
711.931 .0394870
712.664 .0394616
713.397 .0394362
714.130 .0394100
714.862 .0393838
715.594 .0393583
716.326 .0393335
717.058 .0393102
717.789 .0392888
718.520 .0392689
719.251 .0392503
719.982 .0392331
720.713 .0392166
721.443 .0392001
722.173 .0391834
722.903 .0391660
723.633 .0391478
724.362 .0391286
725.091 .0391084
725.820 .0390879
726.549 .0390681
727.278 .0390486
728.006 .0390290
728.734 .0390093
729.462 .0389891
730.190 .0389682
730.917 .0389468
731.644 .0389253
732.371 .0389039
733.098 .0388834
733.825 .0388643
734.551 .0388469
735.277 .0388317
736.003 .0388182
736.728 .0388062
737.454 .0387954
738.179 .0387848
738.904 .0387743
739.629 .0387638
740.353 .0387541
741.077 .0387455
741.801 .0387379
742.525 .0387314
743.249 .0387262
743.972 .0387218
744.695 .0387177
745.418 .0387132
746.141 .0387077
746.863 .0387011
747.585 .0386931
748.307 .0386836
749.029 .0386726
749.750 .0386610
750.472 .0386486
751.193 .0386355
751.913 .0386221
752.634 .0386079
753.354 .0385931
754.074 .0385775
754.794 .0385609
755.514 .0385435
756.233 .0385249
756.952 .0385049
757.671 .0384837
758.390 .0384619
759.108 .0384394
759.826 .0384173
760.544 .0383960
761.262 .0383763
761.979 .0383580
762.697 .0383416
763.414 .0383270
764.130 .0383134
764.847 .0383005
765.563 .0382878
766.279 .0382748
766.995 .0382611
767.710 .0382466
768.426 .0382317
769.141 .0382163
769.855 .0382008
770.570 .0381849
771.284 .0381687
771.998 .0381522
772.712 .0381351
773.426 .0381175
774.139 .0380995
774.852 .0380816
775.565 .0380631
776.277 .0380448
776.990 .0380273
777.702 .0380097
778.414 .0379926
779.125 .0379763
779.836 .0379607
780.547 .0379457
781.258 .0379318
781.969 .0379186
782.679 .0379066
783.389 .0378959
784.099 .0378857
784.808 .0378758
785.517 .0378666
786.226 .0378563
786.935 .0378449
787.643 .0378329
788.352 .0378198
789.060 .0378055
789.767 .0377912
790.475 .0377766
791.182 .0377623
791.889 .0377484
792.595 .0377353
793.301 .0377228
794.008 .0377110
794.713 .0376998
795.419 .0376889
796.124 .0376792
796.829 .0376706
797.534 .0376626
798.238 .0376562
798.942 .0376511
799.646 .0376469
800.350 .0376433
801.053 .0376401
801.756 .0376370
802.459 .0376330
803.162 .0376280
803.864 .0376221
804.566 .0376152
805.267 .0376071
805.969 .0375977
806.670 .0375876
807.371 .0375769
808.071 .0375659
808.772 .0375549
809.472 .0375436
810.171 .0375324
810.871 .0375212
811.570 .0375099
812.269 .0374984
812.967 .0374874
813.666 .0374760
814.364 .0374654
815.061 .0374556
815.759 .0374466
816.456 .0374380
817.153 .0374301
817.849 .0374225
818.545 .0374144
819.241 .0374051
819.937 .0373947
820.632 .0373821
821.327 .0373677
822.022 .0373507
822.717 .0373317
823.411 .0373107
824.105 .0372884
824.798 .0372647
825.491 .0372405
826.184 .0372160
826.877 .0371914
827.569 .0371668
828.261 .0371425
828.953 .0371179
829.645 .0370930
830.336 .0370679
831.027 .0370431
831.717 .0370181
832.407 .0369939
833.097 .0369707
833.787 .0369493
834.476 .0369295
835.165 .0369115
835.854 .0368949
836.542 .0368793
837.230 .0368641
837.918 .0368489
838.605 .0368334
839.292 .0368179
839.979 .0368022
840.665 .0367865
841.352 .0367714
842.037 .0367571
842.723 .0367434
843.408 .0367301
844.093 .0367167
844.777 .0367025
845.462 .0366873
846.145 .0366710
846.829 .0366534
847.512 .0366353
848.195 .0366174
848.878 .0365994
849.560 .0365820
850.242 .0365650
850.923 .0365481
851.605 .0365311
852.286 .0365135
852.966 .0364950
853.646 .0364755
854.326 .0364555
855.006 .0364353
855.685 .0364148
856.364 .0363949
857.043 .0363754
857.721 .0363562
858.399 .0363376
859.077 .0363188
859.754 .0362994
860.431 .0362799
861.107 .0362600
861.784 .0362400
862.459 .0362198
863.135 .0361999
863.810 .0361805
864.485 .0361620
865.160 .0361448
865.834 .0361282
866.508 .0361125
867.181 .0360980
867.854 .0360839
868.527 .0360707
869.199 .0360582
869.872 .0360463
870.543 .0360351
871.215 .0360242
871.886 .0360134
872.557 .0360022
873.227 .0359911
873.897 .0359805
874.567 .0359700
875.236 .0359602
875.905 .0359512
876.573 .0359429
877.242 .0359350
877.909 .0359271
878.577 .0359194
879.244 .0359110
879.911 .0359019
880.577 .0358916
881.243 .0358805
881.909 .0358691
882.575 .0358576
883.240 .0358461
883.904 .0358349
884.569 .0358243
885.232 .0358134
885.896 .0358019
886.559 .0357904
887.222 .0357778
887.885 .0357642
888.547 .0357499
889.208 .0357347
889.870 .0357189
890.531 .0357036
891.192 .0356884
891.852 .0356743
892.512 .0356612
893.171 .0356490
893.830 .0356378
894.489 .0356277
895.148 .0356183
895.806 .0356094
896.464 .0356021
897.121 .0355957
897.778 .0355899
898.434 .0355854
899.091 .0355813
899.747 .0355775
900.402 .0355739
901.057 .0355697
901.712 .0355645
902.366 .0355580
903.020 .0355499
903.674 .0355401
904.327 .0355293
904.980 .0355169
905.633 .0355028
906.285 .0354881
906.936 .0354724
907.588 .0354552
908.239 .0354373
908.889 .0354188
909.540 .0353996
910.190 .0353800
910.839 .0353603
911.488 .0353409
912.137 .0353221
912.785 .0353033
913.433 .0352842
914.081 .0352644
914.728 .0352439
915.375 .0352221
916.021 .0351994
916.668 .0351761
917.313 .0351522
917.959 .0351275
918.604 .0351024
919.248 .0350763
919.892 .0350490
920.536 .0350200
921.180 .0349896
921.823 .0349575
922.465 .0349242
923.108 .0348896
923.750 .0348547
924.391 .0348203
925.032 .0347869
925.673 .0347540
926.313 .0347220
926.953 .0346908
927.593 .0346599
928.232 .0346282
928.871 .0345961
929.510 .0345633
930.148 .0345302
930.786 .0344969
931.423 .0344635
932.060 .0344310
932.697 .0343993
933.333 .0343688
933.969 .0343391
934.604 .0343102
935.239 .0342818
935.874 .0342533
936.508 .0342246
937.142 .0341960
937.776 .0341673
938.409 .0341389
939.042 .0341108
939.674 .0340833
940.306 .0340562
940.938 .0340299
941.569 .0340048
942.200 .0339808
942.830 .0339570
943.460 .0339336
944.090 .0339100
944.720 .0338862
945.349 .0338621
945.977 .0338379
946.606 .0338143
947.233 .0337918
947.861 .0337701
948.488 .0337493
949.115 .0337298
949.741 .0337119
950.367 .0336952
950.993 .0336793
951.618 .0336642
952.243 .0336498
952.868 .0336357
953.492 .0336216
954.115 .0336076
954.739 .0335938
955.362 .0335806
955.984 .0335673
956.607 .0335540
957.229 .0335408
957.850 .0335276
958.471 .0335138
959.092 .0334996
959.713 .0334846
960.333 .0334686
960.952 .0334518
961.572 .0334352
962.191 .0334189
962.809 .0334032
963.428 .0333884
964.045 .0333746
964.663 .0333617
965.280 .0333496
965.897 .0333380
966.513 .0333277
967.129 .0333188
967.745 .0333117
968.361 .0333063
968.976 .0333031
969.590 .0333023
970.205 .0333030
970.818 .0333053
971.432 .0333086
972.045 .0333119
972.658 .0333148
973.271 .0333166
973.883 .0333173
974.495 .0333172
975.106 .0333166
975.717 .0333156
976.328 .0333147
976.938 .0333143
977.548 .0333143
978.158 .0333146
978.768 .0333156
979.377 .0333161
979.985 .0333153
980.594 .0333134
981.202 .0333091
981.809 .0333029
982.417 .0332953
983.024 .0332870
983.631 .0332789
984.237 .0332717
984.843 .0332654
985.449 .0332597
986.054 .0332550
986.659 .0332505
987.264 .0332457
987.868 .0332408
988.472 .0332357
989.076 .0332310
989.679 .0332274
990.282 .0332258
990.885 .0332265
991.487 .0332300
992.090 .0332355
992.691 .0332422
993.293 .0332500
993.894 .0332577
994.495 .0332652
995.095 .0332724
995.696 .0332787
996.296 .0332839
996.895 .0332879
997.494 .0332908
998.093 .0332920
998.692 .0332920
999.291 .0332899
999.889 .0332852
1000.487 .0332786
1001.084 .0332693
1001.681 .0332577
1002.278 .0332447
1002.875 .0332305
1003.471 .0332155
1004.067 .0331999
1004.663 .0331844
1005.258 .0331684
1005.854 .0331525
1006.449 .0331371
1007.043 .0331212
1007.638 .0331051
1008.232 .0330891
1008.826 .0330729
1009.419 .0330565
1010.012 .0330408
1010.605 .0330253
1011.198 .0330104
1011.791 .0329964
1012.383 .0329828
1012.975 .0329693
1013.566 .0329556
1014.158 .0329425
1014.749 .0329290
1015.340 .0329155
1015.931 .0329025
1016.521 .0328896
1017.111 .0328782
1017.701 .0328683
1018.291 .0328591
1018.880 .0328505
1019.470 .0328425
1020.059 .0328344
1020.647 .0328251
1021.236 .0328153
1021.824 .0328049
1022.412 .0327948
1023.000 .0327854
1023.588 .0327775
1024.175 .0327707
1024.762 .0327655
1025.349 .0327616
1025.936 .0327584
1026.523 .0327556
1027.109 .0327523
1027.695 .0327480
1028.281 .0327438
1028.867 .0327388
1029.452 .0327342
1030.038 .0327294
1030.623 .0327254
1031.208 .0327219
1031.792 .0327185
1032.377 .0327145
1032.961 .0327098
1033.546 .0327051
1034.130 .0326995
1034.714 .0326932
1035.297 .0326865
1035.881 .0326790
1036.464 .0326711
1037.047 .0326624
1037.630 .0326523
1038.213 .0326406
1038.796 .0326277
1039.378 .0326131
1039.961 .0325972
1040.543 .0325808
1041.125 .0325629
1041.707 .0325445
1042.289 .0325254
1042.871 .0325055
1043.452 .0324844
1044.034 .0324631
1044.615 .0324409
1045.196 .0324186
1045.777 .0323968
1046.358 .0323752
1046.939 .0323543
1047.520 .0323352
1048.101 .0323169
1048.681 .0322996
1049.262 .0322836
1049.842 .0322688
1050.422 .0322555
1051.002 .0322446
1051.582 .0322354
1052.162 .0322278
1052.742 .0322218
1053.322 .0322165
1053.902 .0322106
1054.482 .0322042
1055.061 .0321961
1055.641 .0321869
1056.220 .0321764
1056.800 .0321657
1057.379 .0321552
1057.958 .0321463
1058.538 .0321395
1059.117 .0321340
1059.696 .0321307
1060.275 .0321290
1060.854 .0321284
1061.433 .0321283
1062.012 .0321294
1062.592 .0321323
1063.171 .0321363
1063.750 .0321426
1064.329 .0321504
1064.908 .0321594
1065.487 .0321691
1066.066 .0321797
1066.645 .0321902
1067.224 .0322001
1067.803 .0322100
1068.382 .0322176
1068.961 .0322247
1069.540 .0322305
1070.119 .0322332
1070.698 .0322337
1071.278 .0322317
1071.857 .0322265
1072.436 .0322169
1073.016 .0322054
1073.595 .0321920
1074.175 .0321779
1074.754 .0321654
1075.334 .0321526
1075.913 .0321400
1076.493 .0321298
1077.073 .0321206
1077.653 .0321109
1078.233 .0321026
1078.813 .0320938
1079.393 .0320859
1079.974 .0320791
1080.554 .0320735
1081.135 .0320691
1081.716 .0320673
1082.296 .0320681
1082.877 .0320684
1083.458 .0320693
1084.040 .0320707
1084.621 .0320710
1085.202 .0320717
1085.784 .0320724
1086.366 .0320733
1086.948 .0320743
1087.530 .0320763
1088.112 .0320796
1088.695 .0320836
1089.277 .0320875
1089.860 .0320915
1090.443 .0320950
1091.026 .0320966
1091.610 .0320971
1092.193 .0320963
1092.777 .0320961
1093.361 .0320958
1093.946 .0320959
1094.530 .0320969
1095.115 .0320990
1095.700 .0321028
1096.285 .0321058
1096.871 .0321104
1097.456 .0321170
1098.042 .0321239
1098.628 .0321340
1099.215 .0321450
1099.802 .0321569
1100.389 .0321695
1100.976 .0321827
1101.564 .0321950
1102.152 .0322065
1102.740 .0322192
1103.329 .0322319
1103.917 .0322464
1104.507 .0322632
1105.096 .0322813
1105.686 .0323006
1106.276 .0323197
1106.867 .0323357
1107.457 .0323481
1108.049 .0323571
1108.640 .0323613
1109.232 .0323636
1109.825 .0323668
1110.417 .0323713
1111.010 .0323791
1111.604 .0323880
1112.198 .0324001
1112.792 .0324127
1113.387 .0324246
1113.982 .0324337
1114.577 .0324403
1115.173 .0324456
1115.769 .0324486
1116.366 .0324514
1116.963 .0324563
1117.561 .0324617
1118.159 .0324703
1118.758 .0324794
1119.357 .0324891
1119.957 .0325003
1120.557 .0325137
1121.157 .0325288
1121.758 .0325482
1122.360 .0325712
1122.962 .0325981
1123.564 .0326288
1124.167 .0326647
1124.771 .0327021
1125.375 .0327403
1125.980 .0327792
1126.585 .0328178
1127.191 .0328551
1127.797 .0328955
1128.404 .0329364
1129.012 .0329808
1129.620 .0330310
1130.229 .0330840
1130.838 .0331378
1131.448 .0331941
1132.058 .0332513
1132.669 .0333065
1133.281 .0333602
1133.894 .0334131
1134.507 .0334635
1135.120 .0335160
1135.735 .0335732
1136.350 .0336321
1136.965 .0336967
1137.582 .0337659
1138.199 .0338333
1138.816 .0338974
1139.435 .0339647
1140.054 .0340328
1140.674 .0340977
1141.294 .0341664
1141.916 .0342086
1142.538 .0343318
1143.160 .0344702
1143.784 .0344058
1144.408 .0345878
1145.033 .0338408
