Measurement Sequence started on: 14-45-04-498
Integration time: 36
Scans to Average: 2 
>>>>>Begin Spectral Data<<<<<
433.946 .0518170
434.870 .0604064
435.793 .0576462
436.715 .0566894
437.635 .0564559
438.555 .0564834
439.473 .0563893
440.389 .0560432
441.305 .0558050
442.219 .0555920
443.132 .0553925
444.044 .0551991
444.954 .0550534
445.863 .0549191
446.771 .0548108
447.678 .0547030
448.584 .0546088
449.488 .0544981
450.391 .0543729
451.293 .0542268
452.194 .0540717
453.094 .0539061
453.992 .0537379
454.890 .0535640
455.786 .0534015
456.681 .0532365
457.575 .0530784
458.468 .0529148
459.360 .0527615
460.250 .0526076
461.140 .0524511
462.028 .0522942
462.915 .0521358
463.801 .0519738
464.687 .0518112
465.571 .0516451
466.454 .0514835
467.335 .0513263
468.216 .0511795
469.096 .0510413
469.975 .0509142
470.853 .0507953
471.729 .0506812
472.605 .0505698
473.479 .0504599
474.353 .0503458
475.226 .0502288
476.097 .0501126
476.968 .0499974
477.838 .0498888
478.706 .0497879
479.574 .0496981
480.441 .0496201
481.306 .0495531
482.171 .0494922
483.035 .0494349
483.898 .0493799
484.760 .0493273
485.621 .0492769
486.481 .0492291
487.340 .0491830
488.198 .0491410
489.055 .0491008
489.912 .0490643
490.767 .0490284
491.622 .0489913
492.476 .0489509
493.329 .0489092
494.180 .0488611
495.032 .0488087
495.882 .0487560
496.731 .0487003
497.580 .0486429
498.427 .0485840
499.274 .0485191
500.120 .0484465
500.965 .0483664
501.809 .0482774
502.653 .0481781
503.495 .0480762
504.337 .0479666
505.178 .0478554
506.018 .0477493
506.858 .0476454
507.696 .0475476
508.534 .0474568
509.371 .0473674
510.208 .0472759
511.043 .0471851
511.878 .0470932
512.712 .0469991
513.545 .0469100
514.377 .0468238
515.209 .0467442
516.040 .0466753
516.870 .0466141
517.699 .0465553
518.528 .0465001
519.356 .0464395
520.183 .0463648
521.010 .0462826
521.836 .0461891
522.661 .0460919
523.485 .0459979
524.309 .0459087
525.132 .0458288
525.954 .0457548
526.776 .0456925
527.597 .0456364
528.417 .0455872
529.237 .0455407
530.056 .0454922
530.874 .0454436
531.692 .0453958
532.508 .0453507
533.325 .0453129
534.140 .0452788
534.955 .0452488
535.770 .0452177
536.583 .0451864
537.397 .0451539
538.209 .0451182
539.021 .0450796
539.832 .0450406
540.643 .0449913
541.453 .0449399
542.262 .0448831
543.071 .0448223
543.879 .0447603
544.687 .0447005
545.494 .0446383
546.300 .0445822
547.106 .0445363
547.911 .0444977
548.716 .0444694
549.520 .0444515
550.323 .0444334
551.126 .0444162
551.929 .0443949
552.731 .0443624
553.532 .0443182
554.332 .0442709
555.133 .0442169
555.932 .0441604
556.731 .0441077
557.530 .0440564
558.328 .0440057
559.125 .0439583
559.922 .0439087
560.719 .0438550
561.515 .0437975
562.310 .0437308
563.105 .0436563
563.899 .0435787
564.693 .0434993
565.487 .0434174
566.280 .0433384
567.072 .0432640
567.864 .0431925
568.655 .0431231
569.446 .0430579
570.236 .0429931
571.026 .0429293
571.816 .0428651
572.605 .0427982
573.393 .0427308
574.181 .0426622
574.969 .0425932
575.756 .0425250
576.543 .0424562
577.329 .0423885
578.115 .0423186
578.900 .0422492
579.685 .0421804
580.469 .0421115
581.253 .0420439
582.036 .0419797
582.820 .0419194
583.602 .0418643
584.384 .0418137
585.166 .0417672
585.947 .0417243
586.728 .0416830
587.509 .0416421
588.289 .0416004
589.069 .0415587
589.848 .0415172
590.627 .0414748
591.405 .0414327
592.183 .0413909
592.961 .0413504
593.738 .0413102
594.515 .0412692
595.291 .0412272
596.067 .0411840
596.843 .0411397
597.618 .0410940
598.393 .0410479
599.167 .0410028
599.941 .0409589
600.715 .0409158
601.488 .0408756
602.261 .0408377
603.034 .0408021
603.806 .0407688
604.578 .0407379
605.349 .0407090
606.121 .0406822
606.891 .0406571
607.662 .0406337
608.432 .0406112
609.201 .0405894
609.971 .0405666
610.740 .0405435
611.508 .0405190
612.277 .0404929
613.045 .0404652
613.812 .0404369
614.579 .0404067
615.346 .0403758
616.113 .0403431
616.879 .0403095
617.645 .0402746
618.411 .0402383
619.176 .0402007
619.941 .0401634
620.705 .0401265
621.470 .0400905
622.233 .0400551
622.997 .0400213
623.760 .0399885
624.523 .0399576
625.286 .0399269
626.048 .0398969
626.810 .0398672
627.572 .0398373
628.333 .0398068
629.095 .0397766
629.855 .0397463
630.616 .0397164
631.376 .0396869
632.136 .0396573
632.895 .0396270
633.655 .0395965
634.414 .0395646
635.172 .0395315
635.931 .0394971
636.689 .0394615
637.447 .0394251
638.204 .0393895
638.962 .0393544
639.718 .0393207
640.475 .0392890
641.231 .0392581
641.988 .0392280
642.743 .0391977
643.499 .0391664
644.254 .0391338
645.009 .0391002
645.764 .0390656
646.518 .0390300
647.272 .0389940
648.026 .0389583
648.780 .0389229
649.533 .0388883
650.286 .0388538
651.039 .0388195
651.792 .0387851
652.544 .0387504
653.296 .0387150
654.048 .0386798
654.799 .0386456
655.550 .0386129
656.301 .0385820
657.052 .0385541
657.802 .0385286
658.552 .0385051
659.302 .0384837
660.052 .0384641
660.801 .0384453
661.550 .0384271
662.299 .0384094
663.048 .0383914
663.796 .0383736
664.544 .0383557
665.292 .0383369
666.040 .0383180
666.787 .0382987
667.534 .0382780
668.281 .0382561
669.028 .0382334
669.774 .0382095
670.521 .0381847
671.266 .0381597
672.012 .0381340
672.758 .0381084
673.503 .0380831
674.248 .0380584
674.992 .0380336
675.737 .0380093
676.481 .0379850
677.225 .0379607
677.969 .0379370
678.712 .0379135
679.455 .0378903
680.199 .0378675
680.941 .0378451
681.684 .0378233
682.426 .0378008
683.168 .0377780
683.910 .0377539
684.652 .0377287
685.393 .0377020
686.134 .0376741
686.875 .0376450
687.616 .0376154
688.356 .0375861
689.097 .0375568
689.837 .0375282
690.576 .0375010
691.316 .0374752
692.055 .0374507
692.794 .0374278
693.533 .0374056
694.272 .0373843
695.010 .0373646
695.748 .0373455
696.486 .0373274
697.224 .0373102
697.962 .0372937
698.699 .0372779
699.436 .0372628
700.173 .0372484
700.909 .0372339
701.646 .0372197
702.382 .0372051
703.118 .0371899
703.853 .0371742
704.589 .0371580
705.324 .0371413
706.059 .0371242
706.794 .0371060
707.529 .0370869
708.263 .0370673
708.997 .0370474
709.731 .0370272
710.465 .0370070
711.198 .0369867
711.931 .0369662
712.664 .0369454
713.397 .0369241
714.130 .0369022
714.862 .0368799
715.594 .0368567
716.326 .0368332
717.058 .0368103
717.789 .0367881
718.520 .0367671
719.251 .0367478
719.982 .0367295
720.713 .0367120
721.443 .0366950
722.173 .0366777
722.903 .0366601
723.633 .0366423
724.362 .0366245
725.091 .0366063
725.820 .0365883
726.549 .0365707
727.278 .0365528
728.006 .0365351
728.734 .0365167
729.462 .0364971
730.190 .0364770
730.917 .0364561
731.644 .0364345
732.371 .0364128
733.098 .0363916
733.825 .0363706
734.551 .0363497
735.277 .0363293
736.003 .0363093
736.728 .0362892
737.454 .0362698
738.179 .0362513
738.904 .0362339
739.629 .0362180
740.353 .0362030
741.077 .0361890
741.801 .0361754
742.525 .0361612
743.249 .0361463
743.972 .0361305
744.695 .0361145
745.418 .0360976
746.141 .0360808
746.863 .0360648
747.585 .0360497
748.307 .0360352
749.029 .0360208
749.750 .0360063
750.472 .0359913
751.193 .0359751
751.913 .0359578
752.634 .0359395
753.354 .0359207
754.074 .0359017
754.794 .0358826
755.514 .0358632
756.233 .0358437
756.952 .0358234
757.671 .0358031
758.390 .0357820
759.108 .0357604
759.826 .0357387
760.544 .0357178
761.262 .0356979
761.979 .0356797
762.697 .0356635
763.414 .0356490
764.130 .0356361
764.847 .0356245
765.563 .0356131
766.279 .0356023
766.995 .0355921
767.710 .0355819
768.426 .0355722
769.141 .0355631
769.855 .0355542
770.570 .0355454
771.284 .0355365
771.998 .0355266
772.712 .0355154
773.426 .0355030
774.139 .0354891
774.852 .0354734
775.565 .0354569
776.277 .0354398
776.990 .0354226
777.702 .0354058
778.414 .0353894
779.125 .0353737
779.836 .0353592
780.547 .0353451
781.258 .0353316
781.969 .0353184
782.679 .0353055
783.389 .0352925
784.099 .0352798
784.808 .0352674
785.517 .0352557
786.226 .0352444
786.935 .0352339
787.643 .0352235
788.352 .0352137
789.060 .0352034
789.767 .0351927
790.475 .0351811
791.182 .0351684
791.889 .0351548
792.595 .0351413
793.301 .0351280
794.008 .0351158
794.713 .0351051
795.419 .0350957
796.124 .0350874
796.829 .0350797
797.534 .0350716
798.238 .0350628
798.942 .0350528
799.646 .0350412
800.350 .0350280
801.053 .0350136
801.756 .0349987
802.459 .0349830
803.162 .0349670
803.864 .0349505
804.566 .0349334
805.267 .0349153
805.969 .0348959
806.670 .0348752
807.371 .0348540
808.071 .0348330
808.772 .0348122
809.472 .0347920
810.171 .0347728
810.871 .0347551
811.570 .0347390
812.269 .0347240
812.967 .0347100
813.666 .0346962
814.364 .0346833
815.061 .0346704
815.759 .0346578
816.456 .0346454
817.153 .0346330
817.849 .0346205
818.545 .0346078
819.241 .0345946
819.937 .0345806
820.632 .0345658
821.327 .0345500
822.022 .0345322
822.717 .0345128
823.411 .0344918
824.105 .0344697
824.798 .0344471
825.491 .0344241
826.184 .0344009
826.877 .0343785
827.569 .0343558
828.261 .0343333
828.953 .0343102
829.645 .0342861
830.336 .0342606
831.027 .0342338
831.717 .0342063
832.407 .0341790
833.097 .0341523
833.787 .0341271
834.476 .0341033
835.165 .0340810
835.854 .0340597
836.542 .0340391
837.230 .0340185
837.918 .0339977
838.605 .0339762
839.292 .0339550
839.979 .0339342
840.665 .0339151
841.352 .0338982
842.037 .0338839
842.723 .0338723
843.408 .0338625
844.093 .0338539
844.777 .0338463
845.462 .0338389
846.145 .0338311
846.829 .0338227
847.512 .0338145
848.195 .0338063
848.878 .0337989
849.560 .0337922
850.242 .0337863
850.923 .0337806
851.605 .0337746
852.286 .0337673
852.966 .0337588
853.646 .0337492
854.326 .0337378
855.006 .0337253
855.685 .0337122
856.364 .0336986
857.043 .0336852
857.721 .0336722
858.399 .0336597
859.077 .0336470
859.754 .0336345
860.431 .0336216
861.107 .0336082
861.784 .0335944
862.459 .0335806
863.135 .0335667
863.810 .0335530
864.485 .0335400
865.160 .0335278
865.834 .0335172
866.508 .0335078
867.181 .0334989
867.854 .0334901
868.527 .0334815
869.199 .0334726
869.872 .0334630
870.543 .0334532
871.215 .0334435
871.886 .0334341
872.557 .0334255
873.227 .0334179
873.897 .0334113
874.567 .0334053
875.236 .0333996
875.905 .0333931
876.573 .0333851
877.242 .0333749
877.909 .0333632
878.577 .0333498
879.244 .0333351
879.911 .0333194
880.577 .0333030
881.243 .0332864
881.909 .0332698
882.575 .0332525
883.240 .0332349
883.904 .0332168
884.569 .0331986
885.232 .0331795
885.896 .0331605
886.559 .0331417
887.222 .0331232
887.885 .0331052
888.547 .0330872
889.208 .0330688
889.870 .0330502
890.531 .0330313
891.192 .0330122
891.852 .0329931
892.512 .0329746
893.171 .0329564
893.830 .0329391
894.489 .0329223
895.148 .0329055
895.806 .0328886
896.464 .0328717
897.121 .0328542
897.778 .0328359
898.434 .0328174
899.091 .0327990
899.747 .0327810
900.402 .0327634
901.057 .0327460
901.712 .0327289
902.366 .0327118
903.020 .0326946
903.674 .0326766
904.327 .0326581
904.980 .0326391
905.633 .0326196
906.285 .0325998
906.936 .0325799
907.588 .0325601
908.239 .0325405
908.889 .0325212
909.540 .0325027
910.190 .0324849
910.839 .0324682
911.488 .0324527
912.137 .0324379
912.785 .0324237
913.433 .0324095
914.081 .0323957
914.728 .0323814
915.375 .0323669
916.021 .0323521
916.668 .0323371
917.313 .0323224
917.959 .0323075
918.604 .0322928
919.248 .0322788
919.892 .0322653
920.536 .0322518
921.180 .0322382
921.823 .0322250
922.465 .0322117
923.108 .0321986
923.750 .0321855
924.391 .0321722
925.032 .0321588
925.673 .0321453
926.313 .0321307
926.953 .0321157
927.593 .0321000
928.232 .0320830
928.871 .0320648
929.510 .0320456
930.148 .0320247
930.786 .0320022
931.423 .0319787
932.060 .0319541
932.697 .0319284
933.333 .0319025
933.969 .0318765
934.604 .0318512
935.239 .0318268
935.874 .0318033
936.508 .0317809
937.142 .0317602
937.776 .0317404
938.409 .0317215
939.042 .0317034
939.674 .0316856
940.306 .0316684
940.938 .0316518
941.569 .0316358
942.200 .0316205
942.830 .0316057
943.460 .0315916
944.090 .0315771
944.720 .0315632
945.349 .0315492
945.977 .0315350
946.606 .0315206
947.233 .0315062
947.861 .0314914
948.488 .0314766
949.115 .0314618
949.741 .0314475
950.367 .0314338
950.993 .0314207
951.618 .0314082
952.243 .0313963
952.868 .0313850
953.492 .0313737
954.115 .0313622
954.739 .0313511
955.362 .0313397
955.984 .0313275
956.607 .0313153
957.229 .0313031
957.850 .0312909
958.471 .0312787
959.092 .0312669
959.713 .0312549
960.333 .0312430
960.952 .0312307
961.572 .0312180
962.191 .0312051
962.809 .0311924
963.428 .0311800
964.045 .0311685
964.663 .0311577
965.280 .0311478
965.897 .0311387
966.513 .0311306
967.129 .0311231
967.745 .0311157
968.361 .0311083
968.976 .0311010
969.590 .0310932
970.205 .0310851
970.818 .0310771
971.432 .0310694
972.045 .0310615
972.658 .0310529
973.271 .0310430
973.883 .0310310
974.495 .0310172
975.106 .0310008
975.717 .0309820
976.328 .0309614
976.938 .0309393
977.548 .0309168
978.158 .0308947
978.768 .0308734
979.377 .0308525
979.985 .0308322
980.594 .0308121
981.202 .0307914
981.809 .0307697
982.417 .0307478
983.024 .0307266
983.631 .0307066
984.237 .0306877
984.843 .0306698
985.449 .0306534
986.054 .0306382
986.659 .0306230
987.264 .0306076
987.868 .0305911
988.472 .0305741
989.076 .0305565
989.679 .0305391
990.282 .0305225
990.885 .0305076
991.487 .0304945
992.090 .0304828
992.691 .0304724
993.293 .0304631
993.894 .0304542
994.495 .0304464
995.095 .0304392
995.696 .0304326
996.296 .0304264
996.895 .0304215
997.494 .0304181
998.093 .0304163
998.692 .0304159
999.291 .0304161
999.889 .0304163
1000.487 .0304162
1001.084 .0304149
1001.681 .0304124
1002.278 .0304091
1002.875 .0304046
1003.471 .0303986
1004.067 .0303923
1004.663 .0303856
1005.258 .0303787
1005.854 .0303711
1006.449 .0303627
1007.043 .0303528
1007.638 .0303409
1008.232 .0303269
1008.826 .0303111
1009.419 .0302940
1010.012 .0302758
1010.605 .0302566
1011.198 .0302372
1011.791 .0302173
1012.383 .0301971
1012.975 .0301771
1013.566 .0301571
1014.158 .0301369
1014.749 .0301164
1015.340 .0300972
1015.931 .0300800
1016.521 .0300655
1017.111 .0300545
1017.701 .0300476
1018.291 .0300448
1018.880 .0300451
1019.470 .0300476
1020.059 .0300524
1020.647 .0300587
1021.236 .0300659
1021.824 .0300740
1022.412 .0300838
1023.000 .0300954
1023.588 .0301085
1024.175 .0301239
1024.762 .0301416
1025.349 .0301591
1025.936 .0301762
1026.523 .0301919
1027.109 .0302063
1027.695 .0302189
1028.281 .0302289
1028.867 .0302378
1029.452 .0302461
1030.038 .0302543
1030.623 .0302624
1031.208 .0302712
1031.792 .0302813
1032.377 .0302910
1032.961 .0303002
1033.546 .0303095
1034.130 .0303176
1034.714 .0303250
1035.297 .0303317
1035.881 .0303373
1036.464 .0303421
1037.047 .0303457
1037.630 .0303473
1038.213 .0303485
1038.796 .0303486
1039.378 .0303480
1039.961 .0303466
1040.543 .0303451
1041.125 .0303435
1041.707 .0303408
1042.289 .0303379
1042.871 .0303350
1043.452 .0303310
1044.034 .0303273
1044.615 .0303235
1045.196 .0303211
1045.777 .0303203
1046.358 .0303211
1046.939 .0303232
1047.520 .0303265
1048.101 .0303306
1048.681 .0303355
1049.262 .0303411
1049.842 .0303480
1050.422 .0303563
1051.002 .0303661
1051.582 .0303772
1052.162 .0303891
1052.742 .0304008
1053.322 .0304122
1053.902 .0304216
1054.482 .0304284
1055.061 .0304316
1055.641 .0304323
1056.220 .0304319
1056.800 .0304305
1057.379 .0304301
1057.958 .0304305
1058.538 .0304320
1059.117 .0304347
1059.696 .0304366
1060.275 .0304378
1060.854 .0304372
1061.433 .0304360
1062.012 .0304334
1062.592 .0304310
1063.171 .0304298
1063.750 .0304295
1064.329 .0304317
1064.908 .0304359
1065.487 .0304403
1066.066 .0304452
1066.645 .0304493
1067.224 .0304520
1067.803 .0304527
1068.382 .0304516
1068.961 .0304480
1069.540 .0304420
1070.119 .0304346
1070.698 .0304261
1071.278 .0304159
1071.857 .0304057
1072.436 .0303947
1073.016 .0303840
1073.595 .0303745
1074.175 .0303647
1074.754 .0303560
1075.334 .0303487
1075.913 .0303412
1076.493 .0303341
1077.073 .0303267
1077.653 .0303193
1078.233 .0303115
1078.813 .0303024
1079.393 .0302931
1079.974 .0302827
1080.554 .0302715
1081.135 .0302596
1081.716 .0302471
1082.296 .0302365
1082.877 .0302250
1083.458 .0302128
1084.040 .0302007
1084.621 .0301876
1085.202 .0301745
1085.784 .0301589
1086.366 .0301429
1086.948 .0301268
1087.530 .0301101
1088.112 .0300943
1088.695 .0300811
1089.277 .0300721
1089.860 .0300667
1090.443 .0300655
1091.026 .0300678
1091.610 .0300732
1092.193 .0300800
1092.777 .0300879
1093.361 .0300973
1093.946 .0301071
1094.530 .0301165
1095.115 .0301237
1095.700 .0301325
1096.285 .0301403
1096.871 .0301461
1097.456 .0301522
1098.042 .0301565
1098.628 .0301588
1099.215 .0301568
1099.802 .0301525
1100.389 .0301443
1100.976 .0301323
1101.564 .0301169
1102.152 .0300974
1102.740 .0300757
1103.329 .0300521
1103.917 .0300274
1104.507 .0300043
1105.096 .0299849
1105.686 .0299681
1106.276 .0299548
1106.867 .0299480
1107.457 .0299441
1108.049 .0299442
1108.640 .0299457
1109.232 .0299488
1109.825 .0299507
1110.417 .0299519
1111.010 .0299523
1111.604 .0299509
1112.198 .0299503
1112.792 .0299511
1113.387 .0299535
1113.982 .0299604
1114.577 .0299688
1115.173 .0299786
1115.769 .0299900
1116.366 .0300005
1116.963 .0300085
1117.561 .0300157
1118.159 .0300211
1118.758 .0300273
1119.357 .0300349
1119.957 .0300464
1120.557 .0300628
1121.157 .0300819
1121.758 .0301060
1122.360 .0301310
1122.962 .0301549
1123.564 .0301771
1124.167 .0301942
1124.771 .0302092
1125.375 .0302203
1125.980 .0302309
1126.585 .0302432
1127.191 .0302572
1127.797 .0302783
1128.404 .0303019
1129.012 .0303308
1129.620 .0303681
1130.229 .0304068
1130.838 .0304479
1131.448 .0304928
1132.058 .0305399
1132.669 .0305887
1133.281 .0306435
1133.894 .0307014
1134.507 .0307642
1135.120 .0308327
1135.735 .0309023
1136.350 .0309704
1136.965 .0310411
1137.582 .0311103
1138.199 .0311782
1138.816 .0312448
1139.435 .0313145
1140.054 .0313865
1140.674 .0314594
1141.294 .0315284
1141.916 .0316205
1142.538 .0317111
1143.160 .0318345
1143.784 .0317588
1144.408 .0317680
1145.033 .0325400
