Measurement Sequence started on: 14-45-04-498
Integration time: 36
Scans to Average: 2 
>>>>>Begin Spectral Data<<<<<
433.946 .0549570
434.870 .0462108
435.793 .0401012
436.715 .0406363
437.635 .0394963
438.555 .0402616
439.473 .0393975
440.389 .0390146
441.305 .0388902
442.219 .0387923
443.132 .0387627
444.044 .0387725
444.954 .0387967
445.863 .0388403
446.771 .0388900
447.678 .0389469
448.584 .0390048
449.488 .0390560
450.391 .0390957
451.293 .0391285
452.194 .0391564
453.094 .0391724
453.992 .0391776
454.890 .0391609
455.786 .0391285
456.681 .0390847
457.575 .0390348
458.468 .0389724
459.360 .0389075
460.250 .0388464
461.140 .0387865
462.028 .0387312
462.915 .0386726
463.801 .0386114
464.687 .0385499
465.571 .0384838
466.454 .0384146
467.335 .0383456
468.216 .0382849
469.096 .0382276
469.975 .0381820
470.853 .0381468
471.729 .0381157
472.605 .0380889
473.479 .0380615
474.353 .0380320
475.226 .0379965
476.097 .0379574
476.968 .0379144
477.838 .0378716
478.706 .0378323
479.574 .0377938
480.441 .0377602
481.306 .0377315
482.171 .0377030
483.035 .0376688
483.898 .0376316
484.760 .0375889
485.621 .0375393
486.481 .0374870
487.340 .0374315
488.198 .0373768
489.055 .0373252
489.912 .0372791
490.767 .0372364
491.622 .0372000
492.476 .0371698
493.329 .0371406
494.180 .0371132
495.032 .0370859
495.882 .0370576
496.731 .0370300
497.580 .0370060
498.427 .0369835
499.274 .0369649
500.120 .0369524
500.965 .0369418
501.809 .0369346
502.653 .0369314
503.495 .0369275
504.337 .0369176
505.178 .0369025
506.018 .0368796
506.858 .0368456
507.696 .0368048
508.534 .0367578
509.371 .0367093
510.208 .0366610
511.043 .0366162
511.878 .0365712
512.712 .0365302
513.545 .0364898
514.377 .0364465
515.209 .0364024
516.040 .0363533
516.870 .0362967
517.699 .0362376
518.528 .0361806
519.356 .0361286
520.183 .0360846
521.010 .0360556
521.836 .0360349
522.661 .0360195
523.485 .0360039
524.309 .0359830
525.132 .0359533
525.954 .0359175
526.776 .0358766
527.597 .0358308
528.417 .0357822
529.237 .0357347
530.056 .0356916
530.874 .0356566
531.692 .0356243
532.508 .0355877
533.325 .0355498
534.140 .0355044
534.955 .0354447
535.770 .0353758
536.583 .0353012
537.397 .0352197
538.209 .0351352
539.021 .0350502
539.832 .0349644
540.643 .0348846
541.453 .0348131
542.262 .0347515
543.071 .0346998
543.879 .0346568
544.687 .0346155
545.494 .0345811
546.300 .0345565
547.106 .0345280
547.911 .0344967
548.716 .0344650
549.520 .0344282
550.323 .0343881
551.126 .0343438
551.929 .0343011
552.731 .0342600
553.532 .0342235
554.332 .0341882
555.133 .0341524
555.932 .0341161
556.731 .0340803
557.530 .0340417
558.328 .0340024
559.125 .0339592
559.922 .0339106
560.719 .0338608
561.515 .0338077
562.310 .0337508
563.105 .0336926
563.899 .0336344
564.693 .0335824
565.487 .0335316
566.280 .0334847
567.072 .0334411
567.864 .0333999
568.655 .0333607
569.446 .0333213
570.236 .0332802
571.026 .0332417
571.816 .0332059
572.605 .0331749
573.393 .0331488
574.181 .0331293
574.969 .0331153
575.756 .0331025
576.543 .0330906
577.329 .0330765
578.115 .0330581
578.900 .0330365
579.685 .0330107
580.469 .0329835
581.253 .0329551
582.036 .0329266
582.820 .0328992
583.602 .0328726
584.384 .0328459
585.166 .0328178
585.947 .0327891
586.728 .0327591
587.509 .0327287
588.289 .0326981
589.069 .0326690
589.848 .0326418
590.627 .0326154
591.405 .0325897
592.183 .0325651
592.961 .0325411
593.738 .0325168
594.515 .0324915
595.291 .0324652
596.067 .0324385
596.843 .0324106
597.618 .0323819
598.393 .0323525
599.167 .0323237
599.941 .0322960
600.715 .0322694
601.488 .0322453
602.261 .0322231
603.034 .0322027
603.806 .0321841
604.578 .0321658
605.349 .0321478
606.121 .0321293
606.891 .0321102
607.662 .0320907
608.432 .0320715
609.201 .0320520
609.971 .0320332
610.740 .0320147
611.508 .0319968
612.277 .0319782
613.045 .0319594
613.812 .0319398
614.579 .0319189
615.346 .0318975
616.113 .0318753
616.879 .0318524
617.645 .0318305
618.411 .0318088
619.176 .0317882
619.941 .0317683
620.705 .0317489
621.470 .0317296
622.233 .0317107
622.997 .0316919
623.760 .0316730
624.523 .0316541
625.286 .0316354
626.048 .0316157
626.810 .0315952
627.572 .0315732
628.333 .0315495
629.095 .0315245
629.855 .0314984
630.616 .0314712
631.376 .0314446
632.136 .0314187
632.895 .0313940
633.655 .0313707
634.414 .0313483
635.172 .0313260
635.931 .0313035
636.689 .0312806
637.447 .0312574
638.204 .0312342
638.962 .0312118
639.718 .0311902
640.475 .0311700
641.231 .0311507
641.988 .0311315
642.743 .0311126
643.499 .0310929
644.254 .0310718
645.009 .0310490
645.764 .0310250
646.518 .0310011
647.272 .0309776
648.026 .0309553
648.780 .0309344
649.533 .0309154
650.286 .0308977
651.039 .0308803
651.792 .0308634
652.544 .0308467
653.296 .0308300
654.048 .0308139
654.799 .0307989
655.550 .0307849
656.301 .0307724
657.052 .0307613
657.802 .0307508
658.552 .0307407
659.302 .0307303
660.052 .0307189
660.801 .0307065
661.550 .0306932
662.299 .0306790
663.048 .0306636
663.796 .0306488
664.544 .0306341
665.292 .0306195
666.040 .0306053
666.787 .0305914
667.534 .0305777
668.281 .0305643
669.028 .0305512
669.774 .0305380
670.521 .0305248
671.266 .0305117
672.012 .0304986
672.758 .0304858
673.503 .0304735
674.248 .0304623
674.992 .0304514
675.737 .0304414
676.481 .0304312
677.225 .0304205
677.969 .0304096
678.712 .0303980
679.455 .0303862
680.199 .0303739
680.941 .0303617
681.684 .0303499
682.426 .0303386
683.168 .0303281
683.910 .0303175
684.652 .0303067
685.393 .0302954
686.134 .0302828
686.875 .0302691
687.616 .0302545
688.356 .0302399
689.097 .0302254
689.837 .0302111
690.576 .0301974
691.316 .0301841
692.055 .0301706
692.794 .0301568
693.533 .0301425
694.272 .0301277
695.010 .0301124
695.748 .0300971
696.486 .0300820
697.224 .0300674
697.962 .0300536
698.699 .0300404
699.436 .0300273
700.173 .0300145
700.909 .0300014
701.646 .0299882
702.382 .0299750
703.118 .0299620
703.853 .0299492
704.589 .0299366
705.324 .0299247
706.059 .0299131
706.794 .0299016
707.529 .0298905
708.263 .0298795
708.997 .0298689
709.731 .0298585
710.465 .0298486
711.198 .0298393
711.931 .0298301
712.664 .0298211
713.397 .0298116
714.130 .0298014
714.862 .0297905
715.594 .0297788
716.326 .0297665
717.058 .0297544
717.789 .0297427
718.520 .0297313
719.251 .0297203
719.982 .0297099
720.713 .0296995
721.443 .0296891
722.173 .0296789
722.903 .0296688
723.633 .0296587
724.362 .0296488
725.091 .0296390
725.820 .0296298
726.549 .0296211
727.278 .0296124
728.006 .0296031
728.734 .0295936
729.462 .0295835
730.190 .0295727
730.917 .0295617
731.644 .0295505
732.371 .0295393
733.098 .0295284
733.825 .0295180
734.551 .0295077
735.277 .0294976
736.003 .0294883
736.728 .0294793
737.454 .0294704
738.179 .0294618
738.904 .0294532
739.629 .0294450
740.353 .0294376
741.077 .0294307
741.801 .0294245
742.525 .0294187
743.249 .0294133
743.972 .0294075
744.695 .0294013
745.418 .0293941
746.141 .0293856
746.863 .0293761
747.585 .0293652
748.307 .0293526
749.029 .0293392
749.750 .0293250
750.472 .0293106
751.193 .0292962
751.913 .0292819
752.634 .0292677
753.354 .0292538
754.074 .0292400
754.794 .0292260
755.514 .0292112
756.233 .0291961
756.952 .0291806
757.671 .0291649
758.390 .0291492
759.108 .0291341
759.826 .0291204
760.544 .0291080
761.262 .0290972
761.979 .0290879
762.697 .0290798
763.414 .0290726
764.130 .0290660
764.847 .0290599
765.563 .0290538
766.279 .0290477
766.995 .0290418
767.710 .0290364
768.426 .0290312
769.141 .0290263
769.855 .0290215
770.570 .0290166
771.284 .0290114
771.998 .0290049
772.712 .0289977
773.426 .0289898
774.139 .0289810
774.852 .0289712
775.565 .0289608
776.277 .0289505
776.990 .0289399
777.702 .0289297
778.414 .0289197
779.125 .0289101
779.836 .0289009
780.547 .0288921
781.258 .0288837
781.969 .0288757
782.679 .0288682
783.389 .0288614
784.099 .0288551
784.808 .0288494
785.517 .0288447
786.226 .0288411
786.935 .0288386
787.643 .0288371
788.352 .0288360
789.060 .0288348
789.767 .0288332
790.475 .0288308
791.182 .0288273
791.889 .0288229
792.595 .0288175
793.301 .0288111
794.008 .0288041
794.713 .0287969
795.419 .0287890
796.124 .0287813
796.829 .0287735
797.534 .0287650
798.238 .0287561
798.942 .0287471
799.646 .0287377
800.350 .0287284
801.053 .0287191
801.756 .0287099
802.459 .0287006
803.162 .0286914
803.864 .0286819
804.566 .0286727
805.267 .0286638
805.969 .0286553
806.670 .0286473
807.371 .0286400
808.071 .0286334
808.772 .0286276
809.472 .0286221
810.171 .0286163
810.871 .0286104
811.570 .0286038
812.269 .0285964
812.967 .0285881
813.666 .0285788
814.364 .0285687
815.061 .0285584
815.759 .0285479
816.456 .0285370
817.153 .0285261
817.849 .0285152
818.545 .0285039
819.241 .0284927
819.937 .0284812
820.632 .0284688
821.327 .0284559
822.022 .0284426
822.717 .0284282
823.411 .0284135
824.105 .0283985
824.798 .0283833
825.491 .0283682
826.184 .0283532
826.877 .0283385
827.569 .0283237
828.261 .0283096
828.953 .0282950
829.645 .0282796
830.336 .0282641
831.027 .0282479
831.717 .0282313
832.407 .0282143
833.097 .0281969
833.787 .0281793
834.476 .0281616
835.165 .0281445
835.854 .0281275
836.542 .0281115
837.230 .0280960
837.918 .0280812
838.605 .0280672
839.292 .0280541
839.979 .0280416
840.665 .0280297
841.352 .0280188
842.037 .0280084
842.723 .0279980
843.408 .0279881
844.093 .0279784
844.777 .0279691
845.462 .0279594
846.145 .0279496
846.829 .0279390
847.512 .0279283
848.195 .0279172
848.878 .0279059
849.560 .0278949
850.242 .0278843
850.923 .0278736
851.605 .0278630
852.286 .0278526
852.966 .0278421
853.646 .0278311
854.326 .0278205
855.006 .0278096
855.685 .0277993
856.364 .0277889
857.043 .0277790
857.721 .0277697
858.399 .0277608
859.077 .0277517
859.754 .0277427
860.431 .0277335
861.107 .0277242
861.784 .0277148
862.459 .0277056
863.135 .0276963
863.810 .0276874
864.485 .0276788
865.160 .0276700
865.834 .0276611
866.508 .0276522
867.181 .0276425
867.854 .0276330
868.527 .0276233
869.199 .0276131
869.872 .0276031
870.543 .0275935
871.215 .0275841
871.886 .0275749
872.557 .0275659
873.227 .0275567
873.897 .0275469
874.567 .0275371
875.236 .0275265
875.905 .0275158
876.573 .0275054
877.242 .0274950
877.909 .0274848
878.577 .0274759
879.244 .0274678
879.911 .0274610
880.577 .0274555
881.243 .0274508
881.909 .0274465
882.575 .0274422
883.240 .0274379
883.904 .0274331
884.569 .0274277
885.232 .0274220
885.896 .0274153
886.559 .0274087
887.222 .0274020
887.885 .0273956
888.547 .0273897
889.208 .0273844
889.870 .0273787
890.531 .0273728
891.192 .0273662
891.852 .0273591
892.512 .0273514
893.171 .0273433
893.830 .0273353
894.489 .0273277
895.148 .0273207
895.806 .0273147
896.464 .0273095
897.121 .0273055
897.778 .0273014
898.434 .0272974
899.091 .0272927
899.747 .0272869
900.402 .0272803
901.057 .0272728
901.712 .0272645
902.366 .0272559
903.020 .0272467
903.674 .0272372
904.327 .0272268
904.980 .0272163
905.633 .0272045
906.285 .0271921
906.936 .0271791
907.588 .0271659
908.239 .0271527
908.889 .0271400
909.540 .0271275
910.190 .0271153
910.839 .0271036
911.488 .0270922
912.137 .0270805
912.785 .0270688
913.433 .0270568
914.081 .0270443
914.728 .0270316
915.375 .0270187
916.021 .0270052
916.668 .0269917
917.313 .0269779
917.959 .0269633
918.604 .0269482
919.248 .0269323
919.892 .0269161
920.536 .0268994
921.180 .0268823
921.823 .0268645
922.465 .0268459
923.108 .0268272
923.750 .0268076
924.391 .0267879
925.032 .0267681
925.673 .0267481
926.313 .0267287
926.953 .0267097
927.593 .0266908
928.232 .0266718
928.871 .0266529
929.510 .0266336
930.148 .0266136
930.786 .0265924
931.423 .0265704
932.060 .0265483
932.697 .0265266
933.333 .0265048
933.969 .0264831
934.604 .0264617
935.239 .0264403
935.874 .0264187
936.508 .0263971
937.142 .0263754
937.776 .0263539
938.409 .0263324
939.042 .0263111
939.674 .0262900
940.306 .0262695
940.938 .0262493
941.569 .0262295
942.200 .0262100
942.830 .0261900
943.460 .0261696
944.090 .0261492
944.720 .0261285
945.349 .0261073
945.977 .0260855
946.606 .0260633
947.233 .0260409
947.861 .0260183
948.488 .0259955
949.115 .0259731
949.741 .0259512
950.367 .0259298
950.993 .0259087
951.618 .0258886
952.243 .0258696
952.868 .0258516
953.492 .0258348
954.115 .0258188
954.739 .0258042
955.362 .0257909
955.984 .0257786
956.607 .0257675
957.229 .0257576
957.850 .0257488
958.471 .0257403
959.092 .0257317
959.713 .0257230
960.333 .0257140
960.952 .0257048
961.572 .0256951
962.191 .0256852
962.809 .0256756
963.428 .0256667
964.045 .0256584
964.663 .0256508
965.280 .0256438
965.897 .0256369
966.513 .0256303
967.129 .0256237
967.745 .0256167
968.361 .0256096
968.976 .0256030
969.590 .0255968
970.205 .0255910
970.818 .0255861
971.432 .0255822
972.045 .0255791
972.658 .0255769
973.271 .0255749
973.883 .0255724
974.495 .0255700
975.106 .0255672
975.717 .0255639
976.328 .0255604
976.938 .0255572
977.548 .0255544
978.158 .0255520
978.768 .0255503
979.377 .0255491
979.985 .0255483
980.594 .0255481
981.202 .0255482
981.809 .0255483
982.417 .0255485
983.024 .0255484
983.631 .0255479
984.237 .0255471
984.843 .0255455
985.449 .0255423
986.054 .0255377
986.659 .0255320
987.264 .0255255
987.868 .0255180
988.472 .0255109
989.076 .0255046
989.679 .0254994
990.282 .0254954
990.885 .0254925
991.487 .0254906
992.090 .0254896
992.691 .0254889
993.293 .0254886
993.894 .0254891
994.495 .0254902
995.095 .0254922
995.696 .0254950
996.296 .0254981
996.895 .0255010
997.494 .0255039
998.093 .0255068
998.692 .0255094
999.291 .0255115
999.889 .0255138
1000.487 .0255167
1001.084 .0255199
1001.681 .0255234
1002.278 .0255265
1002.875 .0255296
1003.471 .0255323
1004.067 .0255338
1004.663 .0255350
1005.258 .0255358
1005.854 .0255370
1006.449 .0255389
1007.043 .0255421
1007.638 .0255463
1008.232 .0255515
1008.826 .0255578
1009.419 .0255642
1010.012 .0255701
1010.605 .0255751
1011.198 .0255783
1011.791 .0255798
1012.383 .0255792
1012.975 .0255766
1013.566 .0255719
1014.158 .0255664
1014.749 .0255595
1015.340 .0255516
1015.931 .0255436
1016.521 .0255358
1017.111 .0255282
1017.701 .0255216
1018.291 .0255155
1018.880 .0255095
1019.470 .0255037
1020.059 .0254981
1020.647 .0254926
1021.236 .0254876
1021.824 .0254836
1022.412 .0254813
1023.000 .0254808
1023.588 .0254829
1024.175 .0254868
1024.762 .0254925
1025.349 .0254992
1025.936 .0255058
1026.523 .0255111
1027.109 .0255150
1027.695 .0255170
1028.281 .0255168
1028.867 .0255151
1029.452 .0255126
1030.038 .0255089
1030.623 .0255043
1031.208 .0254993
1031.792 .0254938
1032.377 .0254870
1032.961 .0254796
1033.546 .0254704
1034.130 .0254609
1034.714 .0254507
1035.297 .0254405
1035.881 .0254312
1036.464 .0254234
1037.047 .0254175
1037.630 .0254127
1038.213 .0254093
1038.796 .0254077
1039.378 .0254068
1039.961 .0254071
1040.543 .0254074
1041.125 .0254078
1041.707 .0254074
1042.289 .0254066
1042.871 .0254056
1043.452 .0254043
1044.034 .0254031
1044.615 .0254019
1045.196 .0254006
1045.777 .0253991
1046.358 .0253973
1046.939 .0253945
1047.520 .0253907
1048.101 .0253850
1048.681 .0253776
1049.262 .0253685
1049.842 .0253577
1050.422 .0253464
1051.002 .0253346
1051.582 .0253223
1052.162 .0253103
1052.742 .0252977
1053.322 .0252848
1053.902 .0252704
1054.482 .0252557
1055.061 .0252398
1055.641 .0252233
1056.220 .0252071
1056.800 .0251919
1057.379 .0251780
1057.958 .0251671
1058.538 .0251578
1059.117 .0251503
1059.696 .0251445
1060.275 .0251395
1060.854 .0251345
1061.433 .0251301
1062.012 .0251263
1062.592 .0251236
1063.171 .0251227
1063.750 .0251252
1064.329 .0251286
1064.908 .0251346
1065.487 .0251416
1066.066 .0251487
1066.645 .0251539
1067.224 .0251577
1067.803 .0251587
1068.382 .0251575
1068.961 .0251542
1069.540 .0251495
1070.119 .0251437
1070.698 .0251398
1071.278 .0251365
1071.857 .0251341
1072.436 .0251325
1073.016 .0251316
1073.595 .0251282
1074.175 .0251240
1074.754 .0251178
1075.334 .0251091
1075.913 .0250989
1076.493 .0250884
1077.073 .0250774
1077.653 .0250674
1078.233 .0250590
1078.813 .0250516
1079.393 .0250440
1079.974 .0250373
1080.554 .0250280
1081.135 .0250168
1081.716 .0250037
1082.296 .0249880
1082.877 .0249708
1083.458 .0249542
1084.040 .0249388
1084.621 .0249244
1085.202 .0249124
1085.784 .0249024
1086.366 .0248941
1086.948 .0248877
1087.530 .0248819
1088.112 .0248765
1088.695 .0248716
1089.277 .0248678
1089.860 .0248647
1090.443 .0248628
1091.026 .0248631
1091.610 .0248652
1092.193 .0248687
1092.777 .0248735
1093.361 .0248803
1093.946 .0248882
1094.530 .0248966
1095.115 .0249047
1095.700 .0249119
1096.285 .0249177
1096.871 .0249216
1097.456 .0249233
1098.042 .0249221
1098.628 .0249202
1099.215 .0249170
1099.802 .0249134
1100.389 .0249118
1100.976 .0249112
1101.564 .0249111
1102.152 .0249117
1102.740 .0249123
1103.329 .0249112
1103.917 .0249077
1104.507 .0249043
1105.096 .0249007
1105.686 .0248972
1106.276 .0248950
1106.867 .0248940
1107.457 .0248950
1108.049 .0248976
1108.640 .0249016
1109.232 .0249067
1109.825 .0249150
1110.417 .0249248
1111.010 .0249375
1111.604 .0249546
1112.198 .0249776
1112.792 .0250041
1113.387 .0250344
1113.982 .0250692
1114.577 .0251051
1115.173 .0251423
1115.769 .0251797
1116.366 .0252161
1116.963 .0252539
1117.561 .0252891
1118.159 .0253235
1118.758 .0253545
1119.357 .0253829
1119.957 .0254057
1120.557 .0254222
1121.157 .0254330
1121.758 .0254372
1122.360 .0254389
1122.962 .0254388
1123.564 .0254371
1124.167 .0254364
1124.771 .0254368
1125.375 .0254374
1125.980 .0254391
1126.585 .0254424
1127.191 .0254482
1127.797 .0254623
1128.404 .0254836
1129.012 .0255137
1129.620 .0255545
1130.229 .0256039
1130.838 .0256575
1131.448 .0257099
1132.058 .0257602
1132.669 .0258028
1133.281 .0258397
1133.894 .0258715
1134.507 .0258997
1135.120 .0259300
1135.735 .0259649
1136.350 .0260057
1136.965 .0260521
1137.582 .0261013
1138.199 .0261520
1138.816 .0262008
1139.435 .0262485
1140.054 .0262984
1140.674 .0263497
1141.294 .0264073
1141.916 .0264661
1142.538 .0264809
1143.160 .0266892
1143.784 .0267192
1144.408 .0268266
1145.033 .0267219
