Measurement Sequence started on: 14-45-04-498
Integration time: 36
Scans to Average: 2 
>>>>>Begin Spectral Data<<<<<
433.946 .0481600
434.870 .0537437
435.793 .0487498
436.715 .0478275
437.635 .0470485
438.555 .0482645
439.473 .0481207
440.389 .0479139
441.305 .0479047
442.219 .0479276
443.132 .0479688
444.044 .0479773
444.954 .0479998
445.863 .0480168
446.771 .0480304
447.678 .0480308
448.584 .0480156
449.488 .0479797
450.391 .0479214
451.293 .0478532
452.194 .0477704
453.094 .0476792
453.992 .0475837
454.890 .0474721
455.786 .0473592
456.681 .0472411
457.575 .0471183
458.468 .0469963
459.360 .0468798
460.250 .0467798
461.140 .0466820
462.028 .0465946
462.915 .0465133
463.801 .0464395
464.687 .0463663
465.571 .0462913
466.454 .0462187
467.335 .0461476
468.216 .0460830
469.096 .0460175
469.975 .0459576
470.853 .0458981
471.729 .0458401
472.605 .0457778
473.479 .0457062
474.353 .0456301
475.226 .0455438
476.097 .0454535
476.968 .0453642
477.838 .0452747
478.706 .0451924
479.574 .0451162
480.441 .0450542
481.306 .0449988
482.171 .0449497
483.035 .0449047
483.898 .0448623
484.760 .0448203
485.621 .0447792
486.481 .0447371
487.340 .0446980
488.198 .0446644
489.055 .0446317
489.912 .0446002
490.767 .0445701
491.622 .0445408
492.476 .0445132
493.329 .0444813
494.180 .0444494
495.032 .0444139
495.882 .0443775
496.731 .0443380
497.580 .0442924
498.427 .0442457
499.274 .0441900
500.120 .0441311
500.965 .0440662
501.809 .0439956
502.653 .0439241
503.495 .0438543
504.337 .0437877
505.178 .0437267
506.018 .0436711
506.858 .0436193
507.696 .0435709
508.534 .0435247
509.371 .0434775
510.208 .0434325
511.043 .0433937
511.878 .0433610
512.712 .0433336
513.545 .0433239
514.377 .0433288
515.209 .0433470
516.040 .0433820
516.870 .0434294
517.699 .0434860
518.528 .0435433
519.356 .0436008
520.183 .0436509
521.010 .0436930
521.836 .0437271
522.661 .0437455
523.485 .0437491
524.309 .0437438
525.132 .0437237
525.954 .0436988
526.776 .0436731
527.597 .0436477
528.417 .0436183
529.237 .0435899
530.056 .0435603
530.874 .0435174
531.692 .0434664
532.508 .0434084
533.325 .0433377
534.140 .0432567
534.955 .0431660
535.770 .0430769
536.583 .0429962
537.397 .0429276
538.209 .0428655
539.021 .0428134
539.832 .0427681
540.643 .0427205
541.453 .0426659
542.262 .0426075
543.071 .0425442
543.879 .0424697
544.687 .0423958
545.494 .0423246
546.300 .0422630
547.106 .0422124
547.911 .0421722
548.716 .0421474
549.520 .0421224
550.323 .0420978
551.126 .0420638
551.929 .0420204
552.731 .0419655
553.532 .0418915
554.332 .0418066
555.133 .0417190
555.932 .0416297
556.731 .0415430
557.530 .0414637
558.328 .0413953
559.125 .0413333
559.922 .0412750
560.719 .0412162
561.515 .0411583
562.310 .0410967
563.105 .0410369
563.899 .0409760
564.693 .0409225
565.487 .0408744
566.280 .0408378
567.072 .0408122
567.864 .0407924
568.655 .0407742
569.446 .0407552
570.236 .0407314
571.026 .0407006
571.816 .0406605
572.605 .0406150
573.393 .0405654
574.181 .0405154
574.969 .0404635
575.756 .0404145
576.543 .0403670
577.329 .0403192
578.115 .0402691
578.900 .0402159
579.685 .0401598
580.469 .0401030
581.253 .0400473
582.036 .0399943
582.820 .0399455
583.602 .0399023
584.384 .0398642
585.166 .0398313
585.947 .0398014
586.728 .0397721
587.509 .0397422
588.289 .0397121
589.069 .0396808
589.848 .0396492
590.627 .0396199
591.405 .0395925
592.183 .0395678
592.961 .0395441
593.738 .0395208
594.515 .0394974
595.291 .0394727
596.067 .0394472
596.843 .0394204
597.618 .0393934
598.393 .0393663
599.167 .0393386
599.941 .0393123
600.715 .0392883
601.488 .0392663
602.261 .0392458
603.034 .0392276
603.806 .0392111
604.578 .0391964
605.349 .0391832
606.121 .0391714
606.891 .0391616
607.662 .0391526
608.432 .0391450
609.201 .0391380
609.971 .0391319
610.740 .0391267
611.508 .0391217
612.277 .0391170
613.045 .0391120
613.812 .0391061
614.579 .0390986
615.346 .0390894
616.113 .0390793
616.879 .0390674
617.645 .0390545
618.411 .0390410
619.176 .0390270
619.941 .0390122
620.705 .0389974
621.470 .0389821
622.233 .0389664
622.997 .0389496
623.760 .0389314
624.523 .0389119
625.286 .0388915
626.048 .0388707
626.810 .0388496
627.572 .0388288
628.333 .0388093
629.095 .0387891
629.855 .0387688
630.616 .0387478
631.376 .0387270
632.136 .0387058
632.895 .0386844
633.655 .0386641
634.414 .0386446
635.172 .0386261
635.931 .0386092
636.689 .0385933
637.447 .0385786
638.204 .0385637
638.962 .0385485
639.718 .0385323
640.475 .0385151
641.231 .0384962
641.988 .0384760
642.743 .0384557
643.499 .0384350
644.254 .0384133
645.009 .0383917
645.764 .0383701
646.518 .0383484
647.272 .0383262
648.026 .0383038
648.780 .0382808
649.533 .0382578
650.286 .0382349
651.039 .0382120
651.792 .0381896
652.544 .0381678
653.296 .0381460
654.048 .0381248
654.799 .0381043
655.550 .0380840
656.301 .0380639
657.052 .0380447
657.802 .0380263
658.552 .0380085
659.302 .0379908
660.052 .0379733
660.801 .0379554
661.550 .0379378
662.299 .0379196
663.048 .0379011
663.796 .0378837
664.544 .0378671
665.292 .0378516
666.040 .0378371
666.787 .0378241
667.534 .0378123
668.281 .0378014
669.028 .0377907
669.774 .0377791
670.521 .0377665
671.266 .0377527
672.012 .0377372
672.758 .0377211
673.503 .0377040
674.248 .0376864
674.992 .0376689
675.737 .0376518
676.481 .0376343
677.225 .0376164
677.969 .0375982
678.712 .0375788
679.455 .0375583
680.199 .0375365
680.941 .0375134
681.684 .0374903
682.426 .0374674
683.168 .0374441
683.910 .0374210
684.652 .0373986
685.393 .0373764
686.134 .0373547
686.875 .0373333
687.616 .0373116
688.356 .0372900
689.097 .0372690
689.837 .0372480
690.576 .0372272
691.316 .0372074
692.055 .0371883
692.794 .0371695
693.533 .0371516
694.272 .0371342
695.010 .0371176
695.748 .0371020
696.486 .0370873
697.224 .0370731
697.962 .0370597
698.699 .0370468
699.436 .0370341
700.173 .0370220
700.909 .0370098
701.646 .0369978
702.382 .0369855
703.118 .0369730
703.853 .0369605
704.589 .0369475
705.324 .0369345
706.059 .0369216
706.794 .0369085
707.529 .0368950
708.263 .0368819
708.997 .0368693
709.731 .0368566
710.465 .0368441
711.198 .0368318
711.931 .0368187
712.664 .0368058
713.397 .0367925
714.130 .0367784
714.862 .0367641
715.594 .0367497
716.326 .0367346
717.058 .0367196
717.789 .0367047
718.520 .0366893
719.251 .0366736
719.982 .0366577
720.713 .0366411
721.443 .0366241
722.173 .0366069
722.903 .0365894
723.633 .0365717
724.362 .0365545
725.091 .0365371
725.820 .0365202
726.549 .0365042
727.278 .0364886
728.006 .0364736
728.734 .0364586
729.462 .0364438
730.190 .0364289
730.917 .0364136
731.644 .0363980
732.371 .0363823
733.098 .0363668
733.825 .0363516
734.551 .0363367
735.277 .0363225
736.003 .0363089
736.728 .0362958
737.454 .0362828
738.179 .0362695
738.904 .0362555
739.629 .0362408
740.353 .0362257
741.077 .0362111
741.801 .0361964
742.525 .0361822
743.249 .0361689
743.972 .0361567
744.695 .0361450
745.418 .0361335
746.141 .0361220
746.863 .0361101
747.585 .0360973
748.307 .0360832
749.029 .0360678
749.750 .0360516
750.472 .0360346
751.193 .0360170
751.913 .0359993
752.634 .0359813
753.354 .0359632
754.074 .0359451
754.794 .0359274
755.514 .0359095
756.233 .0358911
756.952 .0358723
757.671 .0358537
758.390 .0358348
759.108 .0358160
759.826 .0357974
760.544 .0357797
761.262 .0357627
761.979 .0357465
762.697 .0357310
763.414 .0357163
764.130 .0357028
764.847 .0356901
765.563 .0356779
766.279 .0356670
766.995 .0356569
767.710 .0356477
768.426 .0356397
769.141 .0356328
769.855 .0356260
770.570 .0356196
771.284 .0356133
771.998 .0356066
772.712 .0355999
773.426 .0355936
774.139 .0355875
774.852 .0355820
775.565 .0355773
776.277 .0355729
776.990 .0355690
777.702 .0355653
778.414 .0355615
779.125 .0355570
779.836 .0355518
780.547 .0355457
781.258 .0355386
781.969 .0355315
782.679 .0355246
783.389 .0355176
784.099 .0355113
784.808 .0355054
785.517 .0355000
786.226 .0354945
786.935 .0354886
787.643 .0354816
788.352 .0354740
789.060 .0354654
789.767 .0354558
790.475 .0354456
791.182 .0354352
791.889 .0354247
792.595 .0354141
793.301 .0354030
794.008 .0353916
794.713 .0353798
795.419 .0353679
796.124 .0353559
796.829 .0353443
797.534 .0353332
798.238 .0353227
798.942 .0353129
799.646 .0353034
800.350 .0352930
801.053 .0352815
801.756 .0352689
802.459 .0352545
803.162 .0352379
803.864 .0352198
804.566 .0352006
805.267 .0351808
805.969 .0351603
806.670 .0351398
807.371 .0351194
808.071 .0350993
808.772 .0350794
809.472 .0350593
810.171 .0350392
810.871 .0350192
811.570 .0349995
812.269 .0349807
812.967 .0349631
813.666 .0349471
814.364 .0349328
815.061 .0349202
815.759 .0349092
816.456 .0348990
817.153 .0348890
817.849 .0348785
818.545 .0348666
819.241 .0348528
819.937 .0348370
820.632 .0348195
821.327 .0347997
822.022 .0347786
822.717 .0347567
823.411 .0347339
824.105 .0347105
824.798 .0346870
825.491 .0346634
826.184 .0346396
826.877 .0346158
827.569 .0345919
828.261 .0345682
828.953 .0345450
829.645 .0345228
830.336 .0345015
831.027 .0344813
831.717 .0344626
832.407 .0344451
833.097 .0344293
833.787 .0344146
834.476 .0344009
835.165 .0343888
835.854 .0343778
836.542 .0343676
837.230 .0343579
837.918 .0343486
838.605 .0343401
839.292 .0343316
839.979 .0343234
840.665 .0343159
841.352 .0343094
842.037 .0343039
842.723 .0342995
843.408 .0342960
844.093 .0342932
844.777 .0342905
845.462 .0342880
846.145 .0342849
846.829 .0342813
847.512 .0342778
848.195 .0342738
848.878 .0342698
849.560 .0342659
850.242 .0342617
850.923 .0342575
851.605 .0342526
852.286 .0342468
852.966 .0342395
853.646 .0342306
854.326 .0342205
855.006 .0342090
855.685 .0341968
856.364 .0341840
857.043 .0341711
857.721 .0341585
858.399 .0341462
859.077 .0341336
859.754 .0341212
860.431 .0341083
861.107 .0340952
861.784 .0340813
862.459 .0340672
863.135 .0340531
863.810 .0340393
864.485 .0340257
865.160 .0340132
865.834 .0340015
866.508 .0339906
867.181 .0339801
867.854 .0339696
868.527 .0339592
869.199 .0339485
869.872 .0339374
870.543 .0339261
871.215 .0339144
871.886 .0339025
872.557 .0338898
873.227 .0338768
873.897 .0338632
874.567 .0338498
875.236 .0338363
875.905 .0338230
876.573 .0338099
877.242 .0337969
877.909 .0337843
878.577 .0337721
879.244 .0337598
879.911 .0337471
880.577 .0337333
881.243 .0337182
881.909 .0337018
882.575 .0336846
883.240 .0336664
883.904 .0336481
884.569 .0336300
885.232 .0336117
885.896 .0335934
886.559 .0335749
887.222 .0335559
887.885 .0335364
888.547 .0335163
889.208 .0334949
889.870 .0334725
890.531 .0334500
891.192 .0334274
891.852 .0334056
892.512 .0333849
893.171 .0333653
893.830 .0333472
894.489 .0333304
895.148 .0333145
895.806 .0332989
896.464 .0332841
897.121 .0332692
897.778 .0332542
898.434 .0332390
899.091 .0332231
899.747 .0332069
900.402 .0331904
901.057 .0331733
901.712 .0331556
902.366 .0331364
903.020 .0331163
903.674 .0330952
904.327 .0330732
904.980 .0330502
905.633 .0330271
906.285 .0330044
906.936 .0329822
907.588 .0329606
908.239 .0329392
908.889 .0329181
909.540 .0328974
910.190 .0328763
910.839 .0328548
911.488 .0328329
912.137 .0328107
912.785 .0327879
913.433 .0327654
914.081 .0327431
914.728 .0327211
915.375 .0326993
916.021 .0326774
916.668 .0326550
917.313 .0326319
917.959 .0326079
918.604 .0325831
919.248 .0325578
919.892 .0325329
920.536 .0325084
921.180 .0324850
921.823 .0324630
922.465 .0324431
923.108 .0324248
923.750 .0324079
924.391 .0323917
925.032 .0323759
925.673 .0323603
926.313 .0323447
926.953 .0323290
927.593 .0323131
928.232 .0322973
928.871 .0322817
929.510 .0322662
930.148 .0322513
930.786 .0322367
931.423 .0322225
932.060 .0322089
932.697 .0321955
933.333 .0321814
933.969 .0321672
934.604 .0321530
935.239 .0321388
935.874 .0321239
936.508 .0321090
937.142 .0320943
937.776 .0320799
938.409 .0320662
939.042 .0320533
939.674 .0320412
940.306 .0320300
940.938 .0320193
941.569 .0320089
942.200 .0319985
942.830 .0319883
943.460 .0319780
944.090 .0319680
944.720 .0319586
945.349 .0319501
945.977 .0319429
946.606 .0319375
947.233 .0319334
947.861 .0319299
948.488 .0319264
949.115 .0319226
949.741 .0319178
950.367 .0319118
950.993 .0319050
951.618 .0318975
952.243 .0318900
952.868 .0318825
953.492 .0318749
954.115 .0318672
954.739 .0318592
955.362 .0318504
955.984 .0318405
956.607 .0318295
957.229 .0318183
957.850 .0318068
958.471 .0317958
959.092 .0317854
959.713 .0317760
960.333 .0317677
960.952 .0317603
961.572 .0317538
962.191 .0317481
962.809 .0317426
963.428 .0317377
964.045 .0317333
964.663 .0317297
965.280 .0317265
965.897 .0317233
966.513 .0317202
967.129 .0317171
967.745 .0317133
968.361 .0317094
968.976 .0317055
969.590 .0317020
970.205 .0316983
970.818 .0316949
971.432 .0316920
972.045 .0316890
972.658 .0316857
973.271 .0316816
973.883 .0316756
974.495 .0316674
975.106 .0316560
975.717 .0316425
976.328 .0316270
976.938 .0316101
977.548 .0315921
978.158 .0315739
978.768 .0315557
979.377 .0315377
979.985 .0315195
980.594 .0315013
981.202 .0314828
981.809 .0314640
982.417 .0314450
983.024 .0314269
983.631 .0314102
984.237 .0313950
984.843 .0313818
985.449 .0313707
986.054 .0313603
986.659 .0313507
987.264 .0313418
987.868 .0313326
988.472 .0313231
989.076 .0313131
989.679 .0313027
990.282 .0312916
990.885 .0312799
991.487 .0312672
992.090 .0312530
992.691 .0312377
993.293 .0312203
993.894 .0312010
994.495 .0311808
995.095 .0311601
995.696 .0311393
996.296 .0311193
996.895 .0311003
997.494 .0310819
998.093 .0310648
998.692 .0310482
999.291 .0310315
999.889 .0310143
1000.487 .0309969
1001.084 .0309794
1001.681 .0309617
1002.278 .0309447
1002.875 .0309281
1003.471 .0309127
1004.067 .0308984
1004.663 .0308846
1005.258 .0308713
1005.854 .0308576
1006.449 .0308435
1007.043 .0308285
1007.638 .0308129
1008.232 .0307962
1008.826 .0307796
1009.419 .0307636
1010.012 .0307485
1010.605 .0307344
1011.198 .0307211
1011.791 .0307085
1012.383 .0306964
1012.975 .0306839
1013.566 .0306705
1014.158 .0306563
1014.749 .0306423
1015.340 .0306278
1015.931 .0306142
1016.521 .0306018
1017.111 .0305913
1017.701 .0305828
1018.291 .0305767
1018.880 .0305712
1019.470 .0305667
1020.059 .0305625
1020.647 .0305584
1021.236 .0305540
1021.824 .0305496
1022.412 .0305451
1023.000 .0305409
1023.588 .0305366
1024.175 .0305328
1024.762 .0305284
1025.349 .0305236
1025.936 .0305177
1026.523 .0305104
1027.109 .0305018
1027.695 .0304925
1028.281 .0304823
1028.867 .0304729
1029.452 .0304643
1030.038 .0304567
1030.623 .0304497
1031.208 .0304439
1031.792 .0304399
1032.377 .0304366
1032.961 .0304343
1033.546 .0304332
1034.130 .0304328
1034.714 .0304337
1035.297 .0304358
1035.881 .0304390
1036.464 .0304440
1037.047 .0304506
1037.630 .0304577
1038.213 .0304654
1038.796 .0304729
1039.378 .0304797
1039.961 .0304849
1040.543 .0304883
1041.125 .0304894
1041.707 .0304872
1042.289 .0304824
1042.871 .0304757
1043.452 .0304678
1044.034 .0304597
1044.615 .0304512
1045.196 .0304439
1045.777 .0304376
1046.358 .0304315
1046.939 .0304251
1047.520 .0304188
1048.101 .0304121
1048.681 .0304058
1049.262 .0303993
1049.842 .0303941
1050.422 .0303909
1051.002 .0303897
1051.582 .0303907
1052.162 .0303937
1052.742 .0303978
1053.322 .0304021
1053.902 .0304060
1054.482 .0304100
1055.061 .0304133
1055.641 .0304164
1056.220 .0304200
1056.800 .0304241
1057.379 .0304287
1057.958 .0304331
1058.538 .0304370
1059.117 .0304418
1059.696 .0304460
1060.275 .0304504
1060.854 .0304558
1061.433 .0304632
1062.012 .0304733
1062.592 .0304862
1063.171 .0305023
1063.750 .0305205
1064.329 .0305393
1064.908 .0305579
1065.487 .0305744
1066.066 .0305892
1066.645 .0306018
1067.224 .0306129
1067.803 .0306230
1068.382 .0306315
1068.961 .0306393
1069.540 .0306466
1070.119 .0306531
1070.698 .0306581
1071.278 .0306612
1071.857 .0306628
1072.436 .0306643
1073.016 .0306644
1073.595 .0306656
1074.175 .0306693
1074.754 .0306762
1075.334 .0306856
1075.913 .0306961
1076.493 .0307078
1077.073 .0307183
1077.653 .0307255
1078.233 .0307308
1078.813 .0307332
1079.393 .0307349
1079.974 .0307351
1080.554 .0307365
1081.135 .0307386
1081.716 .0307413
1082.296 .0307433
1082.877 .0307447
1083.458 .0307450
1084.040 .0307436
1084.621 .0307392
1085.202 .0307341
1085.784 .0307308
1086.366 .0307297
1086.948 .0307299
1087.530 .0307345
1088.112 .0307400
1088.695 .0307448
1089.277 .0307477
1089.860 .0307481
1090.443 .0307439
1091.026 .0307366
1091.610 .0307277
1092.193 .0307178
1092.777 .0307086
1093.361 .0307011
1093.946 .0306941
1094.530 .0306883
1095.115 .0306824
1095.700 .0306731
1096.285 .0306617
1096.871 .0306495
1097.456 .0306361
1098.042 .0306250
1098.628 .0306173
1099.215 .0306129
1099.802 .0306127
1100.389 .0306153
1100.976 .0306191
1101.564 .0306209
1102.152 .0306200
1102.740 .0306171
1103.329 .0306105
1103.917 .0306002
1104.507 .0305869
1105.096 .0305718
1105.686 .0305572
1106.276 .0305406
1106.867 .0305262
1107.457 .0305137
1108.049 .0305023
1108.640 .0304936
1109.232 .0304856
1109.825 .0304798
1110.417 .0304746
1111.010 .0304693
1111.604 .0304647
1112.198 .0304625
1112.792 .0304624
1113.387 .0304640
1113.982 .0304716
1114.577 .0304857
1115.173 .0305046
1115.769 .0305276
1116.366 .0305549
1116.963 .0305831
1117.561 .0306107
1118.159 .0306379
1118.758 .0306617
1119.357 .0306852
1119.957 .0307081
1120.557 .0307330
1121.157 .0307584
1121.758 .0307850
1122.360 .0308112
1122.962 .0308343
1123.564 .0308557
1124.167 .0308712
1124.771 .0308797
1125.375 .0308832
1125.980 .0308824
1126.585 .0308772
1127.191 .0308688
1127.797 .0308632
1128.404 .0308582
1129.012 .0308571
1129.620 .0308579
1130.229 .0308618
1130.838 .0308663
1131.448 .0308754
1132.058 .0308891
1132.669 .0309045
1133.281 .0309242
1133.894 .0309480
1134.507 .0309745
1135.120 .0310064
1135.735 .0310415
1136.350 .0310778
1136.965 .0311158
1137.582 .0311548
1138.199 .0311885
1138.816 .0312209
1139.435 .0312544
1140.054 .0312810
1140.674 .0313032
1141.294 .0313172
1141.916 .0313232
1142.538 .0314247
1143.160 .0313050
1143.784 .0313379
1144.408 .0312455
1145.033 .0312412
