Measurement Sequence started on: 14-45-04-498
Integration time: 36
Scans to Average: 2 
>>>>>Begin Spectral Data<<<<<
433.946 .0537138
434.870 .0477221
435.793 .0425131
436.715 .0437288
437.635 .0443560
438.555 .0445100
439.473 .0440588
440.389 .0438691
441.305 .0438095
442.219 .0436883
443.132 .0435606
444.044 .0434539
444.954 .0433775
445.863 .0433248
446.771 .0432893
447.678 .0432800
448.584 .0432776
449.488 .0432703
450.391 .0432489
451.293 .0432185
452.194 .0431759
453.094 .0431205
453.992 .0430539
454.890 .0429844
455.786 .0429060
456.681 .0428207
457.575 .0427403
458.468 .0426613
459.360 .0425839
460.250 .0425109
461.140 .0424298
462.028 .0423428
462.915 .0422455
463.801 .0421407
464.687 .0420310
465.571 .0419238
466.454 .0418184
467.335 .0417139
468.216 .0416191
469.096 .0415334
469.975 .0414547
470.853 .0413853
471.729 .0413222
472.605 .0412572
473.479 .0411880
474.353 .0411124
475.226 .0410321
476.097 .0409525
476.968 .0408760
477.838 .0408022
478.706 .0407381
479.574 .0406829
480.441 .0406365
481.306 .0405997
482.171 .0405711
483.035 .0405447
483.898 .0405204
484.760 .0404937
485.621 .0404649
486.481 .0404333
487.340 .0404028
488.198 .0403750
489.055 .0403491
489.912 .0403255
490.767 .0403011
491.622 .0402759
492.476 .0402493
493.329 .0402174
494.180 .0401818
495.032 .0401390
495.882 .0400903
496.731 .0400360
497.580 .0399817
498.427 .0399300
499.274 .0398789
500.120 .0398336
500.965 .0397965
501.809 .0397645
502.653 .0397359
503.495 .0397161
504.337 .0396999
505.178 .0396851
506.018 .0396695
506.858 .0396489
507.696 .0396235
508.534 .0395947
509.371 .0395664
510.208 .0395386
511.043 .0395165
511.878 .0394976
512.712 .0394774
513.545 .0394637
514.377 .0394502
515.209 .0394329
516.040 .0394159
516.870 .0393989
517.699 .0393762
518.528 .0393485
519.356 .0393198
520.183 .0392889
521.010 .0392586
521.836 .0392284
522.661 .0391964
523.485 .0391615
524.309 .0391227
525.132 .0390796
525.954 .0390278
526.776 .0389710
527.597 .0389074
528.417 .0388344
529.237 .0387547
530.056 .0386685
530.874 .0385763
531.692 .0384870
532.508 .0384053
533.325 .0383326
534.140 .0382712
534.955 .0382268
535.770 .0381962
536.583 .0381747
537.397 .0381673
538.209 .0381654
539.021 .0381689
539.832 .0381726
540.643 .0381689
541.453 .0381638
542.262 .0381622
543.071 .0381596
543.879 .0381562
544.687 .0381524
545.494 .0381472
546.300 .0381349
547.106 .0381173
547.911 .0380929
548.716 .0380692
549.520 .0380449
550.323 .0380216
551.126 .0379967
551.929 .0379754
552.731 .0379515
553.532 .0379256
554.332 .0378959
555.133 .0378581
555.932 .0378079
556.731 .0377460
557.530 .0376741
558.328 .0375989
559.125 .0375201
559.922 .0374464
560.719 .0373786
561.515 .0373200
562.310 .0372672
563.105 .0372222
563.899 .0371854
564.693 .0371553
565.487 .0371288
566.280 .0371047
567.072 .0370839
567.864 .0370689
568.655 .0370570
569.446 .0370487
570.236 .0370454
571.026 .0370432
571.816 .0370421
572.605 .0370401
573.393 .0370353
574.181 .0370285
574.969 .0370190
575.756 .0370021
576.543 .0369795
577.329 .0369511
578.115 .0369170
578.900 .0368761
579.685 .0368311
580.469 .0367822
581.253 .0367345
582.036 .0366890
582.820 .0366471
583.602 .0366101
584.384 .0365797
585.166 .0365513
585.947 .0365244
586.728 .0364985
587.509 .0364720
588.289 .0364441
589.069 .0364166
589.848 .0363879
590.627 .0363594
591.405 .0363315
592.183 .0363054
592.961 .0362817
593.738 .0362600
594.515 .0362382
595.291 .0362163
596.067 .0361942
596.843 .0361706
597.618 .0361455
598.393 .0361204
599.167 .0360959
599.941 .0360710
600.715 .0360464
601.488 .0360230
602.261 .0360021
603.034 .0359844
603.806 .0359690
604.578 .0359567
605.349 .0359476
606.121 .0359403
606.891 .0359347
607.662 .0359299
608.432 .0359261
609.201 .0359230
609.971 .0359201
610.740 .0359178
611.508 .0359156
612.277 .0359131
613.045 .0359109
613.812 .0359084
614.579 .0359050
615.346 .0358998
616.113 .0358930
616.879 .0358847
617.645 .0358745
618.411 .0358626
619.176 .0358492
619.941 .0358345
620.705 .0358188
621.470 .0358017
622.233 .0357827
622.997 .0357629
623.760 .0357418
624.523 .0357197
625.286 .0356969
626.048 .0356732
626.810 .0356482
627.572 .0356221
628.333 .0355954
629.095 .0355669
629.855 .0355376
630.616 .0355079
631.376 .0354778
632.136 .0354479
632.895 .0354193
633.655 .0353916
634.414 .0353650
635.172 .0353395
635.931 .0353143
636.689 .0352890
637.447 .0352640
638.204 .0352390
638.962 .0352144
639.718 .0351916
640.475 .0351706
641.231 .0351505
641.988 .0351328
642.743 .0351165
643.499 .0351006
644.254 .0350843
645.009 .0350677
645.764 .0350499
646.518 .0350318
647.272 .0350136
648.026 .0349958
648.780 .0349790
649.533 .0349641
650.286 .0349503
651.039 .0349378
651.792 .0349259
652.544 .0349144
653.296 .0349024
654.048 .0348909
654.799 .0348788
655.550 .0348669
656.301 .0348554
657.052 .0348449
657.802 .0348353
658.552 .0348265
659.302 .0348181
660.052 .0348106
660.801 .0348029
661.550 .0347952
662.299 .0347868
663.048 .0347782
663.796 .0347691
664.544 .0347594
665.292 .0347494
666.040 .0347395
666.787 .0347291
667.534 .0347189
668.281 .0347075
669.028 .0346951
669.774 .0346813
670.521 .0346658
671.266 .0346486
672.012 .0346308
672.758 .0346117
673.503 .0345920
674.248 .0345719
674.992 .0345516
675.737 .0345312
676.481 .0345116
677.225 .0344927
677.969 .0344739
678.712 .0344556
679.455 .0344377
680.199 .0344196
680.941 .0344021
681.684 .0343849
682.426 .0343677
683.168 .0343506
683.910 .0343332
684.652 .0343152
685.393 .0342972
686.134 .0342791
686.875 .0342607
687.616 .0342421
688.356 .0342239
689.097 .0342055
689.837 .0341871
690.576 .0341695
691.316 .0341525
692.055 .0341361
692.794 .0341208
693.533 .0341063
694.272 .0340934
695.010 .0340824
695.748 .0340732
696.486 .0340657
697.224 .0340599
697.962 .0340551
698.699 .0340507
699.436 .0340469
700.173 .0340430
700.909 .0340379
701.646 .0340328
702.382 .0340269
703.118 .0340203
703.853 .0340134
704.589 .0340061
705.324 .0339988
706.059 .0339912
706.794 .0339826
707.529 .0339732
708.263 .0339631
708.997 .0339525
709.731 .0339403
710.465 .0339274
711.198 .0339140
711.931 .0338998
712.664 .0338855
713.397 .0338712
714.130 .0338559
714.862 .0338404
715.594 .0338240
716.326 .0338070
717.058 .0337898
717.789 .0337724
718.520 .0337547
719.251 .0337369
719.982 .0337190
720.713 .0337005
721.443 .0336812
722.173 .0336616
722.903 .0336415
723.633 .0336211
724.362 .0336009
725.091 .0335806
725.820 .0335606
726.549 .0335410
727.278 .0335212
728.006 .0335015
728.734 .0334810
729.462 .0334598
730.190 .0334381
730.917 .0334163
731.644 .0333950
732.371 .0333744
733.098 .0333552
733.825 .0333374
734.551 .0333207
735.277 .0333051
736.003 .0332897
736.728 .0332750
737.454 .0332608
738.179 .0332469
738.904 .0332334
739.629 .0332205
740.353 .0332084
741.077 .0331970
741.801 .0331859
742.525 .0331746
743.249 .0331630
743.972 .0331509
744.695 .0331385
745.418 .0331253
746.141 .0331123
746.863 .0330994
747.585 .0330868
748.307 .0330746
749.029 .0330625
749.750 .0330503
750.472 .0330385
751.193 .0330276
751.913 .0330176
752.634 .0330086
753.354 .0330007
754.074 .0329940
754.794 .0329886
755.514 .0329840
756.233 .0329793
756.952 .0329741
757.671 .0329691
758.390 .0329630
759.108 .0329567
759.826 .0329507
760.544 .0329453
761.262 .0329404
761.979 .0329359
762.697 .0329315
763.414 .0329267
764.130 .0329213
764.847 .0329148
765.563 .0329070
766.279 .0328984
766.995 .0328887
767.710 .0328787
768.426 .0328689
769.141 .0328598
769.855 .0328503
770.570 .0328409
771.284 .0328316
771.998 .0328214
772.712 .0328100
773.426 .0327978
774.139 .0327847
774.852 .0327706
775.565 .0327558
776.277 .0327407
776.990 .0327256
777.702 .0327109
778.414 .0326962
779.125 .0326817
779.836 .0326678
780.547 .0326542
781.258 .0326404
781.969 .0326270
782.679 .0326136
783.389 .0326000
784.099 .0325865
784.808 .0325727
785.517 .0325592
786.226 .0325460
786.935 .0325334
787.643 .0325219
788.352 .0325115
789.060 .0325019
789.767 .0324930
790.475 .0324841
791.182 .0324746
791.889 .0324640
792.595 .0324522
793.301 .0324391
794.008 .0324251
794.713 .0324104
795.419 .0323955
796.124 .0323813
796.829 .0323682
797.534 .0323555
798.238 .0323438
798.942 .0323321
799.646 .0323198
800.350 .0323067
801.053 .0322923
801.756 .0322767
802.459 .0322604
803.162 .0322436
803.864 .0322265
804.566 .0322097
805.267 .0321937
805.969 .0321785
806.670 .0321642
807.371 .0321507
808.071 .0321375
808.772 .0321245
809.472 .0321114
810.171 .0320975
810.871 .0320833
811.570 .0320686
812.269 .0320535
812.967 .0320379
813.666 .0320223
814.364 .0320070
815.061 .0319923
815.759 .0319787
816.456 .0319660
817.153 .0319542
817.849 .0319429
818.545 .0319321
819.241 .0319216
819.937 .0319115
820.632 .0319012
821.327 .0318906
822.022 .0318800
822.717 .0318694
823.411 .0318589
824.105 .0318488
824.798 .0318391
825.491 .0318302
826.184 .0318217
826.877 .0318138
827.569 .0318065
828.261 .0317996
828.953 .0317930
829.645 .0317860
830.336 .0317790
831.027 .0317718
831.717 .0317644
832.407 .0317573
833.097 .0317507
833.787 .0317440
834.476 .0317376
835.165 .0317319
835.854 .0317270
836.542 .0317225
837.230 .0317181
837.918 .0317135
838.605 .0317085
839.292 .0317027
839.979 .0316962
840.665 .0316889
841.352 .0316813
842.037 .0316729
842.723 .0316639
843.408 .0316542
844.093 .0316445
844.777 .0316347
845.462 .0316247
846.145 .0316141
846.829 .0316028
847.512 .0315905
848.195 .0315777
848.878 .0315645
849.560 .0315509
850.242 .0315368
850.923 .0315222
851.605 .0315063
852.286 .0314894
852.966 .0314715
853.646 .0314525
854.326 .0314329
855.006 .0314126
855.685 .0313915
856.364 .0313699
857.043 .0313487
857.721 .0313279
858.399 .0313074
859.077 .0312869
859.754 .0312661
860.431 .0312447
861.107 .0312228
861.784 .0312007
862.459 .0311788
863.135 .0311574
863.810 .0311364
864.485 .0311154
865.160 .0310950
865.834 .0310746
866.508 .0310544
867.181 .0310341
867.854 .0310139
868.527 .0309935
869.199 .0309731
869.872 .0309529
870.543 .0309332
871.215 .0309143
871.886 .0308958
872.557 .0308776
873.227 .0308598
873.897 .0308422
874.567 .0308248
875.236 .0308081
875.905 .0307923
876.573 .0307769
877.242 .0307623
877.909 .0307479
878.577 .0307334
879.244 .0307187
879.911 .0307036
880.577 .0306880
881.243 .0306720
881.909 .0306555
882.575 .0306386
883.240 .0306219
883.904 .0306058
884.569 .0305899
885.232 .0305746
885.896 .0305599
886.559 .0305456
887.222 .0305313
887.885 .0305172
888.547 .0305034
889.208 .0304902
889.870 .0304776
890.531 .0304662
891.192 .0304560
891.852 .0304472
892.512 .0304400
893.171 .0304341
893.830 .0304299
894.489 .0304271
895.148 .0304250
895.806 .0304234
896.464 .0304223
897.121 .0304214
897.778 .0304204
898.434 .0304196
899.091 .0304192
899.747 .0304188
900.402 .0304186
901.057 .0304186
901.712 .0304185
902.366 .0304181
903.020 .0304171
903.674 .0304155
904.327 .0304130
904.980 .0304100
905.633 .0304059
906.285 .0304012
906.936 .0303962
907.588 .0303901
908.239 .0303831
908.889 .0303753
909.540 .0303667
910.190 .0303571
910.839 .0303471
911.488 .0303369
912.137 .0303265
912.785 .0303162
913.433 .0303059
914.081 .0302956
914.728 .0302852
915.375 .0302744
916.021 .0302633
916.668 .0302522
917.313 .0302413
917.959 .0302306
918.604 .0302208
919.248 .0302124
919.892 .0302049
920.536 .0301985
921.180 .0301933
921.823 .0301885
922.465 .0301834
923.108 .0301775
923.750 .0301706
924.391 .0301625
925.032 .0301537
925.673 .0301441
926.313 .0301346
926.953 .0301248
927.593 .0301144
928.232 .0301033
928.871 .0300917
929.510 .0300790
930.148 .0300646
930.786 .0300491
931.423 .0300324
932.060 .0300147
932.697 .0299962
933.333 .0299772
933.969 .0299582
934.604 .0299387
935.239 .0299188
935.874 .0298980
936.508 .0298768
937.142 .0298551
937.776 .0298323
938.409 .0298088
939.042 .0297845
939.674 .0297589
940.306 .0297323
940.938 .0297048
941.569 .0296767
942.200 .0296479
942.830 .0296189
943.460 .0295895
944.090 .0295605
944.720 .0295322
945.349 .0295050
945.977 .0294789
946.606 .0294541
947.233 .0294299
947.861 .0294060
948.488 .0293819
949.115 .0293575
949.741 .0293327
950.367 .0293074
950.993 .0292817
951.618 .0292561
952.243 .0292308
952.868 .0292059
953.492 .0291813
954.115 .0291572
954.739 .0291332
955.362 .0291092
955.984 .0290850
956.607 .0290604
957.229 .0290359
957.850 .0290115
958.471 .0289867
959.092 .0289621
959.713 .0289375
960.333 .0289128
960.952 .0288886
961.572 .0288654
962.191 .0288427
962.809 .0288209
963.428 .0288005
964.045 .0287806
964.663 .0287611
965.280 .0287419
965.897 .0287221
966.513 .0287021
967.129 .0286822
967.745 .0286619
968.361 .0286421
968.976 .0286238
969.590 .0286070
970.205 .0285920
970.818 .0285786
971.432 .0285665
972.045 .0285551
972.658 .0285445
973.271 .0285334
973.883 .0285218
974.495 .0285100
975.106 .0284982
975.717 .0284865
976.328 .0284752
976.938 .0284640
977.548 .0284537
978.158 .0284443
978.768 .0284354
979.377 .0284264
979.985 .0284175
980.594 .0284091
981.202 .0284007
981.809 .0283925
982.417 .0283848
983.024 .0283784
983.631 .0283738
984.237 .0283702
984.843 .0283672
985.449 .0283649
986.054 .0283625
986.659 .0283600
987.264 .0283567
987.868 .0283527
988.472 .0283480
989.076 .0283436
989.679 .0283396
990.282 .0283366
990.885 .0283348
991.487 .0283344
992.090 .0283349
992.691 .0283361
993.293 .0283366
993.894 .0283368
994.495 .0283369
995.095 .0283368
995.696 .0283362
996.296 .0283357
996.895 .0283356
997.494 .0283371
998.093 .0283394
998.692 .0283431
999.291 .0283474
999.889 .0283519
1000.487 .0283557
1001.084 .0283584
1001.681 .0283596
1002.278 .0283597
1002.875 .0283591
1003.471 .0283582
1004.067 .0283576
1004.663 .0283585
1005.258 .0283609
1005.854 .0283652
1006.449 .0283714
1007.043 .0283781
1007.638 .0283843
1008.232 .0283901
1008.826 .0283949
1009.419 .0283985
1010.012 .0284020
1010.605 .0284057
1011.198 .0284099
1011.791 .0284148
1012.383 .0284212
1012.975 .0284283
1013.566 .0284362
1014.158 .0284443
1014.749 .0284518
1015.340 .0284589
1015.931 .0284660
1016.521 .0284726
1017.111 .0284798
1017.701 .0284884
1018.291 .0284978
1018.880 .0285073
1019.470 .0285172
1020.059 .0285267
1020.647 .0285354
1021.236 .0285440
1021.824 .0285522
1022.412 .0285596
1023.000 .0285669
1023.588 .0285738
1024.175 .0285799
1024.762 .0285851
1025.349 .0285889
1025.936 .0285908
1026.523 .0285907
1027.109 .0285889
1027.695 .0285851
1028.281 .0285805
1028.867 .0285761
1029.452 .0285713
1030.038 .0285667
1030.623 .0285625
1031.208 .0285591
1031.792 .0285569
1032.377 .0285555
1032.961 .0285553
1033.546 .0285562
1034.130 .0285584
1034.714 .0285613
1035.297 .0285647
1035.881 .0285685
1036.464 .0285727
1037.047 .0285769
1037.630 .0285811
1038.213 .0285851
1038.796 .0285895
1039.378 .0285942
1039.961 .0285985
1040.543 .0286024
1041.125 .0286046
1041.707 .0286045
1042.289 .0286019
1042.871 .0285960
1043.452 .0285873
1044.034 .0285761
1044.615 .0285631
1045.196 .0285494
1045.777 .0285355
1046.358 .0285219
1046.939 .0285085
1047.520 .0284958
1048.101 .0284832
1048.681 .0284697
1049.262 .0284559
1049.842 .0284421
1050.422 .0284283
1051.002 .0284152
1051.582 .0284031
1052.162 .0283926
1052.742 .0283847
1053.322 .0283787
1053.902 .0283743
1054.482 .0283716
1055.061 .0283697
1055.641 .0283672
1056.220 .0283636
1056.800 .0283592
1057.379 .0283530
1057.958 .0283450
1058.538 .0283360
1059.117 .0283264
1059.696 .0283162
1060.275 .0283069
1060.854 .0282969
1061.433 .0282877
1062.012 .0282784
1062.592 .0282677
1063.171 .0282559
1063.750 .0282425
1064.329 .0282272
1064.908 .0282098
1065.487 .0281909
1066.066 .0281723
1066.645 .0281535
1067.224 .0281356
1067.803 .0281181
1068.382 .0281014
1068.961 .0280845
1069.540 .0280664
1070.119 .0280460
1070.698 .0280241
1071.278 .0279995
1071.857 .0279744
1072.436 .0279499
1073.016 .0279268
1073.595 .0279073
1074.175 .0278907
1074.754 .0278769
1075.334 .0278656
1075.913 .0278544
1076.493 .0278438
1077.073 .0278320
1077.653 .0278195
1078.233 .0278061
1078.813 .0277927
1079.393 .0277808
1079.974 .0277707
1080.554 .0277626
1081.135 .0277560
1081.716 .0277499
1082.296 .0277438
1082.877 .0277373
1083.458 .0277286
1084.040 .0277189
1084.621 .0277069
1085.202 .0276949
1085.784 .0276840
1086.366 .0276735
1086.948 .0276649
1087.530 .0276586
1088.112 .0276549
1088.695 .0276530
1089.277 .0276531
1089.860 .0276559
1090.443 .0276592
1091.026 .0276645
1091.610 .0276700
1092.193 .0276754
1092.777 .0276805
1093.361 .0276856
1093.946 .0276894
1094.530 .0276922
1095.115 .0276933
1095.700 .0276913
1096.285 .0276876
1096.871 .0276805
1097.456 .0276700
1098.042 .0276533
1098.628 .0276325
1099.215 .0276055
1099.802 .0275740
1100.389 .0275407
1100.976 .0275050
1101.564 .0274694
1102.152 .0274343
1102.740 .0274015
1103.329 .0273723
1103.917 .0273460
1104.507 .0273258
1105.096 .0273103
1105.686 .0273026
1106.276 .0273012
1106.867 .0273079
1107.457 .0273217
1108.049 .0273432
1108.640 .0273710
1109.232 .0274045
1109.825 .0274414
1110.417 .0274808
1111.010 .0275227
1111.604 .0275651
1112.198 .0276080
1112.792 .0276493
1113.387 .0276888
1113.982 .0277278
1114.577 .0277654
1115.173 .0278010
1115.769 .0278319
1116.366 .0278593
1116.963 .0278831
1117.561 .0279013
1118.159 .0279157
1118.758 .0279245
1119.357 .0279311
1119.957 .0279360
1120.557 .0279419
1121.157 .0279468
1121.758 .0279529
1122.360 .0279622
1122.962 .0279749
1123.564 .0279886
1124.167 .0280048
1124.771 .0280233
1125.375 .0280441
1125.980 .0280685
1126.585 .0280934
1127.191 .0281193
1127.797 .0281491
1128.404 .0281814
1129.012 .0282142
1129.620 .0282457
1130.229 .0282787
1130.838 .0283106
1131.448 .0283419
1132.058 .0283741
1132.669 .0284030
1133.281 .0284336
1133.894 .0284632
1134.507 .0284917
1135.120 .0285199
1135.735 .0285477
1136.350 .0285741
1136.965 .0286010
1137.582 .0286308
1138.199 .0286643
1138.816 .0287085
1139.435 .0287572
1140.054 .0288143
1140.674 .0288729
1141.294 .0289347
1141.916 .0289986
1142.538 .0290153
1143.160 .0291631
1143.784 .0290802
1144.408 .0292277
1145.033 .0293591
