Measurement Sequence started on: 14-45-04-498
Integration time: 36
Scans to Average: 2 
>>>>>Begin Spectral Data<<<<<
433.946 .0442951
434.870 .0443890
435.793 .0432258
436.715 .0438536
437.635 .0435881
438.555 .0442926
439.473 .0443700
440.389 .0444223
441.305 .0444607
442.219 .0444377
443.132 .0443964
444.044 .0443119
444.954 .0442350
445.863 .0441626
446.771 .0441035
447.678 .0440458
448.584 .0439879
449.488 .0439185
450.391 .0438374
451.293 .0437487
452.194 .0436459
453.094 .0435313
453.992 .0434165
454.890 .0432989
455.786 .0431867
456.681 .0430814
457.575 .0429859
458.468 .0428948
459.360 .0428103
460.250 .0427260
461.140 .0426348
462.028 .0425399
462.915 .0424352
463.801 .0423231
464.687 .0422077
465.571 .0420968
466.454 .0419911
467.335 .0418994
468.216 .0418270
469.096 .0417705
469.975 .0417298
470.853 .0416997
471.729 .0416708
472.605 .0416365
473.479 .0415938
474.353 .0415429
475.226 .0414823
476.097 .0414183
476.968 .0413542
477.838 .0412930
478.706 .0412385
479.574 .0411928
480.441 .0411526
481.306 .0411155
482.171 .0410788
483.035 .0410367
483.898 .0409866
484.760 .0409301
485.621 .0408706
486.481 .0408090
487.340 .0407528
488.198 .0407033
489.055 .0406578
489.912 .0406227
490.767 .0405931
491.622 .0405631
492.476 .0405317
493.329 .0404950
494.180 .0404499
495.032 .0403977
495.882 .0403446
496.731 .0402896
497.580 .0402370
498.427 .0401900
499.274 .0401410
500.120 .0400923
500.965 .0400430
501.809 .0399880
502.653 .0399249
503.495 .0398566
504.337 .0397790
505.178 .0396972
506.018 .0396189
506.858 .0395415
507.696 .0394720
508.534 .0394082
509.371 .0393471
510.208 .0392879
511.043 .0392286
511.878 .0391696
512.712 .0391101
513.545 .0390568
514.377 .0390084
515.209 .0389689
516.040 .0389471
516.870 .0389404
517.699 .0389509
518.528 .0389722
519.356 .0390004
520.183 .0390303
521.010 .0390642
521.836 .0390942
522.661 .0391256
523.485 .0391574
524.309 .0391816
525.132 .0391991
525.954 .0392061
526.776 .0392023
527.597 .0391848
528.417 .0391541
529.237 .0391127
530.056 .0390583
530.874 .0390006
531.692 .0389399
532.508 .0388850
533.325 .0388291
534.140 .0387683
534.955 .0387020
535.770 .0386235
536.583 .0385340
537.397 .0384374
538.209 .0383409
539.021 .0382492
539.832 .0381686
540.643 .0380998
541.453 .0380477
542.262 .0380142
543.071 .0379858
543.879 .0379567
544.687 .0379251
545.494 .0378862
546.300 .0378349
547.106 .0377790
547.911 .0377271
548.716 .0376854
549.520 .0376551
550.323 .0376340
551.126 .0376225
551.929 .0376167
552.731 .0376100
553.532 .0375943
554.332 .0375676
555.133 .0375318
555.932 .0374832
556.731 .0374276
557.530 .0373712
558.328 .0373213
559.125 .0372787
559.922 .0372469
560.719 .0372239
561.515 .0372067
562.310 .0371939
563.105 .0371855
563.899 .0371733
564.693 .0371610
565.487 .0371444
566.280 .0371220
567.072 .0370994
567.864 .0370771
568.655 .0370548
569.446 .0370341
570.236 .0370170
571.026 .0369989
571.816 .0369770
572.605 .0369546
573.393 .0369261
574.181 .0368935
574.969 .0368572
575.756 .0368156
576.543 .0367713
577.329 .0367286
578.115 .0366860
578.900 .0366449
579.685 .0366072
580.469 .0365704
581.253 .0365363
582.036 .0365031
582.820 .0364715
583.602 .0364416
584.384 .0364140
585.166 .0363882
585.947 .0363605
586.728 .0363330
587.509 .0363037
588.289 .0362712
589.069 .0362363
589.848 .0361991
590.627 .0361618
591.405 .0361260
592.183 .0360926
592.961 .0360628
593.738 .0360374
594.515 .0360153
595.291 .0359956
596.067 .0359773
596.843 .0359587
597.618 .0359383
598.393 .0359160
599.167 .0358932
599.941 .0358695
600.715 .0358462
601.488 .0358247
602.261 .0358049
603.034 .0357876
603.806 .0357711
604.578 .0357546
605.349 .0357380
606.121 .0357205
606.891 .0357016
607.662 .0356809
608.432 .0356600
609.201 .0356394
609.971 .0356189
610.740 .0356000
611.508 .0355823
612.277 .0355661
613.045 .0355509
613.812 .0355369
614.579 .0355234
615.346 .0355103
616.113 .0354972
616.879 .0354842
617.645 .0354716
618.411 .0354583
619.176 .0354443
619.941 .0354301
620.705 .0354159
621.470 .0354011
622.233 .0353850
622.997 .0353692
623.760 .0353530
624.523 .0353365
625.286 .0353192
626.048 .0353017
626.810 .0352834
627.572 .0352641
628.333 .0352443
629.095 .0352232
629.855 .0352014
630.616 .0351799
631.376 .0351590
632.136 .0351389
632.895 .0351198
633.655 .0351018
634.414 .0350846
635.172 .0350687
635.931 .0350526
636.689 .0350350
637.447 .0350174
638.204 .0349989
638.962 .0349788
639.718 .0349579
640.475 .0349371
641.231 .0349155
641.988 .0348933
642.743 .0348703
643.499 .0348460
644.254 .0348210
645.009 .0347964
645.764 .0347713
646.518 .0347472
647.272 .0347242
648.026 .0347021
648.780 .0346808
649.533 .0346617
650.286 .0346436
651.039 .0346262
651.792 .0346100
652.544 .0345944
653.296 .0345789
654.048 .0345650
654.799 .0345524
655.550 .0345411
656.301 .0345310
657.052 .0345214
657.802 .0345111
658.552 .0345000
659.302 .0344874
660.052 .0344731
660.801 .0344569
661.550 .0344398
662.299 .0344214
663.048 .0344024
663.796 .0343840
664.544 .0343668
665.292 .0343510
666.040 .0343365
666.787 .0343232
667.534 .0343109
668.281 .0342992
669.028 .0342881
669.774 .0342774
670.521 .0342675
671.266 .0342588
672.012 .0342506
672.758 .0342429
673.503 .0342358
674.248 .0342293
674.992 .0342230
675.737 .0342169
676.481 .0342103
677.225 .0342026
677.969 .0341937
678.712 .0341836
679.455 .0341718
680.199 .0341590
680.941 .0341453
681.684 .0341304
682.426 .0341140
683.168 .0340967
683.910 .0340778
684.652 .0340582
685.393 .0340382
686.134 .0340179
686.875 .0339974
687.616 .0339776
688.356 .0339583
689.097 .0339399
689.837 .0339227
690.576 .0339062
691.316 .0338897
692.055 .0338733
692.794 .0338567
693.533 .0338400
694.272 .0338239
695.010 .0338088
695.748 .0337943
696.486 .0337805
697.224 .0337676
697.962 .0337547
698.699 .0337417
699.436 .0337286
700.173 .0337144
700.909 .0336990
701.646 .0336825
702.382 .0336652
703.118 .0336472
703.853 .0336300
704.589 .0336131
705.324 .0335965
706.059 .0335804
706.794 .0335641
707.529 .0335474
708.263 .0335304
708.997 .0335134
709.731 .0334955
710.465 .0334780
711.198 .0334609
711.931 .0334442
712.664 .0334285
713.397 .0334137
714.130 .0333992
714.862 .0333848
715.594 .0333703
716.326 .0333551
717.058 .0333393
717.789 .0333238
718.520 .0333080
719.251 .0332927
719.982 .0332779
720.713 .0332643
721.443 .0332510
722.173 .0332382
722.903 .0332250
723.633 .0332114
724.362 .0331970
725.091 .0331818
725.820 .0331657
726.549 .0331494
727.278 .0331331
728.006 .0331172
728.734 .0331014
729.462 .0330862
730.190 .0330713
730.917 .0330568
731.644 .0330420
732.371 .0330273
733.098 .0330120
733.825 .0329966
734.551 .0329813
735.277 .0329662
736.003 .0329513
736.728 .0329369
737.454 .0329235
738.179 .0329109
738.904 .0328995
739.629 .0328890
740.353 .0328793
741.077 .0328705
741.801 .0328619
742.525 .0328531
743.249 .0328437
743.972 .0328341
744.695 .0328240
745.418 .0328135
746.141 .0328031
746.863 .0327923
747.585 .0327820
748.307 .0327712
749.029 .0327600
749.750 .0327477
750.472 .0327348
751.193 .0327203
751.913 .0327043
752.634 .0326872
753.354 .0326691
754.074 .0326505
754.794 .0326316
755.514 .0326127
756.233 .0325941
756.952 .0325754
757.671 .0325568
758.390 .0325381
759.108 .0325202
759.826 .0325025
760.544 .0324858
761.262 .0324699
761.979 .0324545
762.697 .0324397
763.414 .0324253
764.130 .0324110
764.847 .0323967
765.563 .0323826
766.279 .0323688
766.995 .0323556
767.710 .0323429
768.426 .0323306
769.141 .0323190
769.855 .0323080
770.570 .0322969
771.284 .0322852
771.998 .0322734
772.712 .0322615
773.426 .0322493
774.139 .0322373
774.852 .0322252
775.565 .0322134
776.277 .0322016
776.990 .0321896
777.702 .0321768
778.414 .0321634
779.125 .0321493
779.836 .0321347
780.547 .0321196
781.258 .0321042
781.969 .0320890
782.679 .0320741
783.389 .0320591
784.099 .0320443
784.808 .0320293
785.517 .0320145
786.226 .0319999
786.935 .0319856
787.643 .0319722
788.352 .0319602
789.060 .0319497
789.767 .0319410
790.475 .0319338
791.182 .0319276
791.889 .0319224
792.595 .0319178
793.301 .0319132
794.008 .0319085
794.713 .0319037
795.419 .0318990
796.124 .0318940
796.829 .0318887
797.534 .0318832
798.238 .0318772
798.942 .0318705
799.646 .0318626
800.350 .0318533
801.053 .0318422
801.756 .0318292
802.459 .0318145
803.162 .0317981
803.864 .0317804
804.566 .0317616
805.267 .0317424
805.969 .0317230
806.670 .0317038
807.371 .0316851
808.071 .0316676
808.772 .0316511
809.472 .0316351
810.171 .0316202
810.871 .0316063
811.570 .0315931
812.269 .0315808
812.967 .0315697
813.666 .0315598
814.364 .0315510
815.061 .0315433
815.759 .0315369
816.456 .0315314
817.153 .0315258
817.849 .0315196
818.545 .0315127
819.241 .0315042
819.937 .0314939
820.632 .0314817
821.327 .0314681
822.022 .0314528
822.717 .0314361
823.411 .0314182
824.105 .0313996
824.798 .0313808
825.491 .0313616
826.184 .0313419
826.877 .0313225
827.569 .0313027
828.261 .0312825
828.953 .0312622
829.645 .0312420
830.336 .0312217
831.027 .0312018
831.717 .0311824
832.407 .0311640
833.097 .0311469
833.787 .0311309
834.476 .0311159
835.165 .0311019
835.854 .0310885
836.542 .0310753
837.230 .0310621
837.918 .0310489
838.605 .0310354
839.292 .0310218
839.979 .0310081
840.665 .0309950
841.352 .0309821
842.037 .0309689
842.723 .0309554
843.408 .0309420
844.093 .0309281
844.777 .0309136
845.462 .0308986
846.145 .0308833
846.829 .0308678
847.512 .0308521
848.195 .0308364
848.878 .0308210
849.560 .0308056
850.242 .0307901
850.923 .0307742
851.605 .0307585
852.286 .0307423
852.966 .0307265
853.646 .0307116
854.326 .0306972
855.006 .0306831
855.685 .0306695
856.364 .0306559
857.043 .0306425
857.721 .0306284
858.399 .0306138
859.077 .0305985
859.754 .0305822
860.431 .0305648
861.107 .0305468
861.784 .0305287
862.459 .0305107
863.135 .0304928
863.810 .0304751
864.485 .0304571
865.160 .0304395
865.834 .0304220
866.508 .0304049
867.181 .0303884
867.854 .0303726
868.527 .0303573
869.199 .0303430
869.872 .0303291
870.543 .0303157
871.215 .0303031
871.886 .0302912
872.557 .0302795
873.227 .0302678
873.897 .0302561
874.567 .0302447
875.236 .0302335
875.905 .0302226
876.573 .0302118
877.242 .0302011
877.909 .0301903
878.577 .0301792
879.244 .0301677
879.911 .0301563
880.577 .0301453
881.243 .0301344
881.909 .0301239
882.575 .0301139
883.240 .0301047
883.904 .0300963
884.569 .0300888
885.232 .0300821
885.896 .0300755
886.559 .0300696
887.222 .0300636
887.885 .0300575
888.547 .0300520
889.208 .0300466
889.870 .0300410
890.531 .0300356
891.192 .0300301
891.852 .0300244
892.512 .0300189
893.171 .0300137
893.830 .0300082
894.489 .0300025
895.148 .0299967
895.806 .0299900
896.464 .0299829
897.121 .0299754
897.778 .0299668
898.434 .0299582
899.091 .0299490
899.747 .0299391
900.402 .0299289
901.057 .0299182
901.712 .0299069
902.366 .0298943
903.020 .0298811
903.674 .0298668
904.327 .0298517
904.980 .0298362
905.633 .0298206
906.285 .0298053
906.936 .0297903
907.588 .0297752
908.239 .0297604
908.889 .0297464
909.540 .0297324
910.190 .0297183
910.839 .0297049
911.488 .0296916
912.137 .0296788
912.785 .0296658
913.433 .0296528
914.081 .0296395
914.728 .0296257
915.375 .0296110
916.021 .0295955
916.668 .0295793
917.313 .0295626
917.959 .0295455
918.604 .0295285
919.248 .0295109
919.892 .0294928
920.536 .0294741
921.180 .0294550
921.823 .0294345
922.465 .0294130
923.108 .0293903
923.750 .0293676
924.391 .0293445
925.032 .0293217
925.673 .0292996
926.313 .0292785
926.953 .0292581
927.593 .0292380
928.232 .0292169
928.871 .0291950
929.510 .0291716
930.148 .0291466
930.786 .0291201
931.423 .0290928
932.060 .0290652
932.697 .0290381
933.333 .0290117
933.969 .0289862
934.604 .0289608
935.239 .0289360
935.874 .0289104
936.508 .0288845
937.142 .0288580
937.776 .0288313
938.409 .0288047
939.042 .0287790
939.674 .0287544
940.306 .0287315
940.938 .0287101
941.569 .0286904
942.200 .0286714
942.830 .0286528
943.460 .0286333
944.090 .0286133
944.720 .0285926
945.349 .0285716
945.977 .0285504
946.606 .0285299
947.233 .0285099
947.861 .0284906
948.488 .0284717
949.115 .0284529
949.741 .0284338
950.367 .0284145
950.993 .0283941
951.618 .0283733
952.243 .0283523
952.868 .0283316
953.492 .0283113
954.115 .0282918
954.739 .0282730
955.362 .0282556
955.984 .0282386
956.607 .0282222
957.229 .0282062
957.850 .0281904
958.471 .0281740
959.092 .0281573
959.713 .0281400
960.333 .0281223
960.952 .0281047
961.572 .0280882
962.191 .0280729
962.809 .0280591
963.428 .0280471
964.045 .0280362
964.663 .0280270
965.280 .0280189
965.897 .0280106
966.513 .0280027
967.129 .0279953
967.745 .0279880
968.361 .0279813
968.976 .0279759
969.590 .0279724
970.205 .0279702
970.818 .0279695
971.432 .0279700
972.045 .0279711
972.658 .0279727
973.271 .0279738
973.883 .0279744
974.495 .0279746
975.106 .0279742
975.717 .0279729
976.328 .0279713
976.938 .0279700
977.548 .0279691
978.158 .0279685
978.768 .0279686
979.377 .0279689
979.985 .0279692
980.594 .0279695
981.202 .0279691
981.809 .0279675
982.417 .0279650
983.024 .0279618
983.631 .0279581
984.237 .0279540
984.843 .0279500
985.449 .0279460
986.054 .0279425
986.659 .0279391
987.264 .0279353
987.868 .0279315
988.472 .0279280
989.076 .0279246
989.679 .0279214
990.282 .0279181
990.885 .0279151
991.487 .0279127
992.090 .0279106
992.691 .0279086
993.293 .0279059
993.894 .0279034
994.495 .0279007
995.095 .0278983
995.696 .0278962
996.296 .0278944
996.895 .0278935
997.494 .0278933
998.093 .0278932
998.692 .0278930
999.291 .0278927
999.889 .0278920
1000.487 .0278901
1001.084 .0278875
1001.681 .0278835
1002.278 .0278788
1002.875 .0278735
1003.471 .0278681
1004.067 .0278621
1004.663 .0278561
1005.258 .0278500
1005.854 .0278441
1006.449 .0278384
1007.043 .0278330
1007.638 .0278276
1008.232 .0278229
1008.826 .0278181
1009.419 .0278127
1010.012 .0278068
1010.605 .0278009
1011.198 .0277943
1011.791 .0277878
1012.383 .0277814
1012.975 .0277753
1013.566 .0277694
1014.158 .0277638
1014.749 .0277577
1015.340 .0277514
1015.931 .0277443
1016.521 .0277360
1017.111 .0277265
1017.701 .0277165
1018.291 .0277059
1018.880 .0276957
1019.470 .0276865
1020.059 .0276788
1020.647 .0276724
1021.236 .0276675
1021.824 .0276642
1022.412 .0276623
1023.000 .0276611
1023.588 .0276608
1024.175 .0276607
1024.762 .0276604
1025.349 .0276588
1025.936 .0276565
1026.523 .0276528
1027.109 .0276482
1027.695 .0276423
1028.281 .0276356
1028.867 .0276284
1029.452 .0276207
1030.038 .0276129
1030.623 .0276049
1031.208 .0275967
1031.792 .0275882
1032.377 .0275787
1032.961 .0275695
1033.546 .0275600
1034.130 .0275516
1034.714 .0275444
1035.297 .0275392
1035.881 .0275354
1036.464 .0275332
1037.047 .0275324
1037.630 .0275323
1038.213 .0275318
1038.796 .0275310
1039.378 .0275291
1039.961 .0275262
1040.543 .0275223
1041.125 .0275174
1041.707 .0275113
1042.289 .0275041
1042.871 .0274950
1043.452 .0274845
1044.034 .0274731
1044.615 .0274601
1045.196 .0274466
1045.777 .0274331
1046.358 .0274200
1046.939 .0274065
1047.520 .0273938
1048.101 .0273815
1048.681 .0273688
1049.262 .0273563
1049.842 .0273428
1050.422 .0273293
1051.002 .0273173
1051.582 .0273060
1052.162 .0272971
1052.742 .0272904
1053.322 .0272861
1053.902 .0272823
1054.482 .0272799
1055.061 .0272777
1055.641 .0272754
1056.220 .0272733
1056.800 .0272718
1057.379 .0272704
1057.958 .0272700
1058.538 .0272705
1059.117 .0272719
1059.696 .0272747
1060.275 .0272778
1060.854 .0272797
1061.433 .0272817
1062.012 .0272821
1062.592 .0272814
1063.171 .0272796
1063.750 .0272772
1064.329 .0272738
1064.908 .0272688
1065.487 .0272618
1066.066 .0272535
1066.645 .0272440
1067.224 .0272342
1067.803 .0272232
1068.382 .0272122
1068.961 .0272014
1069.540 .0271907
1070.119 .0271793
1070.698 .0271688
1071.278 .0271584
1071.857 .0271487
1072.436 .0271394
1073.016 .0271318
1073.595 .0271255
1074.175 .0271215
1074.754 .0271193
1075.334 .0271185
1075.913 .0271182
1076.493 .0271190
1077.073 .0271178
1077.653 .0271156
1078.233 .0271130
1078.813 .0271087
1079.393 .0271045
1079.974 .0271017
1080.554 .0270982
1081.135 .0270950
1081.716 .0270926
1082.296 .0270902
1082.877 .0270875
1083.458 .0270852
1084.040 .0270830
1084.621 .0270802
1085.202 .0270779
1085.784 .0270756
1086.366 .0270730
1086.948 .0270735
1087.530 .0270752
1088.112 .0270776
1088.695 .0270821
1089.277 .0270868
1089.860 .0270932
1090.443 .0271003
1091.026 .0271065
1091.610 .0271120
1092.193 .0271168
1092.777 .0271189
1093.361 .0271189
1093.946 .0271172
1094.530 .0271150
1095.115 .0271128
1095.700 .0271112
1096.285 .0271097
1096.871 .0271082
1097.456 .0271090
1098.042 .0271098
1098.628 .0271105
1099.215 .0271120
1099.802 .0271138
1100.389 .0271159
1100.976 .0271197
1101.564 .0271239
1102.152 .0271284
1102.740 .0271343
1103.329 .0271416
1103.917 .0271487
1104.507 .0271573
1105.096 .0271658
1105.686 .0271758
1106.276 .0271854
1106.867 .0271960
1107.457 .0272054
1108.049 .0272146
1108.640 .0272240
1109.232 .0272335
1109.825 .0272416
1110.417 .0272509
1111.010 .0272592
1111.604 .0272689
1112.198 .0272794
1112.792 .0272902
1113.387 .0273008
1113.982 .0273117
1114.577 .0273246
1115.173 .0273401
1115.769 .0273570
1116.366 .0273796
1116.963 .0274037
1117.561 .0274315
1118.159 .0274612
1118.758 .0274916
1119.357 .0275219
1119.957 .0275501
1120.557 .0275763
1121.157 .0275990
1121.758 .0276188
1122.360 .0276373
1122.962 .0276538
1123.564 .0276685
1124.167 .0276827
1124.771 .0276941
1125.375 .0277022
1125.980 .0277095
1126.585 .0277146
1127.191 .0277214
1127.797 .0277318
1128.404 .0277479
1129.012 .0277712
1129.620 .0278028
1130.229 .0278446
1130.838 .0278895
1131.448 .0279381
1132.058 .0279891
1132.669 .0280390
1133.281 .0280916
1133.894 .0281441
1134.507 .0281992
1135.120 .0282578
1135.735 .0283203
1136.350 .0283826
1136.965 .0284430
1137.582 .0285006
1138.199 .0285495
1138.816 .0285872
1139.435 .0286185
1140.054 .0286428
1140.674 .0286599
1141.294 .0286788
1141.916 .0286980
1142.538 .0287299
1143.160 .0287981
1143.784 .0287126
1144.408 .0288365
1145.033 .0288372
