Measurement Sequence started on: 14-45-04-498
Integration time: 36
Scans to Average: 2 
>>>>>Begin Spectral Data<<<<<
433.946 .0609533
434.870 .0580080
435.793 .0534287
436.715 .0528366
437.635 .0520265
438.555 .0523609
439.473 .0515163
440.389 .0508639
441.305 .0503882
442.219 .0499502
443.132 .0495836
444.044 .0492755
444.954 .0490360
445.863 .0488609
446.771 .0487264
447.678 .0486018
448.584 .0484781
449.488 .0483300
450.391 .0481700
451.293 .0480147
452.194 .0478799
453.094 .0477590
453.992 .0476576
454.890 .0475819
455.786 .0475205
456.681 .0474577
457.575 .0473940
458.468 .0473121
459.360 .0472172
460.250 .0471085
461.140 .0469883
462.028 .0468691
462.915 .0467577
463.801 .0466536
464.687 .0465532
465.571 .0464578
466.454 .0463624
467.335 .0462627
468.216 .0461645
469.096 .0460680
469.975 .0459725
470.853 .0458813
471.729 .0457968
472.605 .0457155
473.479 .0456443
474.353 .0455777
475.226 .0455142
476.097 .0454552
476.968 .0453999
477.838 .0453458
478.706 .0452951
479.574 .0452494
480.441 .0452094
481.306 .0451708
482.171 .0451326
483.035 .0450898
483.898 .0450463
484.760 .0450030
485.621 .0449582
486.481 .0449148
487.340 .0448761
488.198 .0448423
489.055 .0448121
489.912 .0447839
490.767 .0447595
491.622 .0447330
492.476 .0447077
493.329 .0446828
494.180 .0446628
495.032 .0446478
495.882 .0446417
496.731 .0446441
497.580 .0446549
498.427 .0446707
499.274 .0446862
500.120 .0447023
500.965 .0447167
501.809 .0447259
502.653 .0447266
503.495 .0447226
504.337 .0447171
505.178 .0447031
506.018 .0446846
506.858 .0446538
507.696 .0446137
508.534 .0445602
509.371 .0444920
510.208 .0444095
511.043 .0443196
511.878 .0442256
512.712 .0441268
513.545 .0440249
514.377 .0439238
515.209 .0438213
516.040 .0437207
516.870 .0436214
517.699 .0435258
518.528 .0434327
519.356 .0433542
520.183 .0432868
521.010 .0432395
521.836 .0432066
522.661 .0431868
523.485 .0431761
524.309 .0431723
525.132 .0431698
525.954 .0431649
526.776 .0431592
527.597 .0431569
528.417 .0431489
529.237 .0431362
530.056 .0431168
530.874 .0430907
531.692 .0430579
532.508 .0430155
533.325 .0429598
534.140 .0428934
534.955 .0428192
535.770 .0427389
536.583 .0426526
537.397 .0425684
538.209 .0424925
539.021 .0424210
539.832 .0423554
540.643 .0422948
541.453 .0422416
542.262 .0421994
543.071 .0421706
543.879 .0421505
544.687 .0421455
545.494 .0421493
546.300 .0421623
547.106 .0421776
547.911 .0421958
548.716 .0422115
549.520 .0422200
550.323 .0422188
551.126 .0422087
551.929 .0421893
552.731 .0421648
553.532 .0421365
554.332 .0421076
555.133 .0420746
555.932 .0420375
556.731 .0419970
557.530 .0419536
558.328 .0419079
559.125 .0418628
559.922 .0418154
560.719 .0417682
561.515 .0417220
562.310 .0416752
563.105 .0416327
563.899 .0415952
564.693 .0415600
565.487 .0415229
566.280 .0414840
567.072 .0414401
567.864 .0413910
568.655 .0413392
569.446 .0412845
570.236 .0412266
571.026 .0411700
571.816 .0411128
572.605 .0410571
573.393 .0410045
574.181 .0409538
574.969 .0409042
575.756 .0408568
576.543 .0408087
577.329 .0407638
578.115 .0407233
578.900 .0406878
579.685 .0406562
580.469 .0406312
581.253 .0406095
582.036 .0405886
582.820 .0405688
583.602 .0405492
584.384 .0405288
585.166 .0405083
585.947 .0404846
586.728 .0404605
587.509 .0404377
588.289 .0404155
589.069 .0403944
589.848 .0403755
590.627 .0403571
591.405 .0403368
592.183 .0403133
592.961 .0402881
593.738 .0402596
594.515 .0402283
595.291 .0401941
596.067 .0401575
596.843 .0401196
597.618 .0400818
598.393 .0400443
599.167 .0400102
599.941 .0399777
600.715 .0399466
601.488 .0399158
602.261 .0398858
603.034 .0398547
603.806 .0398224
604.578 .0397894
605.349 .0397570
606.121 .0397247
606.891 .0396932
607.662 .0396634
608.432 .0396366
609.201 .0396117
609.971 .0395878
610.740 .0395643
611.508 .0395409
612.277 .0395161
613.045 .0394912
613.812 .0394659
614.579 .0394414
615.346 .0394184
616.113 .0393971
616.879 .0393771
617.645 .0393588
618.411 .0393410
619.176 .0393229
619.941 .0393047
620.705 .0392857
621.470 .0392652
622.233 .0392438
622.997 .0392221
623.760 .0391995
624.523 .0391760
625.286 .0391528
626.048 .0391283
626.810 .0391032
627.572 .0390767
628.333 .0390489
629.095 .0390201
629.855 .0389909
630.616 .0389617
631.376 .0389330
632.136 .0389052
632.895 .0388785
633.655 .0388525
634.414 .0388276
635.172 .0388030
635.931 .0387785
636.689 .0387537
637.447 .0387288
638.204 .0387024
638.962 .0386757
639.718 .0386483
640.475 .0386211
641.231 .0385930
641.988 .0385643
642.743 .0385349
643.499 .0385045
644.254 .0384728
645.009 .0384402
645.764 .0384064
646.518 .0383731
647.272 .0383399
648.026 .0383087
648.780 .0382799
649.533 .0382547
650.286 .0382327
651.039 .0382139
651.792 .0381967
652.544 .0381809
653.296 .0381653
654.048 .0381501
654.799 .0381347
655.550 .0381196
656.301 .0381048
657.052 .0380916
657.802 .0380796
658.552 .0380692
659.302 .0380589
660.052 .0380491
660.801 .0380386
661.550 .0380269
662.299 .0380135
663.048 .0379981
663.796 .0379814
664.544 .0379640
665.292 .0379458
666.040 .0379273
666.787 .0379096
667.534 .0378933
668.281 .0378779
669.028 .0378639
669.774 .0378513
670.521 .0378394
671.266 .0378276
672.012 .0378158
672.758 .0378035
673.503 .0377906
674.248 .0377771
674.992 .0377626
675.737 .0377479
676.481 .0377330
677.225 .0377177
677.969 .0377026
678.712 .0376874
679.455 .0376715
680.199 .0376542
680.941 .0376362
681.684 .0376170
682.426 .0375965
683.168 .0375748
683.910 .0375523
684.652 .0375295
685.393 .0375062
686.134 .0374822
686.875 .0374582
687.616 .0374344
688.356 .0374106
689.097 .0373867
689.837 .0373634
690.576 .0373407
691.316 .0373184
692.055 .0372967
692.794 .0372755
693.533 .0372543
694.272 .0372333
695.010 .0372125
695.748 .0371923
696.486 .0371725
697.224 .0371536
697.962 .0371355
698.699 .0371185
699.436 .0371023
700.173 .0370866
700.909 .0370713
701.646 .0370568
702.382 .0370425
703.118 .0370285
703.853 .0370156
704.589 .0370041
705.324 .0369937
706.059 .0369848
706.794 .0369766
707.529 .0369691
708.263 .0369615
708.997 .0369539
709.731 .0369460
710.465 .0369382
711.198 .0369304
711.931 .0369221
712.664 .0369140
713.397 .0369060
714.130 .0368977
714.862 .0368889
715.594 .0368791
716.326 .0368681
717.058 .0368556
717.789 .0368422
718.520 .0368275
719.251 .0368126
719.982 .0367978
720.713 .0367834
721.443 .0367696
722.173 .0367562
722.903 .0367430
723.633 .0367302
724.362 .0367174
725.091 .0367041
725.820 .0366905
726.549 .0366763
727.278 .0366616
728.006 .0366468
728.734 .0366320
729.462 .0366170
730.190 .0366021
730.917 .0365873
731.644 .0365721
732.371 .0365564
733.098 .0365405
733.825 .0365245
734.551 .0365083
735.277 .0364915
736.003 .0364741
736.728 .0364562
737.454 .0364383
738.179 .0364204
738.904 .0364030
739.629 .0363860
740.353 .0363698
741.077 .0363543
741.801 .0363393
742.525 .0363248
743.249 .0363111
743.972 .0362973
744.695 .0362836
745.418 .0362692
746.141 .0362542
746.863 .0362388
747.585 .0362236
748.307 .0362080
749.029 .0361922
749.750 .0361759
750.472 .0361592
751.193 .0361416
751.913 .0361240
752.634 .0361054
753.354 .0360863
754.074 .0360668
754.794 .0360471
755.514 .0360271
756.233 .0360074
756.952 .0359877
757.671 .0359686
758.390 .0359498
759.108 .0359312
759.826 .0359131
760.544 .0358961
761.262 .0358803
761.979 .0358656
762.697 .0358519
763.414 .0358395
764.130 .0358280
764.847 .0358177
765.563 .0358081
766.279 .0357990
766.995 .0357909
767.710 .0357834
768.426 .0357766
769.141 .0357707
769.855 .0357657
770.570 .0357616
771.284 .0357585
771.998 .0357561
772.712 .0357543
773.426 .0357534
774.139 .0357531
774.852 .0357526
775.565 .0357521
776.277 .0357515
776.990 .0357503
777.702 .0357483
778.414 .0357458
779.125 .0357423
779.836 .0357380
780.547 .0357332
781.258 .0357276
781.969 .0357214
782.679 .0357152
783.389 .0357082
784.099 .0357003
784.808 .0356920
785.517 .0356832
786.226 .0356739
786.935 .0356649
787.643 .0356560
788.352 .0356475
789.060 .0356394
789.767 .0356322
790.475 .0356250
791.182 .0356176
791.889 .0356101
792.595 .0356017
793.301 .0355923
794.008 .0355821
794.713 .0355713
795.419 .0355600
796.124 .0355487
796.829 .0355374
797.534 .0355256
798.238 .0355138
798.942 .0355016
799.646 .0354891
800.350 .0354755
801.053 .0354613
801.756 .0354463
802.459 .0354303
803.162 .0354138
803.864 .0353967
804.566 .0353790
805.267 .0353609
805.969 .0353421
806.670 .0353221
807.371 .0353017
808.071 .0352814
808.772 .0352606
809.472 .0352399
810.171 .0352196
810.871 .0351999
811.570 .0351802
812.269 .0351612
812.967 .0351422
813.666 .0351231
814.364 .0351047
815.061 .0350866
815.759 .0350690
816.456 .0350527
817.153 .0350373
817.849 .0350225
818.545 .0350082
819.241 .0349940
819.937 .0349794
820.632 .0349643
821.327 .0349483
822.022 .0349313
822.717 .0349135
823.411 .0348955
824.105 .0348772
824.798 .0348588
825.491 .0348406
826.184 .0348223
826.877 .0348039
827.569 .0347853
828.261 .0347671
828.953 .0347490
829.645 .0347311
830.336 .0347138
831.027 .0346972
831.717 .0346813
832.407 .0346662
833.097 .0346516
833.787 .0346374
834.476 .0346238
835.165 .0346109
835.854 .0345990
836.542 .0345888
837.230 .0345800
837.918 .0345730
838.605 .0345674
839.292 .0345633
839.979 .0345598
840.665 .0345568
841.352 .0345536
842.037 .0345503
842.723 .0345463
843.408 .0345417
844.093 .0345367
844.777 .0345314
845.462 .0345257
846.145 .0345194
846.829 .0345122
847.512 .0345042
848.195 .0344950
848.878 .0344851
849.560 .0344742
850.242 .0344630
850.923 .0344514
851.605 .0344394
852.286 .0344280
852.966 .0344170
853.646 .0344067
854.326 .0343971
855.006 .0343880
855.685 .0343788
856.364 .0343697
857.043 .0343604
857.721 .0343512
858.399 .0343421
859.077 .0343332
859.754 .0343239
860.431 .0343146
861.107 .0343053
861.784 .0342955
862.459 .0342859
863.135 .0342758
863.810 .0342650
864.485 .0342538
865.160 .0342422
865.834 .0342304
866.508 .0342187
867.181 .0342073
867.854 .0341965
868.527 .0341858
869.199 .0341751
869.872 .0341637
870.543 .0341520
871.215 .0341390
871.886 .0341246
872.557 .0341081
873.227 .0340899
873.897 .0340700
874.567 .0340489
875.236 .0340266
875.905 .0340041
876.573 .0339808
877.242 .0339566
877.909 .0339312
878.577 .0339048
879.244 .0338768
879.911 .0338479
880.577 .0338184
881.243 .0337887
881.909 .0337594
882.575 .0337314
883.240 .0337050
883.904 .0336809
884.569 .0336586
885.232 .0336369
885.896 .0336155
886.559 .0335940
887.222 .0335716
887.885 .0335483
888.547 .0335248
889.208 .0335015
889.870 .0334788
890.531 .0334578
891.192 .0334379
891.852 .0334195
892.512 .0334021
893.171 .0333845
893.830 .0333666
894.489 .0333480
895.148 .0333284
895.806 .0333083
896.464 .0332888
897.121 .0332705
897.778 .0332535
898.434 .0332387
899.091 .0332259
899.747 .0332148
900.402 .0332044
901.057 .0331942
901.712 .0331838
902.366 .0331727
903.020 .0331605
903.674 .0331475
904.327 .0331343
904.980 .0331211
905.633 .0331083
906.285 .0330961
906.936 .0330846
907.588 .0330731
908.239 .0330611
908.889 .0330481
909.540 .0330342
910.190 .0330189
910.839 .0330024
911.488 .0329853
912.137 .0329676
912.785 .0329491
913.433 .0329309
914.081 .0329127
914.728 .0328946
915.375 .0328766
916.021 .0328582
916.668 .0328399
917.313 .0328219
917.959 .0328043
918.604 .0327877
919.248 .0327723
919.892 .0327581
920.536 .0327442
921.180 .0327311
921.823 .0327184
922.465 .0327062
923.108 .0326947
923.750 .0326832
924.391 .0326723
925.032 .0326622
925.673 .0326533
926.313 .0326456
926.953 .0326393
927.593 .0326335
928.232 .0326276
928.871 .0326209
929.510 .0326134
930.148 .0326047
930.786 .0325958
931.423 .0325866
932.060 .0325773
932.697 .0325682
933.333 .0325595
933.969 .0325504
934.604 .0325412
935.239 .0325311
935.874 .0325197
936.508 .0325065
937.142 .0324923
937.776 .0324767
938.409 .0324609
939.042 .0324449
939.674 .0324288
940.306 .0324124
940.938 .0323956
941.569 .0323782
942.200 .0323599
942.830 .0323406
943.460 .0323207
944.090 .0322991
944.720 .0322771
945.349 .0322548
945.977 .0322326
946.606 .0322109
947.233 .0321898
947.861 .0321692
948.488 .0321487
949.115 .0321278
949.741 .0321064
950.367 .0320846
950.993 .0320628
951.618 .0320410
952.243 .0320193
952.868 .0319984
953.492 .0319786
954.115 .0319592
954.739 .0319409
955.362 .0319232
955.984 .0319054
956.607 .0318873
957.229 .0318688
957.850 .0318501
958.471 .0318310
959.092 .0318119
959.713 .0317928
960.333 .0317736
960.952 .0317548
961.572 .0317357
962.191 .0317166
962.809 .0316979
963.428 .0316791
964.045 .0316599
964.663 .0316407
965.280 .0316212
965.897 .0316018
966.513 .0315828
967.129 .0315643
967.745 .0315458
968.361 .0315273
968.976 .0315087
969.590 .0314898
970.205 .0314703
970.818 .0314509
971.432 .0314311
972.045 .0314112
972.658 .0313913
973.271 .0313708
973.883 .0313499
974.495 .0313282
975.106 .0313062
975.717 .0312841
976.328 .0312616
976.938 .0312397
977.548 .0312186
978.158 .0311993
978.768 .0311817
979.377 .0311650
979.985 .0311486
980.594 .0311320
981.202 .0311146
981.809 .0310960
982.417 .0310766
983.024 .0310564
983.631 .0310359
984.237 .0310154
984.843 .0309951
985.449 .0309741
986.054 .0309527
986.659 .0309308
987.264 .0309078
987.868 .0308833
988.472 .0308575
989.076 .0308316
989.679 .0308063
990.282 .0307818
990.885 .0307586
991.487 .0307367
992.090 .0307166
992.691 .0306978
993.293 .0306806
993.894 .0306646
994.495 .0306505
995.095 .0306387
995.696 .0306291
996.296 .0306219
996.895 .0306165
997.494 .0306133
998.093 .0306121
998.692 .0306119
999.291 .0306117
999.889 .0306106
1000.487 .0306099
1001.084 .0306085
1001.681 .0306067
1002.278 .0306043
1002.875 .0306020
1003.471 .0305997
1004.067 .0305973
1004.663 .0305949
1005.258 .0305923
1005.854 .0305901
1006.449 .0305879
1007.043 .0305854
1007.638 .0305826
1008.232 .0305793
1008.826 .0305762
1009.419 .0305732
1010.012 .0305707
1010.605 .0305681
1011.198 .0305659
1011.791 .0305647
1012.383 .0305643
1012.975 .0305649
1013.566 .0305663
1014.158 .0305689
1014.749 .0305722
1015.340 .0305757
1015.931 .0305793
1016.521 .0305827
1017.111 .0305866
1017.701 .0305902
1018.291 .0305934
1018.880 .0305964
1019.470 .0305993
1020.059 .0306027
1020.647 .0306073
1021.236 .0306135
1021.824 .0306210
1022.412 .0306303
1023.000 .0306400
1023.588 .0306503
1024.175 .0306603
1024.762 .0306699
1025.349 .0306783
1025.936 .0306862
1026.523 .0306936
1027.109 .0307009
1027.695 .0307088
1028.281 .0307186
1028.867 .0307293
1029.452 .0307414
1030.038 .0307535
1030.623 .0307652
1031.208 .0307750
1031.792 .0307838
1032.377 .0307902
1032.961 .0307956
1033.546 .0308009
1034.130 .0308070
1034.714 .0308140
1035.297 .0308236
1035.881 .0308348
1036.464 .0308469
1037.047 .0308595
1037.630 .0308705
1038.213 .0308792
1038.796 .0308854
1039.378 .0308892
1039.961 .0308909
1040.543 .0308916
1041.125 .0308924
1041.707 .0308937
1042.289 .0308957
1042.871 .0308982
1043.452 .0309000
1044.034 .0309017
1044.615 .0309016
1045.196 .0308998
1045.777 .0308966
1046.358 .0308927
1046.939 .0308890
1047.520 .0308866
1048.101 .0308857
1048.681 .0308868
1049.262 .0308895
1049.842 .0308927
1050.422 .0308949
1051.002 .0308953
1051.582 .0308919
1052.162 .0308855
1052.742 .0308767
1053.322 .0308662
1053.902 .0308547
1054.482 .0308437
1055.061 .0308346
1055.641 .0308268
1056.220 .0308214
1056.800 .0308164
1057.379 .0308129
1057.958 .0308105
1058.538 .0308082
1059.117 .0308069
1059.696 .0308071
1060.275 .0308101
1060.854 .0308154
1061.433 .0308227
1062.012 .0308320
1062.592 .0308411
1063.171 .0308507
1063.750 .0308587
1064.329 .0308647
1064.908 .0308669
1065.487 .0308657
1066.066 .0308610
1066.645 .0308529
1067.224 .0308417
1067.803 .0308280
1068.382 .0308126
1068.961 .0307958
1069.540 .0307777
1070.119 .0307589
1070.698 .0307408
1071.278 .0307233
1071.857 .0307059
1072.436 .0306892
1073.016 .0306726
1073.595 .0306557
1074.175 .0306384
1074.754 .0306210
1075.334 .0306043
1075.913 .0305880
1076.493 .0305734
1077.073 .0305604
1077.653 .0305491
1078.233 .0305392
1078.813 .0305294
1079.393 .0305184
1079.974 .0305053
1080.554 .0304894
1081.135 .0304709
1081.716 .0304504
1082.296 .0304306
1082.877 .0304111
1083.458 .0303936
1084.040 .0303795
1084.621 .0303678
1085.202 .0303566
1085.784 .0303464
1086.366 .0303347
1086.948 .0303224
1087.530 .0303090
1088.112 .0302942
1088.695 .0302799
1089.277 .0302678
1089.860 .0302577
1090.443 .0302487
1091.026 .0302413
1091.610 .0302356
1092.193 .0302289
1092.777 .0302225
1093.361 .0302145
1093.946 .0302042
1094.530 .0301925
1095.115 .0301791
1095.700 .0301646
1096.285 .0301506
1096.871 .0301361
1097.456 .0301231
1098.042 .0301125
1098.628 .0301039
1099.215 .0300960
1099.802 .0300905
1100.389 .0300868
1100.976 .0300837
1101.564 .0300805
1102.152 .0300757
1102.740 .0300685
1103.329 .0300602
1103.917 .0300504
1104.507 .0300403
1105.096 .0300321
1105.686 .0300280
1106.276 .0300269
1106.867 .0300309
1107.457 .0300386
1108.049 .0300475
1108.640 .0300573
1109.232 .0300668
1109.825 .0300730
1110.417 .0300768
1111.010 .0300788
1111.604 .0300783
1112.198 .0300774
1112.792 .0300772
1113.387 .0300768
1113.982 .0300773
1114.577 .0300802
1115.173 .0300844
1115.769 .0300854
1116.366 .0300867
1116.963 .0300858
1117.561 .0300814
1118.159 .0300780
1118.758 .0300730
1119.357 .0300697
1119.957 .0300693
1120.557 .0300749
1121.157 .0300865
1121.758 .0301056
1122.360 .0301326
1122.962 .0301635
1123.564 .0301975
1124.167 .0302340
1124.771 .0302672
1125.375 .0302989
1125.980 .0303316
1126.585 .0303660
1127.191 .0303989
1127.797 .0304368
1128.404 .0304753
1129.012 .0305169
1129.620 .0305608
1130.229 .0306049
1130.838 .0306447
1131.448 .0306801
1132.058 .0307114
1132.669 .0307388
1133.281 .0307653
1133.894 .0307993
1134.507 .0308383
1135.120 .0308895
1135.735 .0309482
1136.350 .0310117
1136.965 .0310800
1137.582 .0311518
1138.199 .0312245
1138.816 .0312930
1139.435 .0313628
1140.054 .0314408
1140.674 .0315250
1141.294 .0316160
1141.916 .0317177
1142.538 .0317920
1143.160 .0320218
1143.784 .0321324
1144.408 .0321181
1145.033 .0323072
