Measurement Sequence started on: 14-45-04-498
Integration time: 36
Scans to Average: 2 
>>>>>Begin Spectral Data<<<<<
433.946 .0449022
434.870 .0456190
435.793 .0460744
436.715 .0451080
437.635 .0439776
438.555 .0447528
439.473 .0447277
440.389 .0447360
441.305 .0447901
442.219 .0448998
443.132 .0450314
444.044 .0451334
444.954 .0452239
445.863 .0452864
446.771 .0453259
447.678 .0453468
448.584 .0453580
449.488 .0453498
450.391 .0453203
451.293 .0452681
452.194 .0452041
453.094 .0451329
453.992 .0450512
454.890 .0449517
455.786 .0448445
456.681 .0447231
457.575 .0445914
458.468 .0444469
459.360 .0442989
460.250 .0441506
461.140 .0439986
462.028 .0438465
462.915 .0437004
463.801 .0435582
464.687 .0434157
465.571 .0432670
466.454 .0431170
467.335 .0429607
468.216 .0428040
469.096 .0426493
469.975 .0425067
470.853 .0423776
471.729 .0422613
472.605 .0421516
473.479 .0420493
474.353 .0419470
475.226 .0418429
476.097 .0417373
476.968 .0416301
477.838 .0415202
478.706 .0414137
479.574 .0413139
480.441 .0412264
481.306 .0411454
482.171 .0410712
483.035 .0409965
483.898 .0409239
484.760 .0408475
485.621 .0407662
486.481 .0406805
487.340 .0405976
488.198 .0405161
489.055 .0404402
489.912 .0403680
490.767 .0403038
491.622 .0402434
492.476 .0401863
493.329 .0401291
494.180 .0400706
495.032 .0400125
495.882 .0399553
496.731 .0398979
497.580 .0398431
498.427 .0397849
499.274 .0397247
500.120 .0396545
500.965 .0395758
501.809 .0394879
502.653 .0393895
503.495 .0392860
504.337 .0391778
505.178 .0390635
506.018 .0389513
506.858 .0388402
507.696 .0387319
508.534 .0386257
509.371 .0385255
510.208 .0384308
511.043 .0383423
511.878 .0382638
512.712 .0381960
513.545 .0381402
514.377 .0381078
515.209 .0380912
516.040 .0380916
516.870 .0381095
517.699 .0381407
518.528 .0381860
519.356 .0382502
520.183 .0383234
521.010 .0384079
521.836 .0385026
522.661 .0386022
523.485 .0386888
524.309 .0387692
525.132 .0388348
525.954 .0388835
526.776 .0389167
527.597 .0389340
528.417 .0389372
529.237 .0389394
530.056 .0389384
530.874 .0389335
531.692 .0389248
532.508 .0389132
533.325 .0388858
534.140 .0388472
534.955 .0387919
535.770 .0387161
536.583 .0386237
537.397 .0385196
538.209 .0384026
539.021 .0382768
539.832 .0381455
540.643 .0380145
541.453 .0378839
542.262 .0377581
543.071 .0376320
543.879 .0375060
544.687 .0373790
545.494 .0372476
546.300 .0371110
547.106 .0369720
547.911 .0368318
548.716 .0366951
549.520 .0365619
550.323 .0364346
551.126 .0363128
551.929 .0361952
552.731 .0360800
553.532 .0359627
554.332 .0358433
555.133 .0357229
555.932 .0355998
556.731 .0354818
557.530 .0353711
558.328 .0352741
559.125 .0351916
559.922 .0351243
560.719 .0350716
561.515 .0350253
562.310 .0349849
563.105 .0349461
563.899 .0349045
564.693 .0348643
565.487 .0348229
566.280 .0347811
567.072 .0347400
567.864 .0346975
568.655 .0346532
569.446 .0346075
570.236 .0345569
571.026 .0344987
571.816 .0344322
572.605 .0343603
573.393 .0342828
574.181 .0342017
574.969 .0341238
575.756 .0340475
576.543 .0339777
577.329 .0339133
578.115 .0338517
578.900 .0337929
579.685 .0337368
580.469 .0336832
581.253 .0336330
582.036 .0335861
582.820 .0335445
583.602 .0335096
584.384 .0334822
585.166 .0334603
585.947 .0334412
586.728 .0334228
587.509 .0334037
588.289 .0333810
589.069 .0333552
589.848 .0333274
590.627 .0333004
591.405 .0332759
592.183 .0332544
592.961 .0332358
593.738 .0332197
594.515 .0332044
595.291 .0331892
596.067 .0331725
596.843 .0331531
597.618 .0331308
598.393 .0331070
599.167 .0330831
599.941 .0330599
600.715 .0330394
601.488 .0330211
602.261 .0330051
603.034 .0329909
603.806 .0329770
604.578 .0329619
605.349 .0329459
606.121 .0329292
606.891 .0329113
607.662 .0328931
608.432 .0328748
609.201 .0328563
609.971 .0328385
610.740 .0328212
611.508 .0328042
612.277 .0327872
613.045 .0327704
613.812 .0327528
614.579 .0327350
615.346 .0327170
616.113 .0326988
616.879 .0326811
617.645 .0326654
618.411 .0326511
619.176 .0326388
619.941 .0326288
620.705 .0326206
621.470 .0326145
622.233 .0326098
622.997 .0326054
623.760 .0326004
624.523 .0325947
625.286 .0325883
626.048 .0325805
626.810 .0325723
627.572 .0325634
628.333 .0325548
629.095 .0325463
629.855 .0325385
630.616 .0325309
631.376 .0325249
632.136 .0325199
632.895 .0325154
633.655 .0325110
634.414 .0325069
635.172 .0325024
635.931 .0324986
636.689 .0324951
637.447 .0324930
638.204 .0324913
638.962 .0324907
639.718 .0324906
640.475 .0324913
641.231 .0324911
641.988 .0324894
642.743 .0324849
643.499 .0324775
644.254 .0324668
645.009 .0324537
645.764 .0324379
646.518 .0324217
647.272 .0324047
648.026 .0323876
648.780 .0323700
649.533 .0323529
650.286 .0323349
651.039 .0323162
651.792 .0322965
652.544 .0322762
653.296 .0322555
654.048 .0322364
654.799 .0322193
655.550 .0322053
656.301 .0321940
657.052 .0321851
657.802 .0321772
658.552 .0321708
659.302 .0321641
660.052 .0321565
660.801 .0321480
661.550 .0321394
662.299 .0321304
663.048 .0321214
663.796 .0321130
664.544 .0321054
665.292 .0320980
666.040 .0320900
666.787 .0320803
667.534 .0320687
668.281 .0320547
669.028 .0320381
669.774 .0320190
670.521 .0319985
671.266 .0319771
672.012 .0319553
672.758 .0319343
673.503 .0319143
674.248 .0318953
674.992 .0318771
675.737 .0318595
676.481 .0318425
677.225 .0318258
677.969 .0318094
678.712 .0317937
679.455 .0317787
680.199 .0317649
680.941 .0317517
681.684 .0317399
682.426 .0317289
683.168 .0317187
683.910 .0317086
684.652 .0316985
685.393 .0316883
686.134 .0316780
686.875 .0316678
687.616 .0316580
688.356 .0316486
689.097 .0316398
689.837 .0316311
690.576 .0316225
691.316 .0316141
692.055 .0316062
692.794 .0315981
693.533 .0315904
694.272 .0315826
695.010 .0315748
695.748 .0315670
696.486 .0315591
697.224 .0315508
697.962 .0315419
698.699 .0315324
699.436 .0315216
700.173 .0315100
700.909 .0314974
701.646 .0314841
702.382 .0314709
703.118 .0314571
703.853 .0314425
704.589 .0314273
705.324 .0314113
706.059 .0313949
706.794 .0313779
707.529 .0313610
708.263 .0313443
708.997 .0313285
709.731 .0313133
710.465 .0312990
711.198 .0312857
711.931 .0312730
712.664 .0312600
713.397 .0312471
714.130 .0312333
714.862 .0312189
715.594 .0312046
716.326 .0311907
717.058 .0311772
717.789 .0311650
718.520 .0311531
719.251 .0311416
719.982 .0311304
720.713 .0311187
721.443 .0311062
722.173 .0310929
722.903 .0310789
723.633 .0310643
724.362 .0310498
725.091 .0310355
725.820 .0310216
726.549 .0310092
727.278 .0309974
728.006 .0309861
728.734 .0309751
729.462 .0309642
730.190 .0309538
730.917 .0309440
731.644 .0309350
732.371 .0309265
733.098 .0309192
733.825 .0309120
734.551 .0309051
735.277 .0308979
736.003 .0308899
736.728 .0308808
737.454 .0308713
738.179 .0308609
738.904 .0308499
739.629 .0308387
740.353 .0308279
741.077 .0308171
741.801 .0308066
742.525 .0307954
743.249 .0307839
743.972 .0307720
744.695 .0307600
745.418 .0307475
746.141 .0307356
746.863 .0307243
747.585 .0307144
748.307 .0307055
749.029 .0306974
749.750 .0306897
750.472 .0306827
751.193 .0306757
751.913 .0306682
752.634 .0306605
753.354 .0306528
754.074 .0306451
754.794 .0306378
755.514 .0306306
756.233 .0306240
756.952 .0306173
757.671 .0306109
758.390 .0306041
759.108 .0305975
759.826 .0305909
760.544 .0305849
761.262 .0305796
761.979 .0305749
762.697 .0305703
763.414 .0305659
764.130 .0305615
764.847 .0305568
765.563 .0305516
766.279 .0305462
766.995 .0305404
767.710 .0305348
768.426 .0305289
769.141 .0305230
769.855 .0305169
770.570 .0305102
771.284 .0305023
771.998 .0304931
772.712 .0304825
773.426 .0304705
774.139 .0304578
774.852 .0304447
775.565 .0304315
776.277 .0304191
776.990 .0304076
777.702 .0303964
778.414 .0303859
779.125 .0303759
779.836 .0303655
780.547 .0303547
781.258 .0303435
781.969 .0303318
782.679 .0303205
783.389 .0303099
784.099 .0303003
784.808 .0302920
785.517 .0302853
786.226 .0302793
786.935 .0302741
787.643 .0302699
788.352 .0302657
789.060 .0302613
789.767 .0302572
790.475 .0302529
791.182 .0302482
791.889 .0302437
792.595 .0302396
793.301 .0302353
794.008 .0302313
794.713 .0302270
795.419 .0302226
796.124 .0302185
796.829 .0302143
797.534 .0302097
798.238 .0302058
798.942 .0302020
799.646 .0301980
800.350 .0301939
801.053 .0301898
801.756 .0301848
802.459 .0301791
803.162 .0301723
803.864 .0301645
804.566 .0301556
805.267 .0301462
805.969 .0301359
806.670 .0301256
807.371 .0301153
808.071 .0301054
808.772 .0300958
809.472 .0300864
810.171 .0300769
810.871 .0300670
811.570 .0300568
812.269 .0300460
812.967 .0300342
813.666 .0300217
814.364 .0300084
815.061 .0299950
815.759 .0299815
816.456 .0299680
817.153 .0299546
817.849 .0299411
818.545 .0299274
819.241 .0299128
819.937 .0298972
820.632 .0298805
821.327 .0298628
822.022 .0298444
822.717 .0298250
823.411 .0298055
824.105 .0297866
824.798 .0297686
825.491 .0297518
826.184 .0297357
826.877 .0297202
827.569 .0297049
828.261 .0296897
828.953 .0296742
829.645 .0296580
830.336 .0296412
831.027 .0296239
831.717 .0296065
832.407 .0295894
833.097 .0295729
833.787 .0295571
834.476 .0295425
835.165 .0295288
835.854 .0295155
836.542 .0295029
837.230 .0294910
837.918 .0294803
838.605 .0294708
839.292 .0294625
839.979 .0294563
840.665 .0294523
841.352 .0294513
842.037 .0294519
842.723 .0294545
843.408 .0294576
844.093 .0294604
844.777 .0294621
845.462 .0294621
846.145 .0294608
846.829 .0294575
847.512 .0294532
848.195 .0294476
848.878 .0294411
849.560 .0294338
850.242 .0294255
850.923 .0294167
851.605 .0294066
852.286 .0293953
852.966 .0293829
853.646 .0293705
854.326 .0293583
855.006 .0293466
855.685 .0293357
856.364 .0293256
857.043 .0293161
857.721 .0293062
858.399 .0292960
859.077 .0292848
859.754 .0292723
860.431 .0292587
861.107 .0292434
861.784 .0292277
862.459 .0292107
863.135 .0291935
863.810 .0291756
864.485 .0291568
865.160 .0291373
865.834 .0291169
866.508 .0290962
867.181 .0290755
867.854 .0290552
868.527 .0290361
869.199 .0290180
869.872 .0290013
870.543 .0289853
871.215 .0289701
871.886 .0289553
872.557 .0289406
873.227 .0289255
873.897 .0289104
874.567 .0288954
875.236 .0288804
875.905 .0288659
876.573 .0288519
877.242 .0288380
877.909 .0288238
878.577 .0288094
879.244 .0287939
879.911 .0287768
880.577 .0287589
881.243 .0287400
881.909 .0287209
882.575 .0287020
883.240 .0286839
883.904 .0286673
884.569 .0286523
885.232 .0286389
885.896 .0286264
886.559 .0286152
887.222 .0286051
887.885 .0285951
888.547 .0285860
889.208 .0285779
889.870 .0285710
890.531 .0285660
891.192 .0285630
891.852 .0285619
892.512 .0285624
893.171 .0285644
893.830 .0285670
894.489 .0285699
895.148 .0285724
895.806 .0285741
896.464 .0285751
897.121 .0285755
897.778 .0285753
898.434 .0285744
899.091 .0285731
899.747 .0285713
900.402 .0285688
901.057 .0285657
901.712 .0285612
902.366 .0285556
903.020 .0285490
903.674 .0285416
904.327 .0285336
904.980 .0285254
905.633 .0285171
906.285 .0285092
906.936 .0285012
907.588 .0284928
908.239 .0284838
908.889 .0284741
909.540 .0284631
910.190 .0284504
910.839 .0284352
911.488 .0284176
912.137 .0283976
912.785 .0283754
913.433 .0283513
914.081 .0283256
914.728 .0282987
915.375 .0282708
916.021 .0282425
916.668 .0282133
917.313 .0281836
917.959 .0281537
918.604 .0281235
919.248 .0280931
919.892 .0280627
920.536 .0280327
921.180 .0280042
921.823 .0279777
922.465 .0279530
923.108 .0279303
923.750 .0279101
924.391 .0278917
925.032 .0278751
925.673 .0278598
926.313 .0278452
926.953 .0278313
927.593 .0278178
928.232 .0278039
928.871 .0277896
929.510 .0277751
930.148 .0277599
930.786 .0277439
931.423 .0277274
932.060 .0277100
932.697 .0276920
933.333 .0276735
933.969 .0276546
934.604 .0276349
935.239 .0276151
935.874 .0275952
936.508 .0275754
937.142 .0275565
937.776 .0275382
938.409 .0275208
939.042 .0275047
939.674 .0274900
940.306 .0274762
940.938 .0274635
941.569 .0274521
942.200 .0274417
942.830 .0274325
943.460 .0274243
944.090 .0274171
944.720 .0274111
945.349 .0274063
945.977 .0274019
946.606 .0273979
947.233 .0273940
947.861 .0273894
948.488 .0273841
949.115 .0273779
949.741 .0273705
950.367 .0273622
950.993 .0273533
951.618 .0273445
952.243 .0273358
952.868 .0273278
953.492 .0273202
954.115 .0273133
954.739 .0273070
955.362 .0273009
955.984 .0272945
956.607 .0272882
957.229 .0272816
957.850 .0272747
958.471 .0272678
959.092 .0272605
959.713 .0272535
960.333 .0272475
960.952 .0272424
961.572 .0272381
962.191 .0272344
962.809 .0272313
963.428 .0272272
964.045 .0272223
964.663 .0272158
965.280 .0272069
965.897 .0271963
966.513 .0271836
967.129 .0271695
967.745 .0271546
968.361 .0271394
968.976 .0271241
969.590 .0271090
970.205 .0270941
970.818 .0270783
971.432 .0270618
972.045 .0270444
972.658 .0270261
973.271 .0270069
973.883 .0269870
974.495 .0269668
975.106 .0269460
975.717 .0269251
976.328 .0269036
976.938 .0268820
977.548 .0268602
978.158 .0268375
978.768 .0268146
979.377 .0267916
979.985 .0267685
980.594 .0267456
981.202 .0267233
981.809 .0267020
982.417 .0266820
983.024 .0266628
983.631 .0266445
984.237 .0266277
984.843 .0266122
985.449 .0265979
986.054 .0265850
986.659 .0265743
987.264 .0265657
987.868 .0265595
988.472 .0265563
989.076 .0265553
989.679 .0265568
990.282 .0265603
990.885 .0265647
991.487 .0265698
992.090 .0265744
992.691 .0265783
993.293 .0265816
993.894 .0265846
994.495 .0265874
995.095 .0265896
995.696 .0265922
996.296 .0265949
996.895 .0265976
997.494 .0266010
998.093 .0266050
998.692 .0266092
999.291 .0266136
999.889 .0266174
1000.487 .0266208
1001.084 .0266238
1001.681 .0266262
1002.278 .0266282
1002.875 .0266301
1003.471 .0266320
1004.067 .0266340
1004.663 .0266367
1005.258 .0266406
1005.854 .0266448
1006.449 .0266498
1007.043 .0266546
1007.638 .0266586
1008.232 .0266620
1008.826 .0266650
1009.419 .0266683
1010.012 .0266718
1010.605 .0266753
1011.198 .0266790
1011.791 .0266832
1012.383 .0266877
1012.975 .0266919
1013.566 .0266965
1014.158 .0267014
1014.749 .0267072
1015.340 .0267132
1015.931 .0267203
1016.521 .0267294
1017.111 .0267401
1017.701 .0267515
1018.291 .0267624
1018.880 .0267722
1019.470 .0267805
1020.059 .0267872
1020.647 .0267927
1021.236 .0267968
1021.824 .0268008
1022.412 .0268049
1023.000 .0268094
1023.588 .0268149
1024.175 .0268218
1024.762 .0268287
1025.349 .0268359
1025.936 .0268432
1026.523 .0268487
1027.109 .0268520
1027.695 .0268538
1028.281 .0268540
1028.867 .0268529
1029.452 .0268510
1030.038 .0268489
1030.623 .0268472
1031.208 .0268482
1031.792 .0268505
1032.377 .0268539
1032.961 .0268591
1033.546 .0268644
1034.130 .0268679
1034.714 .0268699
1035.297 .0268688
1035.881 .0268640
1036.464 .0268568
1037.047 .0268484
1037.630 .0268386
1038.213 .0268293
1038.796 .0268212
1039.378 .0268137
1039.961 .0268071
1040.543 .0268007
1041.125 .0267919
1041.707 .0267809
1042.289 .0267677
1042.871 .0267506
1043.452 .0267309
1044.034 .0267107
1044.615 .0266903
1045.196 .0266715
1045.777 .0266553
1046.358 .0266407
1046.939 .0266265
1047.520 .0266130
1048.101 .0265988
1048.681 .0265821
1049.262 .0265637
1049.842 .0265435
1050.422 .0265220
1051.002 .0265015
1051.582 .0264826
1052.162 .0264647
1052.742 .0264497
1053.322 .0264358
1053.902 .0264217
1054.482 .0264073
1055.061 .0263920
1055.641 .0263755
1056.220 .0263582
1056.800 .0263421
1057.379 .0263277
1057.958 .0263153
1058.538 .0263064
1059.117 .0262997
1059.696 .0262958
1060.275 .0262937
1060.854 .0262915
1061.433 .0262893
1062.012 .0262880
1062.592 .0262862
1063.171 .0262849
1063.750 .0262839
1064.329 .0262839
1064.908 .0262848
1065.487 .0262864
1066.066 .0262888
1066.645 .0262915
1067.224 .0262941
1067.803 .0262971
1068.382 .0262992
1068.961 .0263022
1069.540 .0263035
1070.119 .0263043
1070.698 .0263050
1071.278 .0263056
1071.857 .0263058
1072.436 .0263067
1073.016 .0263085
1073.595 .0263119
1074.175 .0263162
1074.754 .0263216
1075.334 .0263278
1075.913 .0263355
1076.493 .0263447
1077.073 .0263547
1077.653 .0263654
1078.233 .0263784
1078.813 .0263910
1079.393 .0264038
1079.974 .0264148
1080.554 .0264232
1081.135 .0264291
1081.716 .0264322
1082.296 .0264340
1082.877 .0264357
1083.458 .0264379
1084.040 .0264418
1084.621 .0264475
1085.202 .0264558
1085.784 .0264656
1086.366 .0264761
1086.948 .0264869
1087.530 .0264989
1088.112 .0265110
1088.695 .0265236
1089.277 .0265378
1089.860 .0265546
1090.443 .0265743
1091.026 .0265946
1091.610 .0266168
1092.193 .0266386
1092.777 .0266585
1093.361 .0266761
1093.946 .0266894
1094.530 .0266986
1095.115 .0267027
1095.700 .0267030
1096.285 .0267018
1096.871 .0266979
1097.456 .0266927
1098.042 .0266847
1098.628 .0266762
1099.215 .0266660
1099.802 .0266536
1100.389 .0266388
1100.976 .0266243
1101.564 .0266094
1102.152 .0265954
1102.740 .0265837
1103.329 .0265750
1103.917 .0265672
1104.507 .0265622
1105.096 .0265573
1105.686 .0265532
1106.276 .0265480
1106.867 .0265448
1107.457 .0265405
1108.049 .0265390
1108.640 .0265388
1109.232 .0265404
1109.825 .0265458
1110.417 .0265534
1111.010 .0265600
1111.604 .0265656
1112.198 .0265681
1112.792 .0265672
1113.387 .0265608
1113.982 .0265555
1114.577 .0265456
1115.173 .0265373
1115.769 .0265288
1116.366 .0265211
1116.963 .0265139
1117.561 .0265072
1118.159 .0264992
1118.758 .0264894
1119.357 .0264779
1119.957 .0264648
1120.557 .0264491
1121.157 .0264369
1121.758 .0264261
1122.360 .0264210
1122.962 .0264209
1123.564 .0264290
1124.167 .0264436
1124.771 .0264685
1125.375 .0265003
1125.980 .0265367
1126.585 .0265755
1127.191 .0266147
1127.797 .0266533
1128.404 .0266872
1129.012 .0267166
1129.620 .0267450
1130.229 .0267695
1130.838 .0267923
1131.448 .0268089
1132.058 .0268237
1132.669 .0268357
1133.281 .0268446
1133.894 .0268508
1134.507 .0268529
1135.120 .0268548
1135.735 .0268578
1136.350 .0268601
1136.965 .0268660
1137.582 .0268751
1138.199 .0268901
1138.816 .0269041
1139.435 .0269229
1140.054 .0269514
1140.674 .0269839
1141.294 .0270232
1141.916 .0270629
1142.538 .0270757
1143.160 .0272846
1143.784 .0272511
1144.408 .0272651
1145.033 .0271567
