Measurement Sequence started on: 14-45-04-498
Integration time: 36
Scans to Average: 2 
>>>>>Begin Spectral Data<<<<<
433.946 .0568031
434.870 .0493994
435.793 .0471733
436.715 .0471197
437.635 .0464686
438.555 .0463855
439.473 .0456390
440.389 .0452226
441.305 .0449188
442.219 .0446540
443.132 .0444473
444.044 .0442921
444.954 .0441640
445.863 .0440618
446.771 .0439807
447.678 .0439004
448.584 .0438313
449.488 .0437676
450.391 .0437035
451.293 .0436471
452.194 .0436014
453.094 .0435519
453.992 .0434999
454.890 .0434376
455.786 .0433599
456.681 .0432650
457.575 .0431615
458.468 .0430424
459.360 .0429186
460.250 .0427917
461.140 .0426649
462.028 .0425425
462.915 .0424313
463.801 .0423163
464.687 .0421985
465.571 .0420810
466.454 .0419586
467.335 .0418304
468.216 .0417033
469.096 .0415796
469.975 .0414698
470.853 .0413719
471.729 .0412869
472.605 .0412122
473.479 .0411509
474.353 .0410956
475.226 .0410407
476.097 .0409841
476.968 .0409251
477.838 .0408595
478.706 .0407936
479.574 .0407277
480.441 .0406651
481.306 .0406075
482.171 .0405547
483.035 .0405048
483.898 .0404562
484.760 .0404074
485.621 .0403600
486.481 .0403114
487.340 .0402644
488.198 .0402154
489.055 .0401668
489.912 .0401235
490.767 .0400831
491.622 .0400456
492.476 .0400134
493.329 .0399845
494.180 .0399574
495.032 .0399300
495.882 .0399043
496.731 .0398796
497.580 .0398569
498.427 .0398330
499.274 .0398040
500.120 .0397728
500.965 .0397364
501.809 .0396922
502.653 .0396397
503.495 .0395798
504.337 .0395087
505.178 .0394308
506.018 .0393481
506.858 .0392601
507.696 .0391722
508.534 .0390849
509.371 .0389973
510.208 .0389123
511.043 .0388300
511.878 .0387518
512.712 .0386806
513.545 .0386147
514.377 .0385487
515.209 .0384886
516.040 .0384349
516.870 .0383872
517.699 .0383468
518.528 .0383164
519.356 .0382945
520.183 .0382753
521.010 .0382639
521.836 .0382562
522.661 .0382492
523.485 .0382441
524.309 .0382305
525.132 .0382070
525.954 .0381691
526.776 .0381154
527.597 .0380496
528.417 .0379743
529.237 .0378950
530.056 .0378083
530.874 .0377246
531.692 .0376497
532.508 .0375751
533.325 .0375045
534.140 .0374394
534.955 .0373677
535.770 .0372842
536.583 .0371906
537.397 .0370923
538.209 .0369931
539.021 .0368984
539.832 .0368122
540.643 .0367393
541.453 .0366836
542.262 .0366436
543.071 .0366128
543.879 .0365945
544.687 .0365831
545.494 .0365692
546.300 .0365542
547.106 .0365414
547.911 .0365301
548.716 .0365244
549.520 .0365241
550.323 .0365291
551.126 .0365343
551.929 .0365383
552.731 .0365364
553.532 .0365266
554.332 .0365093
555.133 .0364862
555.932 .0364599
556.731 .0364322
557.530 .0364069
558.328 .0363853
559.125 .0363685
559.922 .0363561
560.719 .0363441
561.515 .0363311
562.310 .0363165
563.105 .0363012
563.899 .0362856
564.693 .0362690
565.487 .0362536
566.280 .0362372
567.072 .0362241
567.864 .0362094
568.655 .0361932
569.446 .0361762
570.236 .0361563
571.026 .0361304
571.816 .0361005
572.605 .0360637
573.393 .0360217
574.181 .0359750
574.969 .0359268
575.756 .0358758
576.543 .0358255
577.329 .0357768
578.115 .0357292
578.900 .0356837
579.685 .0356405
580.469 .0355966
581.253 .0355554
582.036 .0355147
582.820 .0354732
583.602 .0354310
584.384 .0353910
585.166 .0353524
585.947 .0353153
586.728 .0352815
587.509 .0352504
588.289 .0352220
589.069 .0351963
589.848 .0351719
590.627 .0351487
591.405 .0351255
592.183 .0351017
592.961 .0350773
593.738 .0350525
594.515 .0350277
595.291 .0350026
596.067 .0349789
596.843 .0349550
597.618 .0349304
598.393 .0349060
599.167 .0348812
599.941 .0348561
600.715 .0348310
601.488 .0348055
602.261 .0347803
603.034 .0347551
603.806 .0347299
604.578 .0347054
605.349 .0346823
606.121 .0346604
606.891 .0346392
607.662 .0346187
608.432 .0345999
609.201 .0345815
609.971 .0345645
610.740 .0345482
611.508 .0345317
612.277 .0345151
613.045 .0344975
613.812 .0344790
614.579 .0344593
615.346 .0344384
616.113 .0344171
616.879 .0343950
617.645 .0343726
618.411 .0343499
619.176 .0343275
619.941 .0343062
620.705 .0342851
621.470 .0342643
622.233 .0342430
622.997 .0342212
623.760 .0341984
624.523 .0341744
625.286 .0341490
626.048 .0341230
626.810 .0340963
627.572 .0340697
628.333 .0340443
629.095 .0340204
629.855 .0339982
630.616 .0339775
631.376 .0339582
632.136 .0339393
632.895 .0339200
633.655 .0339002
634.414 .0338791
635.172 .0338567
635.931 .0338336
636.689 .0338107
637.447 .0337884
638.204 .0337673
638.962 .0337474
639.718 .0337285
640.475 .0337103
641.231 .0336919
641.988 .0336725
642.743 .0336522
643.499 .0336308
644.254 .0336074
645.009 .0335824
645.764 .0335570
646.518 .0335314
647.272 .0335063
648.026 .0334820
648.780 .0334585
649.533 .0334363
650.286 .0334155
651.039 .0333959
651.792 .0333777
652.544 .0333610
653.296 .0333449
654.048 .0333295
654.799 .0333146
655.550 .0332995
656.301 .0332845
657.052 .0332700
657.802 .0332558
658.552 .0332416
659.302 .0332279
660.052 .0332148
660.801 .0332025
661.550 .0331908
662.299 .0331787
663.048 .0331657
663.796 .0331522
664.544 .0331373
665.292 .0331212
666.040 .0331047
666.787 .0330879
667.534 .0330716
668.281 .0330564
669.028 .0330419
669.774 .0330283
670.521 .0330158
671.266 .0330041
672.012 .0329926
672.758 .0329817
673.503 .0329706
674.248 .0329596
674.992 .0329488
675.737 .0329378
676.481 .0329265
677.225 .0329153
677.969 .0329033
678.712 .0328908
679.455 .0328778
680.199 .0328643
680.941 .0328501
681.684 .0328363
682.426 .0328221
683.168 .0328074
683.910 .0327922
684.652 .0327765
685.393 .0327601
686.134 .0327430
686.875 .0327257
687.616 .0327080
688.356 .0326909
689.097 .0326742
689.837 .0326577
690.576 .0326420
691.316 .0326265
692.055 .0326110
692.794 .0325950
693.533 .0325787
694.272 .0325619
695.010 .0325448
695.748 .0325284
696.486 .0325124
697.224 .0324974
697.962 .0324831
698.699 .0324696
699.436 .0324565
700.173 .0324436
700.909 .0324306
701.646 .0324173
702.382 .0324040
703.118 .0323905
703.853 .0323769
704.589 .0323636
705.324 .0323505
706.059 .0323379
706.794 .0323255
707.529 .0323134
708.263 .0323013
708.997 .0322897
709.731 .0322775
710.465 .0322654
711.198 .0322530
711.931 .0322400
712.664 .0322262
713.397 .0322121
714.130 .0321968
714.862 .0321809
715.594 .0321644
716.326 .0321478
717.058 .0321312
717.789 .0321152
718.520 .0320990
719.251 .0320829
719.982 .0320668
720.713 .0320498
721.443 .0320316
722.173 .0320124
722.903 .0319919
723.633 .0319707
724.362 .0319488
725.091 .0319271
725.820 .0319059
726.549 .0318856
727.278 .0318656
728.006 .0318457
728.734 .0318255
729.462 .0318045
730.190 .0317824
730.917 .0317597
731.644 .0317363
732.371 .0317131
733.098 .0316906
733.825 .0316691
734.551 .0316491
735.277 .0316307
736.003 .0316137
736.728 .0315973
737.454 .0315816
738.179 .0315659
738.904 .0315502
739.629 .0315346
740.353 .0315198
741.077 .0315059
741.801 .0314934
742.525 .0314817
743.249 .0314708
743.972 .0314603
744.695 .0314500
745.418 .0314392
746.141 .0314280
746.863 .0314161
747.585 .0314036
748.307 .0313899
749.029 .0313759
749.750 .0313615
750.472 .0313467
751.193 .0313315
751.913 .0313162
752.634 .0313005
753.354 .0312844
754.074 .0312684
754.794 .0312528
755.514 .0312377
756.233 .0312229
756.952 .0312083
757.671 .0311940
758.390 .0311803
759.108 .0311668
759.826 .0311536
760.544 .0311414
761.262 .0311300
761.979 .0311188
762.697 .0311085
763.414 .0310988
764.130 .0310900
764.847 .0310812
765.563 .0310724
766.279 .0310632
766.995 .0310533
767.710 .0310424
768.426 .0310306
769.141 .0310180
769.855 .0310049
770.570 .0309908
771.284 .0309761
771.998 .0309608
772.712 .0309450
773.426 .0309287
774.139 .0309119
774.852 .0308944
775.565 .0308760
776.277 .0308566
776.990 .0308366
777.702 .0308162
778.414 .0307960
779.125 .0307763
779.836 .0307574
780.547 .0307398
781.258 .0307233
781.969 .0307075
782.679 .0306924
783.389 .0306774
784.099 .0306620
784.808 .0306464
785.517 .0306306
786.226 .0306149
786.935 .0305995
787.643 .0305848
788.352 .0305706
789.060 .0305568
789.767 .0305430
790.475 .0305284
791.182 .0305126
791.889 .0304955
792.595 .0304768
793.301 .0304566
794.008 .0304356
794.713 .0304138
795.419 .0303917
796.124 .0303697
796.829 .0303475
797.534 .0303250
798.238 .0303022
798.942 .0302791
799.646 .0302559
800.350 .0302329
801.053 .0302104
801.756 .0301889
802.459 .0301689
803.162 .0301504
803.864 .0301329
804.566 .0301164
805.267 .0301002
805.969 .0300838
806.670 .0300678
807.371 .0300521
808.071 .0300375
808.772 .0300245
809.472 .0300131
810.171 .0300030
810.871 .0299944
811.570 .0299869
812.269 .0299795
812.967 .0299716
813.666 .0299627
814.364 .0299527
815.061 .0299417
815.759 .0299304
816.456 .0299191
817.153 .0299081
817.849 .0298978
818.545 .0298874
819.241 .0298773
819.937 .0298670
820.632 .0298561
821.327 .0298446
822.022 .0298329
822.717 .0298209
823.411 .0298092
824.105 .0297985
824.798 .0297891
825.491 .0297806
826.184 .0297730
826.877 .0297657
827.569 .0297583
828.261 .0297507
828.953 .0297422
829.645 .0297326
830.336 .0297229
831.027 .0297128
831.717 .0297027
832.407 .0296927
833.097 .0296830
833.787 .0296730
834.476 .0296627
835.165 .0296514
835.854 .0296390
836.542 .0296260
837.230 .0296125
837.918 .0295985
838.605 .0295848
839.292 .0295721
839.979 .0295601
840.665 .0295492
841.352 .0295394
842.037 .0295293
842.723 .0295186
843.408 .0295063
844.093 .0294922
844.777 .0294761
845.462 .0294584
846.145 .0294392
846.829 .0294193
847.512 .0293990
848.195 .0293786
848.878 .0293580
849.560 .0293374
850.242 .0293165
850.923 .0292945
851.605 .0292714
852.286 .0292473
852.966 .0292222
853.646 .0291967
854.326 .0291711
855.006 .0291460
855.685 .0291212
856.364 .0290968
857.043 .0290728
857.721 .0290493
858.399 .0290260
859.077 .0290027
859.754 .0289790
860.431 .0289557
861.107 .0289323
861.784 .0289091
862.459 .0288865
863.135 .0288652
863.810 .0288452
864.485 .0288264
865.160 .0288090
865.834 .0287929
866.508 .0287778
867.181 .0287637
867.854 .0287503
868.527 .0287376
869.199 .0287251
869.872 .0287125
870.543 .0287001
871.215 .0286874
871.886 .0286742
872.557 .0286605
873.227 .0286459
873.897 .0286306
874.567 .0286142
875.236 .0285968
875.905 .0285787
876.573 .0285605
877.242 .0285421
877.909 .0285235
878.577 .0285050
879.244 .0284868
879.911 .0284691
880.577 .0284526
881.243 .0284371
881.909 .0284226
882.575 .0284091
883.240 .0283969
883.904 .0283853
884.569 .0283749
885.232 .0283651
885.896 .0283558
886.559 .0283470
887.222 .0283390
887.885 .0283314
888.547 .0283251
889.208 .0283206
889.870 .0283178
890.531 .0283165
891.192 .0283163
891.852 .0283161
892.512 .0283159
893.171 .0283153
893.830 .0283144
894.489 .0283127
895.148 .0283111
895.806 .0283098
896.464 .0283092
897.121 .0283098
897.778 .0283115
898.434 .0283140
899.091 .0283168
899.747 .0283191
900.402 .0283205
901.057 .0283208
901.712 .0283197
902.366 .0283173
903.020 .0283139
903.674 .0283097
904.327 .0283049
904.980 .0283001
905.633 .0282958
906.285 .0282917
906.936 .0282880
907.588 .0282834
908.239 .0282780
908.889 .0282711
909.540 .0282626
910.190 .0282521
910.839 .0282398
911.488 .0282258
912.137 .0282105
912.785 .0281945
913.433 .0281779
914.081 .0281613
914.728 .0281446
915.375 .0281277
916.021 .0281104
916.668 .0280919
917.313 .0280722
917.959 .0280516
918.604 .0280302
919.248 .0280086
919.892 .0279874
920.536 .0279672
921.180 .0279480
921.823 .0279305
922.465 .0279139
923.108 .0278979
923.750 .0278819
924.391 .0278657
925.032 .0278488
925.673 .0278316
926.313 .0278137
926.953 .0277957
927.593 .0277774
928.232 .0277586
928.871 .0277388
929.510 .0277179
930.148 .0276952
930.786 .0276709
931.423 .0276447
932.060 .0276174
932.697 .0275890
933.333 .0275603
933.969 .0275316
934.604 .0275036
935.239 .0274761
935.874 .0274492
936.508 .0274228
937.142 .0273976
937.776 .0273729
938.409 .0273490
939.042 .0273259
939.674 .0273037
940.306 .0272825
940.938 .0272620
941.569 .0272423
942.200 .0272235
942.830 .0272051
943.460 .0271869
944.090 .0271686
944.720 .0271501
945.349 .0271311
945.977 .0271116
946.606 .0270914
947.233 .0270704
947.861 .0270479
948.488 .0270244
949.115 .0270004
949.741 .0269763
950.367 .0269524
950.993 .0269292
951.618 .0269073
952.243 .0268866
952.868 .0268670
953.492 .0268483
954.115 .0268303
954.739 .0268129
955.362 .0267959
955.984 .0267792
956.607 .0267632
957.229 .0267488
957.850 .0267358
958.471 .0267241
959.092 .0267133
959.713 .0267029
960.333 .0266926
960.952 .0266819
961.572 .0266703
962.191 .0266575
962.809 .0266442
963.428 .0266304
964.045 .0266164
964.663 .0266028
965.280 .0265896
965.897 .0265764
966.513 .0265634
967.129 .0265507
967.745 .0265377
968.361 .0265256
968.976 .0265146
969.590 .0265050
970.205 .0264972
970.818 .0264918
971.432 .0264889
972.045 .0264885
972.658 .0264907
973.271 .0264943
973.883 .0264983
974.495 .0265028
975.106 .0265069
975.717 .0265111
976.328 .0265152
976.938 .0265201
977.548 .0265257
978.158 .0265324
978.768 .0265396
979.377 .0265473
979.985 .0265551
980.594 .0265632
981.202 .0265701
981.809 .0265759
982.417 .0265809
983.024 .0265857
983.631 .0265905
984.237 .0265953
984.843 .0266001
985.449 .0266051
986.054 .0266098
986.659 .0266143
987.264 .0266181
987.868 .0266214
988.472 .0266242
989.076 .0266260
989.679 .0266270
990.282 .0266271
990.885 .0266261
991.487 .0266243
992.090 .0266215
992.691 .0266178
993.293 .0266132
993.894 .0266083
994.495 .0266038
995.095 .0265994
995.696 .0265952
996.296 .0265907
996.895 .0265860
997.494 .0265814
998.093 .0265765
998.692 .0265712
999.291 .0265663
999.889 .0265619
1000.487 .0265579
1001.084 .0265542
1001.681 .0265510
1002.278 .0265482
1002.875 .0265459
1003.471 .0265432
1004.067 .0265405
1004.663 .0265375
1005.258 .0265347
1005.854 .0265317
1006.449 .0265289
1007.043 .0265263
1007.638 .0265232
1008.232 .0265197
1008.826 .0265158
1009.419 .0265116
1010.012 .0265073
1010.605 .0265029
1011.198 .0264985
1011.791 .0264938
1012.383 .0264888
1012.975 .0264828
1013.566 .0264757
1014.158 .0264673
1014.749 .0264574
1015.340 .0264463
1015.931 .0264344
1016.521 .0264219
1017.111 .0264100
1017.701 .0263990
1018.291 .0263891
1018.880 .0263801
1019.470 .0263717
1020.059 .0263633
1020.647 .0263544
1021.236 .0263447
1021.824 .0263340
1022.412 .0263223
1023.000 .0263101
1023.588 .0262977
1024.175 .0262854
1024.762 .0262742
1025.349 .0262639
1025.936 .0262548
1026.523 .0262465
1027.109 .0262386
1027.695 .0262308
1028.281 .0262224
1028.867 .0262125
1029.452 .0262015
1030.038 .0261889
1030.623 .0261758
1031.208 .0261622
1031.792 .0261491
1032.377 .0261366
1032.961 .0261253
1033.546 .0261144
1034.130 .0261032
1034.714 .0260909
1035.297 .0260772
1035.881 .0260610
1036.464 .0260435
1037.047 .0260241
1037.630 .0260039
1038.213 .0259837
1038.796 .0259656
1039.378 .0259494
1039.961 .0259353
1040.543 .0259229
1041.125 .0259121
1041.707 .0259025
1042.289 .0258929
1042.871 .0258830
1043.452 .0258734
1044.034 .0258647
1044.615 .0258563
1045.196 .0258489
1045.777 .0258431
1046.358 .0258392
1046.939 .0258373
1047.520 .0258361
1048.101 .0258352
1048.681 .0258342
1049.262 .0258321
1049.842 .0258287
1050.422 .0258233
1051.002 .0258169
1051.582 .0258087
1052.162 .0258002
1052.742 .0257922
1053.322 .0257851
1053.902 .0257795
1054.482 .0257764
1055.061 .0257755
1055.641 .0257766
1056.220 .0257788
1056.800 .0257810
1057.379 .0257827
1057.958 .0257834
1058.538 .0257820
1059.117 .0257785
1059.696 .0257743
1060.275 .0257701
1060.854 .0257649
1061.433 .0257595
1062.012 .0257545
1062.592 .0257501
1063.171 .0257460
1063.750 .0257418
1064.329 .0257370
1064.908 .0257311
1065.487 .0257234
1066.066 .0257137
1066.645 .0257023
1067.224 .0256891
1067.803 .0256749
1068.382 .0256601
1068.961 .0256456
1069.540 .0256310
1070.119 .0256166
1070.698 .0256035
1071.278 .0255911
1071.857 .0255792
1072.436 .0255666
1073.016 .0255546
1073.595 .0255444
1074.175 .0255357
1074.754 .0255294
1075.334 .0255258
1075.913 .0255259
1076.493 .0255288
1077.073 .0255347
1077.653 .0255425
1078.233 .0255519
1078.813 .0255626
1079.393 .0255741
1079.974 .0255870
1080.554 .0256004
1081.135 .0256147
1081.716 .0256294
1082.296 .0256447
1082.877 .0256583
1083.458 .0256688
1084.040 .0256764
1084.621 .0256793
1085.202 .0256792
1085.784 .0256756
1086.366 .0256699
1086.948 .0256648
1087.530 .0256616
1088.112 .0256625
1088.695 .0256671
1089.277 .0256749
1089.860 .0256860
1090.443 .0256994
1091.026 .0257151
1091.610 .0257312
1092.193 .0257472
1092.777 .0257640
1093.361 .0257804
1093.946 .0257971
1094.530 .0258138
1095.115 .0258301
1095.700 .0258472
1096.285 .0258632
1096.871 .0258777
1097.456 .0258911
1098.042 .0259016
1098.628 .0259103
1099.215 .0259169
1099.802 .0259218
1100.389 .0259247
1100.976 .0259275
1101.564 .0259304
1102.152 .0259342
1102.740 .0259397
1103.329 .0259488
1103.917 .0259602
1104.507 .0259757
1105.096 .0259936
1105.686 .0260129
1106.276 .0260332
1106.867 .0260530
1107.457 .0260713
1108.049 .0260883
1108.640 .0261027
1109.232 .0261158
1109.825 .0261287
1110.417 .0261430
1111.010 .0261571
1111.604 .0261732
1112.198 .0261909
1112.792 .0262092
1113.387 .0262277
1113.982 .0262455
1114.577 .0262635
1115.173 .0262820
1115.769 .0262973
1116.366 .0263128
1116.963 .0263279
1117.561 .0263424
1118.159 .0263558
1118.758 .0263681
1119.357 .0263799
1119.957 .0263910
1120.557 .0264037
1121.157 .0264176
1121.758 .0264328
1122.360 .0264509
1122.962 .0264691
1123.564 .0264898
1124.167 .0265118
1124.771 .0265330
1125.375 .0265535
1125.980 .0265757
1126.585 .0265974
1127.191 .0266203
1127.797 .0266479
1128.404 .0266797
1129.012 .0267181
1129.620 .0267592
1130.229 .0268011
1130.838 .0268398
1131.448 .0268744
1132.058 .0269043
1132.669 .0269290
1133.281 .0269487
1133.894 .0269629
1134.507 .0269747
1135.120 .0269861
1135.735 .0269981
1136.350 .0270138
1136.965 .0270318
1137.582 .0270538
1138.199 .0270766
1138.816 .0271011
1139.435 .0271253
1140.054 .0271514
1140.674 .0271791
1141.294 .0271986
1141.916 .0272224
1142.538 .0272347
1143.160 .0272434
1143.784 .0273401
1144.408 .0271626
1145.033 .0274265
