Measurement Sequence started on: 14-45-04-498
Integration time: 36
Scans to Average: 2 
>>>>>Begin Spectral Data<<<<<
433.946 .0387404
434.870 .0467380
435.793 .0411090
436.715 .0411261
437.635 .0406302
438.555 .0408119
439.473 .0406188
440.389 .0402569
441.305 .0401027
442.219 .0399469
443.132 .0397965
444.044 .0396539
444.954 .0395022
445.863 .0393769
446.771 .0392621
447.678 .0391532
448.584 .0390656
449.488 .0389919
450.391 .0389234
451.293 .0388473
452.194 .0387722
453.094 .0386958
453.992 .0386079
454.890 .0385188
455.786 .0384200
456.681 .0383162
457.575 .0382203
458.468 .0381306
459.360 .0380500
460.250 .0379829
461.140 .0379242
462.028 .0378751
462.915 .0378328
463.801 .0377887
464.687 .0377351
465.571 .0376775
466.454 .0376144
467.335 .0375405
468.216 .0374646
469.096 .0373942
469.975 .0373283
470.853 .0372726
471.729 .0372240
472.605 .0371791
473.479 .0371380
474.353 .0370974
475.226 .0370511
476.097 .0370015
476.968 .0369477
477.838 .0368881
478.706 .0368283
479.574 .0367761
480.441 .0367303
481.306 .0366914
482.171 .0366609
483.035 .0366348
483.898 .0366091
484.760 .0365850
485.621 .0365586
486.481 .0365302
487.340 .0365015
488.198 .0364745
489.055 .0364475
489.912 .0364263
490.767 .0364105
491.622 .0363977
492.476 .0363879
493.329 .0363768
494.180 .0363598
495.032 .0363370
495.882 .0363122
496.731 .0362824
497.580 .0362474
498.427 .0362127
499.274 .0361721
500.120 .0361294
500.965 .0360838
501.809 .0360322
502.653 .0359726
503.495 .0359072
504.337 .0358343
505.178 .0357528
506.018 .0356701
506.858 .0355843
507.696 .0355001
508.534 .0354209
509.371 .0353471
510.208 .0352769
511.043 .0352167
511.878 .0351674
512.712 .0351231
513.545 .0350851
514.377 .0350548
515.209 .0350307
516.040 .0350189
516.870 .0350191
517.699 .0350272
518.528 .0350462
519.356 .0350771
520.183 .0351081
521.010 .0351379
521.836 .0351624
522.661 .0351741
523.485 .0351637
524.309 .0351291
525.132 .0350679
525.954 .0349823
526.776 .0348819
527.597 .0347691
528.417 .0346484
529.237 .0345314
530.056 .0344135
530.874 .0342947
531.692 .0341817
532.508 .0340688
533.325 .0339578
534.140 .0338428
534.955 .0337289
535.770 .0336203
536.583 .0335187
537.397 .0334362
538.209 .0333755
539.021 .0333395
539.832 .0333315
540.643 .0333410
541.453 .0333695
542.262 .0334065
543.071 .0334472
543.879 .0334822
544.687 .0335080
545.494 .0335251
546.300 .0335335
547.106 .0335338
547.911 .0335373
548.716 .0335417
549.520 .0335481
550.323 .0335585
551.126 .0335679
551.929 .0335735
552.731 .0335719
553.532 .0335570
554.332 .0335297
555.133 .0334928
555.932 .0334486
556.731 .0333964
557.530 .0333421
558.328 .0332916
559.125 .0332419
559.922 .0331957
560.719 .0331525
561.515 .0331114
562.310 .0330738
563.105 .0330378
563.899 .0330014
564.693 .0329694
565.487 .0329410
566.280 .0329156
567.072 .0328933
567.864 .0328744
568.655 .0328558
569.446 .0328376
570.236 .0328180
571.026 .0327961
571.816 .0327707
572.605 .0327431
573.393 .0327135
574.181 .0326840
574.969 .0326541
575.756 .0326241
576.543 .0325950
577.329 .0325652
578.115 .0325307
578.900 .0324915
579.685 .0324479
580.469 .0324017
581.253 .0323542
582.036 .0323071
582.820 .0322624
583.602 .0322226
584.384 .0321887
585.166 .0321591
585.947 .0321331
586.728 .0321104
587.509 .0320870
588.289 .0320644
589.069 .0320409
589.848 .0320180
590.627 .0319962
591.405 .0319758
592.183 .0319574
592.961 .0319400
593.738 .0319238
594.515 .0319086
595.291 .0318934
596.067 .0318784
596.843 .0318625
597.618 .0318455
598.393 .0318272
599.167 .0318080
599.941 .0317881
600.715 .0317679
601.488 .0317470
602.261 .0317263
603.034 .0317060
603.806 .0316858
604.578 .0316666
605.349 .0316478
606.121 .0316305
606.891 .0316138
607.662 .0315971
608.432 .0315805
609.201 .0315639
609.971 .0315478
610.740 .0315317
611.508 .0315160
612.277 .0315012
613.045 .0314867
613.812 .0314733
614.579 .0314602
615.346 .0314475
616.113 .0314349
616.879 .0314226
617.645 .0314107
618.411 .0313993
619.176 .0313887
619.941 .0313791
620.705 .0313700
621.470 .0313616
622.233 .0313531
622.997 .0313437
623.760 .0313331
624.523 .0313209
625.286 .0313064
626.048 .0312903
626.810 .0312725
627.572 .0312533
628.333 .0312328
629.095 .0312112
629.855 .0311883
630.616 .0311649
631.376 .0311414
632.136 .0311178
632.895 .0310943
633.655 .0310717
634.414 .0310496
635.172 .0310284
635.931 .0310083
636.689 .0309894
637.447 .0309717
638.204 .0309553
638.962 .0309392
639.718 .0309239
640.475 .0309090
641.231 .0308942
641.988 .0308783
642.743 .0308615
643.499 .0308426
644.254 .0308214
645.009 .0307981
645.764 .0307732
646.518 .0307480
647.272 .0307236
648.026 .0307006
648.780 .0306791
649.533 .0306599
650.286 .0306433
651.039 .0306281
651.792 .0306138
652.544 .0306005
653.296 .0305873
654.048 .0305748
654.799 .0305638
655.550 .0305542
656.301 .0305465
657.052 .0305410
657.802 .0305369
658.552 .0305338
659.302 .0305302
660.052 .0305255
660.801 .0305186
661.550 .0305101
662.299 .0304997
663.048 .0304872
663.796 .0304739
664.544 .0304611
665.292 .0304482
666.040 .0304359
666.787 .0304243
667.534 .0304133
668.281 .0304023
669.028 .0303912
669.774 .0303794
670.521 .0303671
671.266 .0303550
672.012 .0303437
672.758 .0303327
673.503 .0303228
674.248 .0303137
674.992 .0303046
675.737 .0302959
676.481 .0302868
677.225 .0302761
677.969 .0302644
678.712 .0302517
679.455 .0302380
680.199 .0302239
680.941 .0302105
681.684 .0301977
682.426 .0301856
683.168 .0301736
683.910 .0301616
684.652 .0301486
685.393 .0301350
686.134 .0301205
686.875 .0301049
687.616 .0300894
688.356 .0300738
689.097 .0300589
689.837 .0300452
690.576 .0300329
691.316 .0300216
692.055 .0300106
692.794 .0299995
693.533 .0299876
694.272 .0299749
695.010 .0299616
695.748 .0299478
696.486 .0299341
697.224 .0299214
697.962 .0299095
698.699 .0298988
699.436 .0298897
700.173 .0298816
700.909 .0298741
701.646 .0298666
702.382 .0298587
703.118 .0298499
703.853 .0298404
704.589 .0298303
705.324 .0298198
706.059 .0298097
706.794 .0297994
707.529 .0297894
708.263 .0297800
708.997 .0297709
709.731 .0297612
710.465 .0297510
711.198 .0297401
711.931 .0297277
712.664 .0297143
713.397 .0296999
714.130 .0296849
714.862 .0296700
715.594 .0296556
716.326 .0296419
717.058 .0296293
717.789 .0296176
718.520 .0296058
719.251 .0295942
719.982 .0295820
720.713 .0295694
721.443 .0295558
722.173 .0295418
722.903 .0295278
723.633 .0295141
724.362 .0295012
725.091 .0294889
725.820 .0294773
726.549 .0294663
727.278 .0294549
728.006 .0294431
728.734 .0294301
729.462 .0294164
730.190 .0294017
730.917 .0293866
731.644 .0293717
732.371 .0293574
733.098 .0293439
733.825 .0293316
734.551 .0293197
735.277 .0293080
736.003 .0292964
736.728 .0292846
737.454 .0292728
738.179 .0292611
738.904 .0292501
739.629 .0292403
740.353 .0292317
741.077 .0292247
741.801 .0292188
742.525 .0292136
743.249 .0292086
743.972 .0292033
744.695 .0291977
745.418 .0291914
746.141 .0291845
746.863 .0291773
747.585 .0291704
748.307 .0291635
749.029 .0291561
749.750 .0291481
750.472 .0291396
751.193 .0291297
751.913 .0291177
752.634 .0291042
753.354 .0290889
754.074 .0290726
754.794 .0290553
755.514 .0290379
756.233 .0290207
756.952 .0290039
757.671 .0289877
758.390 .0289717
759.108 .0289563
759.826 .0289411
760.544 .0289261
761.262 .0289119
761.979 .0288984
762.697 .0288856
763.414 .0288735
764.130 .0288630
764.847 .0288535
765.563 .0288453
766.279 .0288384
766.995 .0288328
767.710 .0288280
768.426 .0288234
769.141 .0288188
769.855 .0288135
770.570 .0288073
771.284 .0287995
771.998 .0287901
772.712 .0287799
773.426 .0287691
774.139 .0287583
774.852 .0287479
775.565 .0287384
776.277 .0287295
776.990 .0287209
777.702 .0287124
778.414 .0287036
779.125 .0286945
779.836 .0286853
780.547 .0286761
781.258 .0286671
781.969 .0286587
782.679 .0286513
783.389 .0286448
784.099 .0286392
784.808 .0286341
785.517 .0286291
786.226 .0286240
786.935 .0286186
787.643 .0286128
788.352 .0286071
789.060 .0286013
789.767 .0285953
790.475 .0285891
791.182 .0285822
791.889 .0285750
792.595 .0285674
793.301 .0285594
794.008 .0285512
794.713 .0285432
795.419 .0285357
796.124 .0285283
796.829 .0285214
797.534 .0285146
798.238 .0285076
798.942 .0285001
799.646 .0284920
800.350 .0284833
801.053 .0284747
801.756 .0284664
802.459 .0284583
803.162 .0284508
803.864 .0284439
804.566 .0284375
805.267 .0284316
805.969 .0284258
806.670 .0284200
807.371 .0284141
808.071 .0284088
808.772 .0284033
809.472 .0283978
810.171 .0283923
810.871 .0283867
811.570 .0283808
812.269 .0283744
812.967 .0283669
813.666 .0283588
814.364 .0283500
815.061 .0283404
815.759 .0283298
816.456 .0283187
817.153 .0283066
817.849 .0282939
818.545 .0282801
819.241 .0282650
819.937 .0282487
820.632 .0282316
821.327 .0282136
822.022 .0281951
822.717 .0281763
823.411 .0281574
824.105 .0281386
824.798 .0281203
825.491 .0281018
826.184 .0280832
826.877 .0280653
827.569 .0280477
828.261 .0280304
828.953 .0280138
829.645 .0279979
830.336 .0279828
831.027 .0279688
831.717 .0279556
832.407 .0279431
833.097 .0279315
833.787 .0279205
834.476 .0279097
835.165 .0278994
835.854 .0278893
836.542 .0278796
837.230 .0278702
837.918 .0278610
838.605 .0278520
839.292 .0278434
839.979 .0278349
840.665 .0278266
841.352 .0278183
842.037 .0278099
842.723 .0278015
843.408 .0277933
844.093 .0277850
844.777 .0277769
845.462 .0277689
846.145 .0277606
846.829 .0277521
847.512 .0277433
848.195 .0277341
848.878 .0277248
849.560 .0277151
850.242 .0277053
850.923 .0276956
851.605 .0276861
852.286 .0276767
852.966 .0276672
853.646 .0276576
854.326 .0276481
855.006 .0276380
855.685 .0276274
856.364 .0276163
857.043 .0276049
857.721 .0275936
858.399 .0275821
859.077 .0275708
859.754 .0275596
860.431 .0275484
861.107 .0275372
861.784 .0275255
862.459 .0275133
863.135 .0275006
863.810 .0274875
864.485 .0274741
865.160 .0274611
865.834 .0274484
866.508 .0274367
867.181 .0274263
867.854 .0274171
868.527 .0274087
869.199 .0274007
869.872 .0273932
870.543 .0273857
871.215 .0273781
871.886 .0273706
872.557 .0273636
873.227 .0273577
873.897 .0273526
874.567 .0273485
875.236 .0273455
875.905 .0273434
876.573 .0273416
877.242 .0273390
877.909 .0273350
878.577 .0273297
879.244 .0273225
879.911 .0273133
880.577 .0273032
881.243 .0272925
881.909 .0272813
882.575 .0272706
883.240 .0272601
883.904 .0272499
884.569 .0272398
885.232 .0272292
885.896 .0272175
886.559 .0272051
887.222 .0271916
887.885 .0271777
888.547 .0271642
889.208 .0271517
889.870 .0271405
890.531 .0271316
891.192 .0271247
891.852 .0271197
892.512 .0271159
893.171 .0271129
893.830 .0271099
894.489 .0271067
895.148 .0271026
895.806 .0270973
896.464 .0270918
897.121 .0270856
897.778 .0270791
898.434 .0270730
899.091 .0270669
899.747 .0270607
900.402 .0270545
901.057 .0270476
901.712 .0270394
902.366 .0270303
903.020 .0270203
903.674 .0270093
904.327 .0269977
904.980 .0269863
905.633 .0269753
906.285 .0269657
906.936 .0269576
907.588 .0269503
908.239 .0269443
908.889 .0269390
909.540 .0269328
910.190 .0269258
910.839 .0269178
911.488 .0269085
912.137 .0268977
912.785 .0268857
913.433 .0268731
914.081 .0268598
914.728 .0268462
915.375 .0268323
916.021 .0268174
916.668 .0268020
917.313 .0267851
917.959 .0267672
918.604 .0267487
919.248 .0267296
919.892 .0267102
920.536 .0266912
921.180 .0266728
921.823 .0266550
922.465 .0266373
923.108 .0266201
923.750 .0266028
924.391 .0265851
925.032 .0265669
925.673 .0265480
926.313 .0265289
926.953 .0265097
927.593 .0264902
928.232 .0264705
928.871 .0264502
929.510 .0264296
930.148 .0264080
930.786 .0263858
931.423 .0263631
932.060 .0263402
932.697 .0263172
933.333 .0262944
933.969 .0262718
934.604 .0262497
935.239 .0262280
935.874 .0262066
936.508 .0261861
937.142 .0261659
937.776 .0261467
938.409 .0261283
939.042 .0261108
939.674 .0260940
940.306 .0260774
940.938 .0260612
941.569 .0260452
942.200 .0260293
942.830 .0260133
943.460 .0259973
944.090 .0259821
944.720 .0259675
945.349 .0259538
945.977 .0259412
946.606 .0259297
947.233 .0259188
947.861 .0259084
948.488 .0258974
949.115 .0258858
949.741 .0258737
950.367 .0258611
950.993 .0258485
951.618 .0258361
952.243 .0258242
952.868 .0258132
953.492 .0258036
954.115 .0257952
954.739 .0257870
955.362 .0257795
955.984 .0257722
956.607 .0257645
957.229 .0257568
957.850 .0257485
958.471 .0257398
959.092 .0257311
959.713 .0257220
960.333 .0257123
960.952 .0257028
961.572 .0256937
962.191 .0256855
962.809 .0256786
963.428 .0256725
964.045 .0256669
964.663 .0256619
965.280 .0256574
965.897 .0256525
966.513 .0256472
967.129 .0256417
967.745 .0256360
968.361 .0256310
968.976 .0256268
969.590 .0256241
970.205 .0256235
970.818 .0256250
971.432 .0256283
972.045 .0256326
972.658 .0256373
973.271 .0256417
973.883 .0256451
974.495 .0256471
975.106 .0256476
975.717 .0256464
976.328 .0256446
976.938 .0256426
977.548 .0256406
978.158 .0256391
978.768 .0256374
979.377 .0256356
979.985 .0256328
980.594 .0256285
981.202 .0256229
981.809 .0256158
982.417 .0256080
983.024 .0256004
983.631 .0255934
984.237 .0255877
984.843 .0255834
985.449 .0255803
986.054 .0255776
986.659 .0255746
987.264 .0255710
987.868 .0255667
988.472 .0255622
989.076 .0255578
989.679 .0255539
990.282 .0255515
990.885 .0255502
991.487 .0255495
992.090 .0255491
992.691 .0255485
993.293 .0255471
993.894 .0255440
994.495 .0255396
995.095 .0255349
995.696 .0255303
996.296 .0255263
996.895 .0255237
997.494 .0255225
998.093 .0255223
998.692 .0255227
999.291 .0255227
999.889 .0255218
1000.487 .0255194
1001.084 .0255150
1001.681 .0255087
1002.278 .0255014
1002.875 .0254934
1003.471 .0254844
1004.067 .0254756
1004.663 .0254672
1005.258 .0254581
1005.854 .0254488
1006.449 .0254393
1007.043 .0254288
1007.638 .0254174
1008.232 .0254055
1008.826 .0253929
1009.419 .0253807
1010.012 .0253692
1010.605 .0253584
1011.198 .0253489
1011.791 .0253408
1012.383 .0253333
1012.975 .0253259
1013.566 .0253189
1014.158 .0253114
1014.749 .0253031
1015.340 .0252950
1015.931 .0252871
1016.521 .0252805
1017.111 .0252754
1017.701 .0252722
1018.291 .0252707
1018.880 .0252707
1019.470 .0252717
1020.059 .0252728
1020.647 .0252737
1021.236 .0252740
1021.824 .0252738
1022.412 .0252739
1023.000 .0252743
1023.588 .0252755
1024.175 .0252778
1024.762 .0252810
1025.349 .0252839
1025.936 .0252864
1026.523 .0252871
1027.109 .0252859
1027.695 .0252825
1028.281 .0252767
1028.867 .0252691
1029.452 .0252608
1030.038 .0252521
1030.623 .0252434
1031.208 .0252353
1031.792 .0252283
1032.377 .0252212
1032.961 .0252146
1033.546 .0252081
1034.130 .0252019
1034.714 .0251954
1035.297 .0251895
1035.881 .0251835
1036.464 .0251784
1037.047 .0251743
1037.630 .0251713
1038.213 .0251693
1038.796 .0251688
1039.378 .0251689
1039.961 .0251697
1040.543 .0251711
1041.125 .0251728
1041.707 .0251735
1042.289 .0251743
1042.871 .0251746
1043.452 .0251739
1044.034 .0251723
1044.615 .0251700
1045.196 .0251667
1045.777 .0251624
1046.358 .0251570
1046.939 .0251509
1047.520 .0251438
1048.101 .0251365
1048.681 .0251281
1049.262 .0251195
1049.842 .0251112
1050.422 .0251027
1051.002 .0250948
1051.582 .0250876
1052.162 .0250814
1052.742 .0250754
1053.322 .0250706
1053.902 .0250665
1054.482 .0250629
1055.061 .0250603
1055.641 .0250589
1056.220 .0250584
1056.800 .0250594
1057.379 .0250603
1057.958 .0250615
1058.538 .0250626
1059.117 .0250627
1059.696 .0250616
1060.275 .0250597
1060.854 .0250565
1061.433 .0250532
1062.012 .0250495
1062.592 .0250460
1063.171 .0250425
1063.750 .0250398
1064.329 .0250374
1064.908 .0250349
1065.487 .0250316
1066.066 .0250272
1066.645 .0250215
1067.224 .0250162
1067.803 .0250102
1068.382 .0250045
1068.961 .0249998
1069.540 .0249963
1070.119 .0249948
1070.698 .0249954
1071.278 .0249967
1071.857 .0249983
1072.436 .0249998
1073.016 .0250000
1073.595 .0249979
1074.175 .0249952
1074.754 .0249916
1075.334 .0249887
1075.913 .0249862
1076.493 .0249842
1077.073 .0249833
1077.653 .0249851
1078.233 .0249883
1078.813 .0249919
1079.393 .0249960
1079.974 .0250000
1080.554 .0250021
1081.135 .0250045
1081.716 .0250069
1082.296 .0250094
1082.877 .0250136
1083.458 .0250194
1084.040 .0250255
1084.621 .0250329
1085.202 .0250412
1085.784 .0250497
1086.366 .0250572
1086.948 .0250644
1087.530 .0250696
1088.112 .0250740
1088.695 .0250790
1089.277 .0250848
1089.860 .0250910
1090.443 .0251001
1091.026 .0251104
1091.610 .0251215
1092.193 .0251340
1092.777 .0251468
1093.361 .0251588
1093.946 .0251709
1094.530 .0251807
1095.115 .0251878
1095.700 .0251930
1096.285 .0251995
1096.871 .0252029
1097.456 .0252056
1098.042 .0252069
1098.628 .0252065
1099.215 .0252033
1099.802 .0251976
1100.389 .0251874
1100.976 .0251740
1101.564 .0251583
1102.152 .0251388
1102.740 .0251163
1103.329 .0250963
1103.917 .0250753
1104.507 .0250561
1105.096 .0250401
1105.686 .0250271
1106.276 .0250143
1106.867 .0250060
1107.457 .0250011
1108.049 .0249975
1108.640 .0249977
1109.232 .0250002
1109.825 .0250051
1110.417 .0250147
1111.010 .0250263
1111.604 .0250371
1112.198 .0250497
1112.792 .0250654
1113.387 .0250781
1113.982 .0250927
1114.577 .0251118
1115.173 .0251319
1115.769 .0251538
1116.366 .0251779
1116.963 .0252034
1117.561 .0252286
1118.159 .0252551
1118.758 .0252791
1119.357 .0253015
1119.957 .0253230
1120.557 .0253406
1121.157 .0253560
1121.758 .0253734
1122.360 .0253895
1122.962 .0254016
1123.564 .0254122
1124.167 .0254224
1124.771 .0254281
1125.375 .0254324
1125.980 .0254337
1126.585 .0254346
1127.191 .0254322
1127.797 .0254269
1128.404 .0254156
1129.012 .0254009
1129.620 .0253839
1130.229 .0253630
1130.838 .0253421
1131.448 .0253239
1132.058 .0253058
1132.669 .0252944
1133.281 .0252893
1133.894 .0252949
1134.507 .0253032
1135.120 .0253212
1135.735 .0253437
1136.350 .0253710
1136.965 .0254043
1137.582 .0254427
1138.199 .0254918
1138.816 .0255534
1139.435 .0256201
1140.054 .0257025
1140.674 .0257979
1141.294 .0259049
1141.916 .0260246
1142.538 .0260355
1143.160 .0263309
1143.784 .0264894
1144.408 .0264777
1145.033 .0267728
