Measurement Sequence started on: 14-45-04-498
Integration time: 36
Scans to Average: 2 
>>>>>Begin Spectral Data<<<<<
433.946 .0492139
434.870 .0425991
435.793 .0408840
436.715 .0407416
437.635 .0391236
438.555 .0393865
439.473 .0386969
440.389 .0383468
441.305 .0381298
442.219 .0379739
443.132 .0378993
444.044 .0378673
444.954 .0378421
445.863 .0378149
446.771 .0378090
447.678 .0378198
448.584 .0378435
449.488 .0378598
450.391 .0378747
451.293 .0378821
452.194 .0378784
453.094 .0378514
453.992 .0378056
454.890 .0377436
455.786 .0376700
456.681 .0375921
457.575 .0375130
458.468 .0374336
459.360 .0373595
460.250 .0372892
461.140 .0372158
462.028 .0371415
462.915 .0370657
463.801 .0369828
464.687 .0368966
465.571 .0368054
466.454 .0367102
467.335 .0366179
468.216 .0365323
469.096 .0364551
469.975 .0363886
470.853 .0363303
471.729 .0362756
472.605 .0362229
473.479 .0361670
474.353 .0361031
475.226 .0360313
476.097 .0359541
476.968 .0358750
477.838 .0357984
478.706 .0357300
479.574 .0356727
480.441 .0356302
481.306 .0355971
482.171 .0355667
483.035 .0355371
483.898 .0355044
484.760 .0354647
485.621 .0354199
486.481 .0353726
487.340 .0353281
488.198 .0352917
489.055 .0352643
489.912 .0352473
490.767 .0352391
491.622 .0352334
492.476 .0352237
493.329 .0352085
494.180 .0351848
495.032 .0351491
495.882 .0351073
496.731 .0350644
497.580 .0350246
498.427 .0349890
499.274 .0349579
500.120 .0349322
500.965 .0349080
501.809 .0348799
502.653 .0348441
503.495 .0348039
504.337 .0347580
505.178 .0347078
506.018 .0346585
506.858 .0346138
507.696 .0345746
508.534 .0345416
509.371 .0345131
510.208 .0344899
511.043 .0344670
511.878 .0344404
512.712 .0344075
513.545 .0343735
514.377 .0343374
515.209 .0343006
516.040 .0342680
516.870 .0342398
517.699 .0342112
518.528 .0341838
519.356 .0341550
520.183 .0341240
521.010 .0340876
521.836 .0340503
522.661 .0340051
523.485 .0339543
524.309 .0338964
525.132 .0338319
525.954 .0337609
526.776 .0336880
527.597 .0336100
528.417 .0335290
529.237 .0334502
530.056 .0333769
530.874 .0333060
531.692 .0332425
532.508 .0331824
533.325 .0331254
534.140 .0330707
534.955 .0330172
535.770 .0329604
536.583 .0329057
537.397 .0328562
538.209 .0328094
539.021 .0327645
539.832 .0327216
540.643 .0326801
541.453 .0326383
542.262 .0325934
543.071 .0325441
543.879 .0324900
544.687 .0324351
545.494 .0323786
546.300 .0323244
547.106 .0322739
547.911 .0322289
548.716 .0321930
549.520 .0321631
550.323 .0321423
551.126 .0321318
551.929 .0321303
552.731 .0321413
553.532 .0321596
554.332 .0321812
555.133 .0322034
555.932 .0322245
556.731 .0322374
557.530 .0322423
558.328 .0322415
559.125 .0322372
559.922 .0322309
560.719 .0322272
561.515 .0322245
562.310 .0322228
563.105 .0322226
563.899 .0322178
564.693 .0322036
565.487 .0321829
566.280 .0321514
567.072 .0321133
567.864 .0320688
568.655 .0320225
569.446 .0319760
570.236 .0319324
571.026 .0318902
571.816 .0318477
572.605 .0318052
573.393 .0317623
574.181 .0317169
574.969 .0316696
575.756 .0316197
576.543 .0315695
577.329 .0315204
578.115 .0314742
578.900 .0314308
579.685 .0313934
580.469 .0313603
581.253 .0313312
582.036 .0313056
582.820 .0312823
583.602 .0312603
584.384 .0312394
585.166 .0312193
585.947 .0311992
586.728 .0311790
587.509 .0311584
588.289 .0311376
589.069 .0311180
589.848 .0310992
590.627 .0310790
591.405 .0310579
592.183 .0310350
592.961 .0310103
593.738 .0309836
594.515 .0309562
595.291 .0309285
596.067 .0309034
596.843 .0308804
597.618 .0308599
598.393 .0308425
599.167 .0308284
599.941 .0308148
600.715 .0308020
601.488 .0307883
602.261 .0307731
603.034 .0307559
603.806 .0307381
604.578 .0307191
605.349 .0307006
606.121 .0306835
606.891 .0306682
607.662 .0306539
608.432 .0306414
609.201 .0306287
609.971 .0306153
610.740 .0306006
611.508 .0305846
612.277 .0305665
613.045 .0305481
613.812 .0305294
614.579 .0305113
615.346 .0304940
616.113 .0304789
616.879 .0304647
617.645 .0304519
618.411 .0304396
619.176 .0304276
619.941 .0304154
620.705 .0304034
621.470 .0303908
622.233 .0303779
622.997 .0303646
623.760 .0303509
624.523 .0303357
625.286 .0303191
626.048 .0303007
626.810 .0302798
627.572 .0302564
628.333 .0302315
629.095 .0302050
629.855 .0301783
630.616 .0301516
631.376 .0301258
632.136 .0301008
632.895 .0300767
633.655 .0300535
634.414 .0300308
635.172 .0300085
635.931 .0299870
636.689 .0299656
637.447 .0299456
638.204 .0299269
638.962 .0299094
639.718 .0298941
640.475 .0298808
641.231 .0298685
641.988 .0298567
642.743 .0298446
643.499 .0298318
644.254 .0298176
645.009 .0298022
645.764 .0297855
646.518 .0297678
647.272 .0297496
648.026 .0297309
648.780 .0297123
649.533 .0296943
650.286 .0296762
651.039 .0296587
651.792 .0296416
652.544 .0296252
653.296 .0296092
654.048 .0295937
654.799 .0295792
655.550 .0295654
656.301 .0295525
657.052 .0295401
657.802 .0295281
658.552 .0295167
659.302 .0295057
660.052 .0294947
660.801 .0294836
661.550 .0294721
662.299 .0294606
663.048 .0294484
663.796 .0294358
664.544 .0294223
665.292 .0294077
666.040 .0293922
666.787 .0293762
667.534 .0293591
668.281 .0293419
669.028 .0293247
669.774 .0293084
670.521 .0292927
671.266 .0292781
672.012 .0292646
672.758 .0292523
673.503 .0292414
674.248 .0292314
674.992 .0292216
675.737 .0292129
676.481 .0292042
677.225 .0291959
677.969 .0291873
678.712 .0291788
679.455 .0291701
680.199 .0291615
680.941 .0291526
681.684 .0291438
682.426 .0291344
683.168 .0291250
683.910 .0291145
684.652 .0291033
685.393 .0290911
686.134 .0290780
686.875 .0290640
687.616 .0290497
688.356 .0290351
689.097 .0290210
689.837 .0290073
690.576 .0289949
691.316 .0289835
692.055 .0289736
692.794 .0289642
693.533 .0289559
694.272 .0289479
695.010 .0289402
695.748 .0289319
696.486 .0289235
697.224 .0289146
697.962 .0289053
698.699 .0288954
699.436 .0288855
700.173 .0288754
700.909 .0288651
701.646 .0288545
702.382 .0288438
703.118 .0288328
703.853 .0288216
704.589 .0288097
705.324 .0287978
706.059 .0287853
706.794 .0287724
707.529 .0287592
708.263 .0287461
708.997 .0287332
709.731 .0287201
710.465 .0287074
711.198 .0286950
711.931 .0286827
712.664 .0286706
713.397 .0286584
714.130 .0286465
714.862 .0286343
715.594 .0286218
716.326 .0286089
717.058 .0285953
717.789 .0285814
718.520 .0285663
719.251 .0285507
719.982 .0285346
720.713 .0285179
721.443 .0285014
722.173 .0284850
722.903 .0284689
723.633 .0284531
724.362 .0284371
725.091 .0284208
725.820 .0284043
726.549 .0283874
727.278 .0283700
728.006 .0283528
728.734 .0283359
729.462 .0283199
730.190 .0283050
730.917 .0282920
731.644 .0282803
732.371 .0282701
733.098 .0282609
733.825 .0282522
734.551 .0282442
735.277 .0282363
736.003 .0282285
736.728 .0282213
737.454 .0282152
738.179 .0282101
738.904 .0282057
739.629 .0282025
740.353 .0282001
741.077 .0281983
741.801 .0281967
742.525 .0281952
743.249 .0281935
743.972 .0281916
744.695 .0281895
745.418 .0281871
746.141 .0281842
746.863 .0281812
747.585 .0281777
748.307 .0281736
749.029 .0281691
749.750 .0281644
750.472 .0281596
751.193 .0281550
751.913 .0281503
752.634 .0281449
753.354 .0281394
754.074 .0281337
754.794 .0281268
755.514 .0281189
756.233 .0281103
756.952 .0281007
757.671 .0280905
758.390 .0280801
759.108 .0280692
759.826 .0280583
760.544 .0280477
761.262 .0280366
761.979 .0280250
762.697 .0280128
763.414 .0280002
764.130 .0279873
764.847 .0279745
765.563 .0279615
766.279 .0279486
766.995 .0279364
767.710 .0279246
768.426 .0279127
769.141 .0279008
769.855 .0278888
770.570 .0278766
771.284 .0278638
771.998 .0278510
772.712 .0278385
773.426 .0278267
774.139 .0278152
774.852 .0278038
775.565 .0277923
776.277 .0277806
776.990 .0277682
777.702 .0277551
778.414 .0277416
779.125 .0277277
779.836 .0277140
780.547 .0277008
781.258 .0276887
781.969 .0276776
782.679 .0276675
783.389 .0276585
784.099 .0276505
784.808 .0276428
785.517 .0276354
786.226 .0276281
786.935 .0276212
787.643 .0276148
788.352 .0276087
789.060 .0276031
789.767 .0275981
790.475 .0275931
791.182 .0275883
791.889 .0275834
792.595 .0275784
793.301 .0275729
794.008 .0275669
794.713 .0275606
795.419 .0275542
796.124 .0275476
796.829 .0275411
797.534 .0275345
798.238 .0275282
798.942 .0275217
799.646 .0275155
800.350 .0275097
801.053 .0275045
801.756 .0275001
802.459 .0274962
803.162 .0274929
803.864 .0274905
804.566 .0274885
805.267 .0274870
805.969 .0274854
806.670 .0274839
807.371 .0274825
808.071 .0274809
808.772 .0274791
809.472 .0274773
810.171 .0274750
810.871 .0274726
811.570 .0274696
812.269 .0274658
812.967 .0274611
813.666 .0274555
814.364 .0274494
815.061 .0274427
815.759 .0274355
816.456 .0274283
817.153 .0274204
817.849 .0274126
818.545 .0274042
819.241 .0273952
819.937 .0273858
820.632 .0273760
821.327 .0273652
822.022 .0273538
822.717 .0273423
823.411 .0273306
824.105 .0273189
824.798 .0273076
825.491 .0272960
826.184 .0272842
826.877 .0272724
827.569 .0272602
828.261 .0272474
828.953 .0272340
829.645 .0272197
830.336 .0272046
831.027 .0271886
831.717 .0271721
832.407 .0271557
833.097 .0271398
833.787 .0271243
834.476 .0271093
835.165 .0270948
835.854 .0270808
836.542 .0270673
837.230 .0270536
837.918 .0270397
838.605 .0270254
839.292 .0270110
839.979 .0269965
840.665 .0269825
841.352 .0269693
842.037 .0269566
842.723 .0269446
843.408 .0269328
844.093 .0269209
844.777 .0269088
845.462 .0268962
846.145 .0268830
846.829 .0268689
847.512 .0268544
848.195 .0268394
848.878 .0268247
849.560 .0268104
850.242 .0267962
850.923 .0267821
851.605 .0267680
852.286 .0267540
852.966 .0267398
853.646 .0267256
854.326 .0267115
855.006 .0266972
855.685 .0266827
856.364 .0266681
857.043 .0266535
857.721 .0266392
858.399 .0266254
859.077 .0266121
859.754 .0265998
860.431 .0265884
861.107 .0265781
861.784 .0265683
862.459 .0265592
863.135 .0265502
863.810 .0265410
864.485 .0265318
865.160 .0265233
865.834 .0265155
866.508 .0265090
867.181 .0265039
867.854 .0265007
868.527 .0264990
869.199 .0264988
869.872 .0264993
870.543 .0265004
871.215 .0265014
871.886 .0265024
872.557 .0265027
873.227 .0265027
873.897 .0265022
874.567 .0265015
875.236 .0265007
875.905 .0264997
876.573 .0264984
877.242 .0264965
877.909 .0264943
878.577 .0264918
879.244 .0264885
879.911 .0264848
880.577 .0264807
881.243 .0264769
881.909 .0264728
882.575 .0264686
883.240 .0264643
883.904 .0264597
884.569 .0264550
885.232 .0264497
885.896 .0264440
886.559 .0264381
887.222 .0264322
887.885 .0264262
888.547 .0264203
889.208 .0264151
889.870 .0264102
890.531 .0264056
891.192 .0264014
891.852 .0263972
892.512 .0263926
893.171 .0263875
893.830 .0263823
894.489 .0263767
895.148 .0263713
895.806 .0263658
896.464 .0263612
897.121 .0263576
897.778 .0263551
898.434 .0263529
899.091 .0263507
899.747 .0263481
900.402 .0263439
901.057 .0263382
901.712 .0263309
902.366 .0263221
903.020 .0263121
903.674 .0263012
904.327 .0262901
904.980 .0262787
905.633 .0262674
906.285 .0262561
906.936 .0262449
907.588 .0262332
908.239 .0262208
908.889 .0262075
909.540 .0261936
910.190 .0261792
910.839 .0261641
911.488 .0261486
912.137 .0261329
912.785 .0261167
913.433 .0261003
914.081 .0260835
914.728 .0260667
915.375 .0260497
916.021 .0260325
916.668 .0260153
917.313 .0259980
917.959 .0259803
918.604 .0259625
919.248 .0259442
919.892 .0259255
920.536 .0259061
921.180 .0258865
921.823 .0258668
922.465 .0258472
923.108 .0258278
923.750 .0258085
924.391 .0257888
925.032 .0257684
925.673 .0257471
926.313 .0257246
926.953 .0257011
927.593 .0256759
928.232 .0256497
928.871 .0256231
929.510 .0255965
930.148 .0255703
930.786 .0255447
931.423 .0255204
932.060 .0254972
932.697 .0254744
933.333 .0254523
933.969 .0254303
934.604 .0254087
935.239 .0253874
935.874 .0253668
936.508 .0253470
937.142 .0253290
937.776 .0253128
938.409 .0252986
939.042 .0252860
939.674 .0252744
940.306 .0252631
940.938 .0252516
941.569 .0252395
942.200 .0252266
942.830 .0252125
943.460 .0251981
944.090 .0251833
944.720 .0251690
945.349 .0251551
945.977 .0251423
946.606 .0251304
947.233 .0251189
947.861 .0251075
948.488 .0250957
949.115 .0250830
949.741 .0250699
950.367 .0250566
950.993 .0250436
951.618 .0250314
952.243 .0250212
952.868 .0250130
953.492 .0250072
954.115 .0250035
954.739 .0250013
955.362 .0250004
955.984 .0250000
956.607 .0249997
957.229 .0249992
957.850 .0249992
958.471 .0249988
959.092 .0249979
959.713 .0249971
960.333 .0249959
960.952 .0249947
961.572 .0249934
962.191 .0249922
962.809 .0249910
963.428 .0249903
964.045 .0249897
964.663 .0249893
965.280 .0249894
965.897 .0249899
966.513 .0249907
967.129 .0249918
967.745 .0249929
968.361 .0249942
968.976 .0249962
969.590 .0249992
970.205 .0250031
970.818 .0250082
971.432 .0250140
972.045 .0250207
972.658 .0250271
973.271 .0250330
973.883 .0250375
974.495 .0250400
975.106 .0250402
975.717 .0250387
976.328 .0250349
976.938 .0250304
977.548 .0250258
978.158 .0250218
978.768 .0250186
979.377 .0250160
979.985 .0250139
980.594 .0250121
981.202 .0250102
981.809 .0250077
982.417 .0250048
983.024 .0250024
983.631 .0249999
984.237 .0249980
984.843 .0249968
985.449 .0249962
986.054 .0249956
986.659 .0249953
987.264 .0249943
987.868 .0249925
988.472 .0249904
989.076 .0249877
989.679 .0249849
990.282 .0249824
990.885 .0249796
991.487 .0249769
992.090 .0249737
992.691 .0249700
993.293 .0249649
993.894 .0249590
994.495 .0249520
995.095 .0249442
995.696 .0249361
996.296 .0249280
996.895 .0249200
997.494 .0249126
998.093 .0249053
998.692 .0248981
999.291 .0248905
999.889 .0248815
1000.487 .0248709
1001.084 .0248589
1001.681 .0248448
1002.278 .0248295
1002.875 .0248132
1003.471 .0247969
1004.067 .0247815
1004.663 .0247674
1005.258 .0247550
1005.854 .0247443
1006.449 .0247354
1007.043 .0247276
1007.638 .0247198
1008.232 .0247126
1008.826 .0247048
1009.419 .0246962
1010.012 .0246878
1010.605 .0246792
1011.198 .0246711
1011.791 .0246640
1012.383 .0246580
1012.975 .0246530
1013.566 .0246490
1014.158 .0246452
1014.749 .0246410
1015.340 .0246367
1015.931 .0246312
1016.521 .0246238
1017.111 .0246152
1017.701 .0246060
1018.291 .0245955
1018.880 .0245840
1019.470 .0245725
1020.059 .0245603
1020.647 .0245485
1021.236 .0245368
1021.824 .0245252
1022.412 .0245139
1023.000 .0245025
1023.588 .0244909
1024.175 .0244789
1024.762 .0244669
1025.349 .0244537
1025.936 .0244397
1026.523 .0244256
1027.109 .0244108
1027.695 .0243955
1028.281 .0243808
1028.867 .0243670
1029.452 .0243537
1030.038 .0243411
1030.623 .0243293
1031.208 .0243180
1031.792 .0243074
1032.377 .0242972
1032.961 .0242877
1033.546 .0242791
1034.130 .0242721
1034.714 .0242663
1035.297 .0242628
1035.881 .0242613
1036.464 .0242621
1037.047 .0242645
1037.630 .0242685
1038.213 .0242733
1038.796 .0242785
1039.378 .0242837
1039.961 .0242886
1040.543 .0242923
1041.125 .0242945
1041.707 .0242951
1042.289 .0242938
1042.871 .0242909
1043.452 .0242866
1044.034 .0242806
1044.615 .0242732
1045.196 .0242651
1045.777 .0242568
1046.358 .0242490
1046.939 .0242423
1047.520 .0242365
1048.101 .0242313
1048.681 .0242276
1049.262 .0242248
1049.842 .0242239
1050.422 .0242247
1051.002 .0242280
1051.582 .0242332
1052.162 .0242406
1052.742 .0242500
1053.322 .0242607
1053.902 .0242718
1054.482 .0242829
1055.061 .0242926
1055.641 .0243006
1056.220 .0243062
1056.800 .0243101
1057.379 .0243121
1057.958 .0243130
1058.538 .0243127
1059.117 .0243120
1059.696 .0243113
1060.275 .0243111
1060.854 .0243100
1061.433 .0243089
1062.012 .0243073
1062.592 .0243055
1063.171 .0243034
1063.750 .0243018
1064.329 .0243010
1064.908 .0243014
1065.487 .0243029
1066.066 .0243057
1066.645 .0243096
1067.224 .0243156
1067.803 .0243225
1068.382 .0243309
1068.961 .0243409
1069.540 .0243521
1070.119 .0243649
1070.698 .0243800
1071.278 .0243960
1071.857 .0244127
1072.436 .0244284
1073.016 .0244427
1073.595 .0244549
1074.175 .0244660
1074.754 .0244759
1075.334 .0244853
1075.913 .0244953
1076.493 .0245051
1077.073 .0245154
1077.653 .0245266
1078.233 .0245374
1078.813 .0245470
1079.393 .0245545
1079.974 .0245587
1080.554 .0245596
1081.135 .0245587
1081.716 .0245568
1082.296 .0245559
1082.877 .0245579
1083.458 .0245626
1084.040 .0245697
1084.621 .0245784
1085.202 .0245884
1085.784 .0245970
1086.366 .0246040
1086.948 .0246079
1087.530 .0246081
1088.112 .0246061
1088.695 .0246026
1089.277 .0245990
1089.860 .0245960
1090.443 .0245940
1091.026 .0245917
1091.610 .0245886
1092.193 .0245845
1092.777 .0245777
1093.361 .0245689
1093.946 .0245594
1094.530 .0245488
1095.115 .0245384
1095.700 .0245311
1096.285 .0245270
1096.871 .0245269
1097.456 .0245325
1098.042 .0245411
1098.628 .0245509
1099.215 .0245601
1099.802 .0245701
1100.389 .0245778
1100.976 .0245840
1101.564 .0245880
1102.152 .0245878
1102.740 .0245861
1103.329 .0245838
1103.917 .0245796
1104.507 .0245754
1105.096 .0245711
1105.686 .0245659
1106.276 .0245595
1106.867 .0245519
1107.457 .0245414
1108.049 .0245295
1108.640 .0245174
1109.232 .0245042
1109.825 .0244901
1110.417 .0244781
1111.010 .0244696
1111.604 .0244669
1112.198 .0244706
1112.792 .0244783
1113.387 .0244915
1113.982 .0245085
1114.577 .0245287
1115.173 .0245517
1115.769 .0245757
1116.366 .0246007
1116.963 .0246279
1117.561 .0246582
1118.159 .0246892
1118.758 .0247224
1119.357 .0247589
1119.957 .0247943
1120.557 .0248299
1121.157 .0248625
1121.758 .0248916
1122.360 .0249177
1122.962 .0249408
1123.564 .0249578
1124.167 .0249708
1124.771 .0249806
1125.375 .0249873
1125.980 .0249915
1126.585 .0249943
1127.191 .0249919
1127.797 .0249868
1128.404 .0249798
1129.012 .0249725
1129.620 .0249677
1130.229 .0249691
1130.838 .0249747
1131.448 .0249867
1132.058 .0250027
1132.669 .0250247
1133.281 .0250491
1133.894 .0250771
1134.507 .0251053
1135.120 .0251348
1135.735 .0251618
1136.350 .0251869
1136.965 .0252156
1137.582 .0252488
1138.199 .0252822
1138.816 .0253124
1139.435 .0253401
1140.054 .0253726
1140.674 .0254050
1141.294 .0254334
1141.916 .0254863
1142.538 .0254153
1143.160 .0256067
1143.784 .0256524
1144.408 .0255113
1145.033 .0262592
