Measurement Sequence started on: 14-45-04-498
Integration time: 36
Scans to Average: 2 
>>>>>Begin Spectral Data<<<<<
433.946 .0522435
434.870 .0583132
435.793 .0490152
436.715 .0471804
437.635 .0449415
438.555 .0465045
439.473 .0455945
440.389 .0447290
441.305 .0442499
442.219 .0438463
443.132 .0435212
444.044 .0432100
444.954 .0429420
445.863 .0427824
446.771 .0426648
447.678 .0425979
448.584 .0425640
449.488 .0425642
450.391 .0425523
451.293 .0425246
452.194 .0424772
453.094 .0423996
453.992 .0423094
454.890 .0422073
455.786 .0421009
456.681 .0420062
457.575 .0419280
458.468 .0418620
459.360 .0418047
460.250 .0417566
461.140 .0417106
462.028 .0416681
462.915 .0416203
463.801 .0415565
464.687 .0414819
465.571 .0414103
466.454 .0413379
467.335 .0412742
468.216 .0412244
469.096 .0411833
469.975 .0411514
470.853 .0411279
471.729 .0411051
472.605 .0410754
473.479 .0410427
474.353 .0409988
475.226 .0409450
476.097 .0408832
476.968 .0408115
477.838 .0407299
478.706 .0406475
479.574 .0405661
480.441 .0404808
481.306 .0403993
482.171 .0403231
483.035 .0402517
483.898 .0401887
484.760 .0401343
485.621 .0400839
486.481 .0400371
487.340 .0400020
488.198 .0399694
489.055 .0399416
489.912 .0399180
490.767 .0398961
491.622 .0398749
492.476 .0398586
493.329 .0398439
494.180 .0398288
495.032 .0398187
495.882 .0398081
496.731 .0397923
497.580 .0397731
498.427 .0397454
499.274 .0397099
500.120 .0396657
500.965 .0396127
501.809 .0395437
502.653 .0394680
503.495 .0393894
504.337 .0393084
505.178 .0392283
506.018 .0391537
506.858 .0390827
507.696 .0390197
508.534 .0389586
509.371 .0389010
510.208 .0388458
511.043 .0387989
511.878 .0387548
512.712 .0387173
513.545 .0386835
514.377 .0386633
515.209 .0386532
516.040 .0386532
516.870 .0386541
517.699 .0386581
518.528 .0386611
519.356 .0386602
520.183 .0386499
521.010 .0386334
521.836 .0386078
522.661 .0385798
523.485 .0385420
524.309 .0385028
525.132 .0384496
525.954 .0383891
526.776 .0383126
527.597 .0382303
528.417 .0381362
529.237 .0380355
530.056 .0379337
530.874 .0378403
531.692 .0377530
532.508 .0376765
533.325 .0376166
534.140 .0375745
534.955 .0375340
535.770 .0374907
536.583 .0374380
537.397 .0373830
538.209 .0373163
539.021 .0372429
539.832 .0371597
540.643 .0370851
541.453 .0370156
542.262 .0369561
543.071 .0369157
543.879 .0368899
544.687 .0368723
545.494 .0368566
546.300 .0368364
547.106 .0368143
547.911 .0367839
548.716 .0367513
549.520 .0367139
550.323 .0366816
551.126 .0366500
551.929 .0366304
552.731 .0366231
553.532 .0366320
554.332 .0366478
555.133 .0366724
555.932 .0366942
556.731 .0367074
557.530 .0367096
558.328 .0366981
559.125 .0366737
559.922 .0366362
560.719 .0365882
561.515 .0365383
562.310 .0364937
563.105 .0364590
563.899 .0364344
564.693 .0364200
565.487 .0364091
566.280 .0363969
567.072 .0363807
567.864 .0363560
568.655 .0363238
569.446 .0362831
570.236 .0362377
571.026 .0361902
571.816 .0361462
572.605 .0361065
573.393 .0360740
574.181 .0360460
574.969 .0360206
575.756 .0359906
576.543 .0359557
577.329 .0359143
578.115 .0358643
578.900 .0358097
579.685 .0357517
580.469 .0356942
581.253 .0356407
582.036 .0355915
582.820 .0355489
583.602 .0355123
584.384 .0354835
585.166 .0354598
585.947 .0354401
586.728 .0354246
587.509 .0354124
588.289 .0354007
589.069 .0353885
589.848 .0353764
590.627 .0353620
591.405 .0353471
592.183 .0353315
592.961 .0353160
593.738 .0353013
594.515 .0352874
595.291 .0352731
596.067 .0352582
596.843 .0352409
597.618 .0352203
598.393 .0351949
599.167 .0351671
599.941 .0351356
600.715 .0351019
601.488 .0350690
602.261 .0350373
603.034 .0350067
603.806 .0349791
604.578 .0349533
605.349 .0349297
606.121 .0349069
606.891 .0348849
607.662 .0348624
608.432 .0348406
609.201 .0348188
609.971 .0347966
610.740 .0347747
611.508 .0347540
612.277 .0347331
613.045 .0347140
613.812 .0346957
614.579 .0346777
615.346 .0346612
616.113 .0346464
616.879 .0346321
617.645 .0346189
618.411 .0346060
619.176 .0345934
619.941 .0345808
620.705 .0345692
621.470 .0345573
622.233 .0345460
622.997 .0345357
623.760 .0345260
624.523 .0345161
625.286 .0345064
626.048 .0344951
626.810 .0344827
627.572 .0344680
628.333 .0344507
629.095 .0344309
629.855 .0344099
630.616 .0343883
631.376 .0343667
632.136 .0343453
632.895 .0343236
633.655 .0343011
634.414 .0342781
635.172 .0342541
635.931 .0342298
636.689 .0342041
637.447 .0341783
638.204 .0341522
638.962 .0341263
639.718 .0341007
640.475 .0340754
641.231 .0340512
641.988 .0340271
642.743 .0340027
643.499 .0339777
644.254 .0339519
645.009 .0339258
645.764 .0338999
646.518 .0338733
647.272 .0338458
648.026 .0338176
648.780 .0337888
649.533 .0337599
650.286 .0337318
651.039 .0337048
651.792 .0336791
652.544 .0336554
653.296 .0336336
654.048 .0336131
654.799 .0335951
655.550 .0335786
656.301 .0335633
657.052 .0335493
657.802 .0335360
658.552 .0335227
659.302 .0335103
660.052 .0334993
660.801 .0334897
661.550 .0334812
662.299 .0334737
663.048 .0334666
663.796 .0334610
664.544 .0334558
665.292 .0334497
666.040 .0334434
666.787 .0334365
667.534 .0334279
668.281 .0334176
669.028 .0334058
669.774 .0333932
670.521 .0333801
671.266 .0333662
672.012 .0333513
672.758 .0333359
673.503 .0333200
674.248 .0333036
674.992 .0332872
675.737 .0332704
676.481 .0332533
677.225 .0332364
677.969 .0332203
678.712 .0332047
679.455 .0331894
680.199 .0331744
680.941 .0331593
681.684 .0331445
682.426 .0331287
683.168 .0331123
683.910 .0330965
684.652 .0330805
685.393 .0330644
686.134 .0330479
686.875 .0330314
687.616 .0330142
688.356 .0329967
689.097 .0329784
689.837 .0329594
690.576 .0329401
691.316 .0329206
692.055 .0329011
692.794 .0328823
693.533 .0328639
694.272 .0328455
695.010 .0328275
695.748 .0328094
696.486 .0327906
697.224 .0327720
697.962 .0327532
698.699 .0327350
699.436 .0327163
700.173 .0326980
700.909 .0326794
701.646 .0326603
702.382 .0326410
703.118 .0326208
703.853 .0326001
704.589 .0325789
705.324 .0325572
706.059 .0325364
706.794 .0325170
707.529 .0324993
708.263 .0324824
708.997 .0324674
709.731 .0324528
710.465 .0324384
711.198 .0324235
711.931 .0324085
712.664 .0323931
713.397 .0323779
714.130 .0323628
714.862 .0323483
715.594 .0323352
716.326 .0323237
717.058 .0323131
717.789 .0323036
718.520 .0322940
719.251 .0322838
719.982 .0322728
720.713 .0322608
721.443 .0322479
722.173 .0322341
722.903 .0322203
723.633 .0322073
724.362 .0321947
725.091 .0321831
725.820 .0321722
726.549 .0321617
727.278 .0321509
728.006 .0321388
728.734 .0321252
729.462 .0321098
730.190 .0320928
730.917 .0320742
731.644 .0320539
732.371 .0320325
733.098 .0320106
733.825 .0319879
734.551 .0319650
735.277 .0319415
736.003 .0319170
736.728 .0318916
737.454 .0318654
738.179 .0318381
738.904 .0318099
739.629 .0317810
740.353 .0317524
741.077 .0317240
741.801 .0316968
742.525 .0316705
743.249 .0316459
743.972 .0316227
744.695 .0316007
745.418 .0315794
746.141 .0315588
746.863 .0315389
747.585 .0315192
748.307 .0314997
749.029 .0314806
749.750 .0314613
750.472 .0314422
751.193 .0314233
751.913 .0314049
752.634 .0313858
753.354 .0313666
754.074 .0313472
754.794 .0313271
755.514 .0313063
756.233 .0312848
756.952 .0312620
757.671 .0312393
758.390 .0312163
759.108 .0311931
759.826 .0311706
760.544 .0311494
761.262 .0311290
761.979 .0311098
762.697 .0310916
763.414 .0310745
764.130 .0310582
764.847 .0310436
765.563 .0310297
766.279 .0310172
766.995 .0310064
767.710 .0309970
768.426 .0309890
769.141 .0309831
769.855 .0309778
770.570 .0309730
771.284 .0309688
771.998 .0309643
772.712 .0309592
773.426 .0309538
774.139 .0309485
774.852 .0309429
775.565 .0309371
776.277 .0309314
776.990 .0309249
777.702 .0309179
778.414 .0309101
779.125 .0309007
779.836 .0308902
780.547 .0308780
781.258 .0308644
781.969 .0308499
782.679 .0308349
783.389 .0308192
784.099 .0308029
784.808 .0307870
785.517 .0307711
786.226 .0307551
786.935 .0307390
787.643 .0307237
788.352 .0307084
789.060 .0306932
789.767 .0306776
790.475 .0306615
791.182 .0306448
791.889 .0306276
792.595 .0306099
793.301 .0305920
794.008 .0305742
794.713 .0305566
795.419 .0305387
796.124 .0305215
796.829 .0305043
797.534 .0304865
798.238 .0304680
798.942 .0304489
799.646 .0304280
800.350 .0304059
801.053 .0303831
801.756 .0303590
802.459 .0303338
803.162 .0303074
803.864 .0302797
804.566 .0302506
805.267 .0302206
805.969 .0301897
806.670 .0301577
807.371 .0301260
808.071 .0300943
808.772 .0300625
809.472 .0300314
810.171 .0300006
810.871 .0299698
811.570 .0299397
812.269 .0299097
812.967 .0298797
813.666 .0298505
814.364 .0298230
815.061 .0297971
815.759 .0297731
816.456 .0297513
817.153 .0297307
817.849 .0297111
818.545 .0296923
819.241 .0296729
819.937 .0296532
820.632 .0296335
821.327 .0296126
822.022 .0295914
822.717 .0295705
823.411 .0295495
824.105 .0295292
824.798 .0295097
825.491 .0294906
826.184 .0294719
826.877 .0294535
827.569 .0294350
828.261 .0294165
828.953 .0293980
829.645 .0293793
830.336 .0293611
831.027 .0293442
831.717 .0293287
832.407 .0293143
833.097 .0293022
833.787 .0292913
834.476 .0292817
835.165 .0292729
835.854 .0292643
836.542 .0292558
837.230 .0292469
837.918 .0292366
838.605 .0292264
839.292 .0292163
839.979 .0292074
840.665 .0291990
841.352 .0291916
842.037 .0291848
842.723 .0291779
843.408 .0291699
844.093 .0291609
844.777 .0291503
845.462 .0291382
846.145 .0291239
846.829 .0291083
847.512 .0290923
848.195 .0290761
848.878 .0290604
849.560 .0290453
850.242 .0290310
850.923 .0290170
851.605 .0290028
852.286 .0289887
852.966 .0289749
853.646 .0289614
854.326 .0289485
855.006 .0289365
855.685 .0289255
856.364 .0289151
857.043 .0289057
857.721 .0288966
858.399 .0288879
859.077 .0288787
859.754 .0288688
860.431 .0288583
861.107 .0288477
861.784 .0288367
862.459 .0288259
863.135 .0288154
863.810 .0288049
864.485 .0287932
865.160 .0287806
865.834 .0287665
866.508 .0287511
867.181 .0287341
867.854 .0287162
868.527 .0286974
869.199 .0286790
869.872 .0286605
870.543 .0286421
871.215 .0286239
871.886 .0286058
872.557 .0285867
873.227 .0285661
873.897 .0285440
874.567 .0285202
875.236 .0284950
875.905 .0284695
876.573 .0284436
877.242 .0284183
877.909 .0283938
878.577 .0283701
879.244 .0283471
879.911 .0283245
880.577 .0283017
881.243 .0282785
881.909 .0282551
882.575 .0282314
883.240 .0282078
883.904 .0281850
884.569 .0281633
885.232 .0281422
885.896 .0281217
886.559 .0281014
887.222 .0280810
887.885 .0280599
888.547 .0280372
889.208 .0280131
889.870 .0279885
890.531 .0279633
891.192 .0279383
891.852 .0279139
892.512 .0278907
893.171 .0278688
893.830 .0278480
894.489 .0278280
895.148 .0278088
895.806 .0277902
896.464 .0277724
897.121 .0277553
897.778 .0277391
898.434 .0277240
899.091 .0277099
899.747 .0276973
900.402 .0276852
901.057 .0276733
901.712 .0276615
902.366 .0276489
903.020 .0276355
903.674 .0276217
904.327 .0276076
904.980 .0275934
905.633 .0275796
906.285 .0275664
906.936 .0275533
907.588 .0275400
908.239 .0275259
908.889 .0275107
909.540 .0274945
910.190 .0274771
910.839 .0274585
911.488 .0274399
912.137 .0274218
912.785 .0274041
913.433 .0273880
914.081 .0273728
914.728 .0273588
915.375 .0273453
916.021 .0273320
916.668 .0273181
917.313 .0273037
917.959 .0272888
918.604 .0272741
919.248 .0272603
919.892 .0272476
920.536 .0272360
921.180 .0272269
921.823 .0272199
922.465 .0272142
923.108 .0272094
923.750 .0272055
924.391 .0272015
925.032 .0271974
925.673 .0271924
926.313 .0271869
926.953 .0271810
927.593 .0271750
928.232 .0271686
928.871 .0271615
929.510 .0271543
930.148 .0271469
930.786 .0271390
931.423 .0271312
932.060 .0271231
932.697 .0271151
933.333 .0271072
933.969 .0270997
934.604 .0270925
935.239 .0270851
935.874 .0270780
936.508 .0270706
937.142 .0270628
937.776 .0270543
938.409 .0270444
939.042 .0270330
939.674 .0270209
940.306 .0270077
940.938 .0269938
941.569 .0269793
942.200 .0269644
942.830 .0269486
943.460 .0269315
944.090 .0269128
944.720 .0268923
945.349 .0268700
945.977 .0268462
946.606 .0268211
947.233 .0267951
947.861 .0267684
948.488 .0267418
949.115 .0267158
949.741 .0266906
950.367 .0266662
950.993 .0266424
951.618 .0266193
952.243 .0265968
952.868 .0265748
953.492 .0265533
954.115 .0265325
954.739 .0265123
955.362 .0264928
955.984 .0264738
956.607 .0264552
957.229 .0264369
957.850 .0264192
958.471 .0264013
959.092 .0263830
959.713 .0263637
960.333 .0263436
960.952 .0263230
961.572 .0263015
962.191 .0262787
962.809 .0262556
963.428 .0262318
964.045 .0262073
964.663 .0261825
965.280 .0261581
965.897 .0261336
966.513 .0261095
967.129 .0260863
967.745 .0260634
968.361 .0260407
968.976 .0260187
969.590 .0259968
970.205 .0259755
970.818 .0259549
971.432 .0259342
972.045 .0259136
972.658 .0258944
973.271 .0258751
973.883 .0258556
974.495 .0258365
975.106 .0258175
975.717 .0257979
976.328 .0257782
976.938 .0257590
977.548 .0257399
978.158 .0257229
978.768 .0257069
979.377 .0256916
979.985 .0256775
980.594 .0256641
981.202 .0256508
981.809 .0256374
982.417 .0256241
983.024 .0256106
983.631 .0255974
984.237 .0255851
984.843 .0255733
985.449 .0255630
986.054 .0255532
986.659 .0255443
987.264 .0255355
987.868 .0255267
988.472 .0255178
989.076 .0255100
989.679 .0255036
990.282 .0254988
990.885 .0254958
991.487 .0254940
992.090 .0254934
992.691 .0254934
993.293 .0254933
993.894 .0254928
994.495 .0254924
995.095 .0254916
995.696 .0254898
996.296 .0254886
996.895 .0254871
997.494 .0254852
998.093 .0254829
998.692 .0254793
999.291 .0254744
999.889 .0254678
1000.487 .0254599
1001.084 .0254511
1001.681 .0254426
1002.278 .0254344
1002.875 .0254271
1003.471 .0254213
1004.067 .0254175
1004.663 .0254148
1005.258 .0254135
1005.854 .0254127
1006.449 .0254122
1007.043 .0254116
1007.638 .0254102
1008.232 .0254095
1008.826 .0254092
1009.419 .0254098
1010.012 .0254119
1010.605 .0254157
1011.198 .0254206
1011.791 .0254258
1012.383 .0254316
1012.975 .0254376
1013.566 .0254424
1014.158 .0254467
1014.749 .0254505
1015.340 .0254549
1015.931 .0254599
1016.521 .0254657
1017.111 .0254720
1017.701 .0254791
1018.291 .0254857
1018.880 .0254908
1019.470 .0254934
1020.059 .0254940
1020.647 .0254920
1021.236 .0254885
1021.824 .0254847
1022.412 .0254812
1023.000 .0254787
1023.588 .0254785
1024.175 .0254791
1024.762 .0254800
1025.349 .0254799
1025.936 .0254790
1026.523 .0254765
1027.109 .0254725
1027.695 .0254680
1028.281 .0254640
1028.867 .0254614
1029.452 .0254607
1030.038 .0254617
1030.623 .0254645
1031.208 .0254671
1031.792 .0254697
1032.377 .0254711
1032.961 .0254716
1033.546 .0254705
1034.130 .0254684
1034.714 .0254672
1035.297 .0254680
1035.881 .0254702
1036.464 .0254746
1037.047 .0254815
1037.630 .0254899
1038.213 .0254980
1038.796 .0255063
1039.378 .0255152
1039.961 .0255247
1040.543 .0255347
1041.125 .0255463
1041.707 .0255594
1042.289 .0255756
1042.871 .0255932
1043.452 .0256122
1044.034 .0256324
1044.615 .0256519
1045.196 .0256696
1045.777 .0256850
1046.358 .0256998
1046.939 .0257145
1047.520 .0257289
1048.101 .0257445
1048.681 .0257609
1049.262 .0257775
1049.842 .0257943
1050.422 .0258096
1051.002 .0258228
1051.582 .0258326
1052.162 .0258383
1052.742 .0258401
1053.322 .0258383
1053.902 .0258348
1054.482 .0258301
1055.061 .0258240
1055.641 .0258187
1056.220 .0258123
1056.800 .0258056
1057.379 .0257989
1057.958 .0257928
1058.538 .0257864
1059.117 .0257794
1059.696 .0257717
1060.275 .0257633
1060.854 .0257541
1061.433 .0257449
1062.012 .0257337
1062.592 .0257215
1063.171 .0257090
1063.750 .0256959
1064.329 .0256819
1064.908 .0256691
1065.487 .0256562
1066.066 .0256439
1066.645 .0256309
1067.224 .0256169
1067.803 .0256001
1068.382 .0255823
1068.961 .0255631
1069.540 .0255420
1070.119 .0255214
1070.698 .0255024
1071.278 .0254849
1071.857 .0254694
1072.436 .0254562
1073.016 .0254457
1073.595 .0254356
1074.175 .0254257
1074.754 .0254132
1075.334 .0253989
1075.913 .0253817
1076.493 .0253610
1077.073 .0253390
1077.653 .0253165
1078.233 .0252941
1078.813 .0252725
1079.393 .0252535
1079.974 .0252373
1080.554 .0252249
1081.135 .0252145
1081.716 .0252068
1082.296 .0252007
1082.877 .0251949
1083.458 .0251894
1084.040 .0251859
1084.621 .0251835
1085.202 .0251829
1085.784 .0251851
1086.366 .0251909
1086.948 .0251974
1087.530 .0252063
1088.112 .0252154
1088.695 .0252247
1089.277 .0252323
1089.860 .0252383
1090.443 .0252403
1091.026 .0252426
1091.610 .0252426
1092.193 .0252427
1092.777 .0252419
1093.361 .0252426
1093.946 .0252413
1094.530 .0252387
1095.115 .0252329
1095.700 .0252247
1096.285 .0252118
1096.871 .0251957
1097.456 .0251774
1098.042 .0251586
1098.628 .0251408
1099.215 .0251270
1099.802 .0251137
1100.389 .0251046
1100.976 .0250961
1101.564 .0250894
1102.152 .0250813
1102.740 .0250741
1103.329 .0250671
1103.917 .0250608
1104.507 .0250591
1105.096 .0250634
1105.686 .0250713
1106.276 .0250860
1106.867 .0251046
1107.457 .0251223
1108.049 .0251392
1108.640 .0251517
1109.232 .0251577
1109.825 .0251606
1110.417 .0251589
1111.010 .0251527
1111.604 .0251437
1112.198 .0251368
1112.792 .0251284
1113.387 .0251199
1113.982 .0251143
1114.577 .0251059
1115.173 .0250967
1115.769 .0250874
1116.366 .0250744
1116.963 .0250633
1117.561 .0250540
1118.159 .0250469
1118.758 .0250436
1119.357 .0250443
1119.957 .0250475
1120.557 .0250530
1121.157 .0250612
1121.758 .0250711
1122.360 .0250810
1122.962 .0250953
1123.564 .0251120
1124.167 .0251364
1124.771 .0251683
1125.375 .0252063
1125.980 .0252511
1126.585 .0253040
1127.191 .0253579
1127.797 .0254165
1128.404 .0254772
1129.012 .0255398
1129.620 .0256036
1130.229 .0256693
1130.838 .0257364
1131.448 .0258094
1132.058 .0258881
1132.669 .0259706
1133.281 .0260563
1133.894 .0261468
1134.507 .0262377
1135.120 .0263292
1135.735 .0264222
1136.350 .0265164
1136.965 .0266129
1137.582 .0267131
1138.199 .0268153
1138.816 .0269295
1139.435 .0270580
1140.054 .0271965
1140.674 .0273513
1141.294 .0275064
1141.916 .0276745
1142.538 .0279364
1143.160 .0280429
1143.784 .0283128
1144.408 .0281703
1145.033 .0285705
