Measurement Sequence started on: 14-45-04-498
Integration time: 36
Scans to Average: 2 
>>>>>Begin Spectral Data<<<<<
433.946 .0520508
434.870 .0433733
435.793 .0394980
436.715 .0381185
437.635 .0373745
438.555 .0385800
439.473 .0378619
440.389 .0375876
441.305 .0374940
442.219 .0374533
443.132 .0374269
444.044 .0374060
444.954 .0373960
445.863 .0373996
446.771 .0374359
447.678 .0375073
448.584 .0375930
449.488 .0376778
450.391 .0377439
451.293 .0377830
452.194 .0377909
453.094 .0377724
453.992 .0377251
454.890 .0376558
455.786 .0375812
456.681 .0375076
457.575 .0374384
458.468 .0373776
459.360 .0373262
460.250 .0372814
461.140 .0372253
462.028 .0371642
462.915 .0370955
463.801 .0370187
464.687 .0369363
465.571 .0368530
466.454 .0367700
467.335 .0366913
468.216 .0366176
469.096 .0365473
469.975 .0364827
470.853 .0364217
471.729 .0363580
472.605 .0362917
473.479 .0362254
474.353 .0361553
475.226 .0360849
476.097 .0360197
476.968 .0359558
477.838 .0358922
478.706 .0358327
479.574 .0357759
480.441 .0357231
481.306 .0356772
482.171 .0356355
483.035 .0355976
483.898 .0355672
484.760 .0355388
485.621 .0355122
486.481 .0354879
487.340 .0354672
488.198 .0354475
489.055 .0354291
489.912 .0354115
490.767 .0353942
491.622 .0353781
492.476 .0353623
493.329 .0353417
494.180 .0353161
495.032 .0352842
495.882 .0352454
496.731 .0352010
497.580 .0351560
498.427 .0351101
499.274 .0350656
500.120 .0350238
500.965 .0349851
501.809 .0349451
502.653 .0349038
503.495 .0348611
504.337 .0348144
505.178 .0347644
506.018 .0347137
506.858 .0346595
507.696 .0346101
508.534 .0345677
509.371 .0345354
510.208 .0345107
511.043 .0344965
511.878 .0344899
512.712 .0344891
513.545 .0344947
514.377 .0345035
515.209 .0345103
516.040 .0345220
516.870 .0345307
517.699 .0345366
518.528 .0345364
519.356 .0345368
520.183 .0345328
521.010 .0345315
521.836 .0345332
522.661 .0345350
523.485 .0345326
524.309 .0345268
525.132 .0345067
525.954 .0344712
526.776 .0344159
527.597 .0343448
528.417 .0342565
529.237 .0341600
530.056 .0340540
530.874 .0339477
531.692 .0338500
532.508 .0337609
533.325 .0336728
534.140 .0335870
534.955 .0335023
535.770 .0334165
536.583 .0333299
537.397 .0332471
538.209 .0331707
539.021 .0330978
539.832 .0330286
540.643 .0329601
541.453 .0328937
542.262 .0328322
543.071 .0327760
543.879 .0327206
544.687 .0326717
545.494 .0326287
546.300 .0325952
547.106 .0325712
547.911 .0325600
548.716 .0325547
549.520 .0325515
550.323 .0325488
551.126 .0325410
551.929 .0325272
552.731 .0325146
553.532 .0324978
554.332 .0324815
555.133 .0324659
555.932 .0324501
556.731 .0324317
557.530 .0324136
558.328 .0323930
559.125 .0323664
559.922 .0323347
560.719 .0322988
561.515 .0322623
562.310 .0322292
563.105 .0322009
563.899 .0321787
564.693 .0321630
565.487 .0321528
566.280 .0321453
567.072 .0321397
567.864 .0321343
568.655 .0321253
569.446 .0321152
570.236 .0321026
571.026 .0320877
571.816 .0320683
572.605 .0320474
573.393 .0320241
574.181 .0319985
574.969 .0319673
575.756 .0319317
576.543 .0318906
577.329 .0318465
578.115 .0317980
578.900 .0317471
579.685 .0316958
580.469 .0316462
581.253 .0315985
582.036 .0315553
582.820 .0315138
583.602 .0314755
584.384 .0314399
585.166 .0314072
585.947 .0313746
586.728 .0313429
587.509 .0313125
588.289 .0312844
589.069 .0312595
589.848 .0312377
590.627 .0312190
591.405 .0312038
592.183 .0311915
592.961 .0311800
593.738 .0311678
594.515 .0311548
595.291 .0311407
596.067 .0311260
596.843 .0311096
597.618 .0310915
598.393 .0310729
599.167 .0310544
599.941 .0310362
600.715 .0310165
601.488 .0309961
602.261 .0309746
603.034 .0309520
603.806 .0309280
604.578 .0309028
605.349 .0308770
606.121 .0308512
606.891 .0308259
607.662 .0308013
608.432 .0307774
609.201 .0307550
609.971 .0307344
610.740 .0307160
611.508 .0306987
612.277 .0306834
613.045 .0306697
613.812 .0306577
614.579 .0306470
615.346 .0306369
616.113 .0306276
616.879 .0306185
617.645 .0306102
618.411 .0306014
619.176 .0305930
619.941 .0305854
620.705 .0305777
621.470 .0305699
622.233 .0305609
622.997 .0305506
623.760 .0305384
624.523 .0305243
625.286 .0305079
626.048 .0304892
626.810 .0304691
627.572 .0304478
628.333 .0304256
629.095 .0304026
629.855 .0303795
630.616 .0303567
631.376 .0303344
632.136 .0303127
632.895 .0302908
633.655 .0302699
634.414 .0302499
635.172 .0302307
635.931 .0302116
636.689 .0301925
637.447 .0301739
638.204 .0301548
638.962 .0301357
639.718 .0301168
640.475 .0300981
641.231 .0300799
641.988 .0300619
642.743 .0300442
643.499 .0300260
644.254 .0300072
645.009 .0299879
645.764 .0299681
646.518 .0299482
647.272 .0299282
648.026 .0299092
648.780 .0298922
649.533 .0298780
650.286 .0298657
651.039 .0298559
651.792 .0298473
652.544 .0298393
653.296 .0298308
654.048 .0298214
654.799 .0298106
655.550 .0297989
656.301 .0297863
657.052 .0297733
657.802 .0297600
658.552 .0297472
659.302 .0297339
660.052 .0297211
660.801 .0297079
661.550 .0296940
662.299 .0296794
663.048 .0296649
663.796 .0296502
664.544 .0296361
665.292 .0296227
666.040 .0296105
666.787 .0295996
667.534 .0295904
668.281 .0295817
669.028 .0295737
669.774 .0295664
670.521 .0295591
671.266 .0295515
672.012 .0295445
672.758 .0295373
673.503 .0295302
674.248 .0295231
674.992 .0295157
675.737 .0295073
676.481 .0294985
677.225 .0294884
677.969 .0294766
678.712 .0294636
679.455 .0294498
680.199 .0294348
680.941 .0294197
681.684 .0294047
682.426 .0293897
683.168 .0293754
683.910 .0293611
684.652 .0293465
685.393 .0293321
686.134 .0293180
686.875 .0293041
687.616 .0292906
688.356 .0292781
689.097 .0292660
689.837 .0292546
690.576 .0292440
691.316 .0292338
692.055 .0292241
692.794 .0292147
693.533 .0292049
694.272 .0291955
695.010 .0291860
695.748 .0291761
696.486 .0291663
697.224 .0291566
697.962 .0291461
698.699 .0291347
699.436 .0291226
700.173 .0291099
700.909 .0290968
701.646 .0290839
702.382 .0290715
703.118 .0290596
703.853 .0290484
704.589 .0290374
705.324 .0290264
706.059 .0290155
706.794 .0290038
707.529 .0289911
708.263 .0289779
708.997 .0289643
709.731 .0289502
710.465 .0289360
711.198 .0289224
711.931 .0289088
712.664 .0288955
713.397 .0288820
714.130 .0288678
714.862 .0288531
715.594 .0288376
716.326 .0288218
717.058 .0288055
717.789 .0287896
718.520 .0287742
719.251 .0287594
719.982 .0287453
720.713 .0287318
721.443 .0287188
722.173 .0287063
722.903 .0286942
723.633 .0286824
724.362 .0286707
725.091 .0286590
725.820 .0286476
726.549 .0286367
727.278 .0286259
728.006 .0286159
728.734 .0286057
729.462 .0285957
730.190 .0285860
730.917 .0285765
731.644 .0285673
732.371 .0285588
733.098 .0285506
733.825 .0285422
734.551 .0285337
735.277 .0285249
736.003 .0285155
736.728 .0285060
737.454 .0284964
738.179 .0284865
738.904 .0284767
739.629 .0284670
740.353 .0284576
741.077 .0284493
741.801 .0284417
742.525 .0284342
743.249 .0284274
743.972 .0284208
744.695 .0284144
745.418 .0284080
746.141 .0284016
746.863 .0283951
747.585 .0283884
748.307 .0283813
749.029 .0283733
749.750 .0283646
750.472 .0283553
751.193 .0283447
751.913 .0283335
752.634 .0283214
753.354 .0283080
754.074 .0282942
754.794 .0282796
755.514 .0282640
756.233 .0282475
756.952 .0282303
757.671 .0282124
758.390 .0281943
759.108 .0281762
759.826 .0281583
760.544 .0281417
761.262 .0281270
761.979 .0281132
762.697 .0281010
763.414 .0280900
764.130 .0280794
764.847 .0280688
765.563 .0280581
766.279 .0280465
766.995 .0280345
767.710 .0280226
768.426 .0280106
769.141 .0279990
769.855 .0279887
770.570 .0279791
771.284 .0279698
771.998 .0279610
772.712 .0279521
773.426 .0279427
774.139 .0279332
774.852 .0279232
775.565 .0279135
776.277 .0279046
776.990 .0278968
777.702 .0278899
778.414 .0278843
779.125 .0278797
779.836 .0278756
780.547 .0278719
781.258 .0278685
781.969 .0278656
782.679 .0278631
783.389 .0278611
784.099 .0278596
784.808 .0278585
785.517 .0278576
786.226 .0278567
786.935 .0278557
787.643 .0278541
788.352 .0278520
789.060 .0278493
789.767 .0278462
790.475 .0278430
791.182 .0278400
791.889 .0278370
792.595 .0278341
793.301 .0278309
794.008 .0278271
794.713 .0278227
795.419 .0278180
796.124 .0278131
796.829 .0278081
797.534 .0278030
798.238 .0277979
798.942 .0277928
799.646 .0277880
800.350 .0277831
801.053 .0277778
801.756 .0277721
802.459 .0277652
803.162 .0277577
803.864 .0277493
804.566 .0277406
805.267 .0277313
805.969 .0277214
806.670 .0277111
807.371 .0277002
808.071 .0276885
808.772 .0276761
809.472 .0276625
810.171 .0276488
810.871 .0276344
811.570 .0276199
812.269 .0276052
812.967 .0275908
813.666 .0275766
814.364 .0275628
815.061 .0275489
815.759 .0275351
816.456 .0275208
817.153 .0275063
817.849 .0274911
818.545 .0274757
819.241 .0274601
819.937 .0274442
820.632 .0274279
821.327 .0274112
822.022 .0273940
822.717 .0273764
823.411 .0273580
824.105 .0273394
824.798 .0273205
825.491 .0273010
826.184 .0272810
826.877 .0272607
827.569 .0272400
828.261 .0272191
828.953 .0271980
829.645 .0271768
830.336 .0271560
831.027 .0271360
831.717 .0271175
832.407 .0271006
833.097 .0270860
833.787 .0270731
834.476 .0270618
835.165 .0270521
835.854 .0270436
836.542 .0270360
837.230 .0270295
837.918 .0270241
838.605 .0270202
839.292 .0270173
839.979 .0270157
840.665 .0270149
841.352 .0270150
842.037 .0270146
842.723 .0270132
843.408 .0270103
844.093 .0270062
844.777 .0270006
845.462 .0269940
846.145 .0269864
846.829 .0269783
847.512 .0269699
848.195 .0269617
848.878 .0269535
849.560 .0269462
850.242 .0269393
850.923 .0269333
851.605 .0269275
852.286 .0269225
852.966 .0269180
853.646 .0269141
854.326 .0269108
855.006 .0269078
855.685 .0269046
856.364 .0269015
857.043 .0268982
857.721 .0268953
858.399 .0268922
859.077 .0268891
859.754 .0268854
860.431 .0268810
861.107 .0268756
861.784 .0268693
862.459 .0268614
863.135 .0268531
863.810 .0268440
864.485 .0268345
865.160 .0268256
865.834 .0268177
866.508 .0268113
867.181 .0268066
867.854 .0268031
868.527 .0268006
869.199 .0267983
869.872 .0267963
870.543 .0267936
871.215 .0267904
871.886 .0267868
872.557 .0267819
873.227 .0267758
873.897 .0267689
874.567 .0267607
875.236 .0267515
875.905 .0267415
876.573 .0267301
877.242 .0267177
877.909 .0267042
878.577 .0266899
879.244 .0266745
879.911 .0266587
880.577 .0266421
881.243 .0266247
881.909 .0266069
882.575 .0265892
883.240 .0265716
883.904 .0265550
884.569 .0265395
885.232 .0265253
885.896 .0265127
886.559 .0265014
887.222 .0264908
887.885 .0264806
888.547 .0264702
889.208 .0264594
889.870 .0264474
890.531 .0264349
891.192 .0264218
891.852 .0264085
892.512 .0263950
893.171 .0263817
893.830 .0263686
894.489 .0263556
895.148 .0263424
895.806 .0263285
896.464 .0263142
897.121 .0262996
897.778 .0262848
898.434 .0262702
899.091 .0262561
899.747 .0262425
900.402 .0262292
901.057 .0262168
901.712 .0262047
902.366 .0261924
903.020 .0261801
903.674 .0261679
904.327 .0261557
904.980 .0261431
905.633 .0261305
906.285 .0261178
906.936 .0261053
907.588 .0260923
908.239 .0260783
908.889 .0260642
909.540 .0260497
910.190 .0260346
910.839 .0260194
911.488 .0260044
912.137 .0259894
912.785 .0259739
913.433 .0259584
914.081 .0259427
914.728 .0259269
915.375 .0259110
916.021 .0258954
916.668 .0258804
917.313 .0258664
917.959 .0258532
918.604 .0258410
919.248 .0258298
919.892 .0258191
920.536 .0258085
921.180 .0257983
921.823 .0257882
922.465 .0257780
923.108 .0257679
923.750 .0257585
924.391 .0257492
925.032 .0257400
925.673 .0257307
926.313 .0257216
926.953 .0257120
927.593 .0257017
928.232 .0256902
928.871 .0256781
929.510 .0256658
930.148 .0256533
930.786 .0256405
931.423 .0256281
932.060 .0256164
932.697 .0256055
933.333 .0255951
933.969 .0255852
934.604 .0255756
935.239 .0255669
935.874 .0255587
936.508 .0255509
937.142 .0255439
937.776 .0255383
938.409 .0255336
939.042 .0255299
939.674 .0255267
940.306 .0255237
940.938 .0255209
941.569 .0255181
942.200 .0255147
942.830 .0255102
943.460 .0255047
944.090 .0254980
944.720 .0254903
945.349 .0254816
945.977 .0254718
946.606 .0254617
947.233 .0254514
947.861 .0254406
948.488 .0254292
949.115 .0254177
949.741 .0254058
950.367 .0253939
950.993 .0253815
951.618 .0253691
952.243 .0253570
952.868 .0253456
953.492 .0253346
954.115 .0253242
954.739 .0253142
955.362 .0253050
955.984 .0252954
956.607 .0252863
957.229 .0252768
957.850 .0252673
958.471 .0252578
959.092 .0252483
959.713 .0252390
960.333 .0252303
960.952 .0252227
961.572 .0252158
962.191 .0252094
962.809 .0252038
963.428 .0251979
964.045 .0251920
964.663 .0251858
965.280 .0251795
965.897 .0251730
966.513 .0251675
967.129 .0251628
967.745 .0251592
968.361 .0251567
968.976 .0251551
969.590 .0251532
970.205 .0251509
970.818 .0251473
971.432 .0251422
972.045 .0251357
972.658 .0251282
973.271 .0251191
973.883 .0251092
974.495 .0250987
975.106 .0250875
975.717 .0250755
976.328 .0250628
976.938 .0250493
977.548 .0250349
978.158 .0250202
978.768 .0250051
979.377 .0249898
979.985 .0249747
980.594 .0249597
981.202 .0249450
981.809 .0249304
982.417 .0249163
983.024 .0249029
983.631 .0248901
984.237 .0248781
984.843 .0248663
985.449 .0248548
986.054 .0248431
986.659 .0248314
987.264 .0248188
987.868 .0248052
988.472 .0247911
989.076 .0247767
989.679 .0247621
990.282 .0247478
990.885 .0247337
991.487 .0247197
992.090 .0247058
992.691 .0246908
993.293 .0246744
993.894 .0246575
994.495 .0246407
995.095 .0246240
995.696 .0246081
996.296 .0245936
996.895 .0245808
997.494 .0245700
998.093 .0245607
998.692 .0245518
999.291 .0245438
999.889 .0245357
1000.487 .0245274
1001.084 .0245186
1001.681 .0245096
1002.278 .0245007
1002.875 .0244927
1003.471 .0244851
1004.067 .0244779
1004.663 .0244711
1005.258 .0244646
1005.854 .0244579
1006.449 .0244510
1007.043 .0244431
1007.638 .0244343
1008.232 .0244249
1008.826 .0244150
1009.419 .0244048
1010.012 .0243952
1010.605 .0243864
1011.198 .0243788
1011.791 .0243730
1012.383 .0243680
1012.975 .0243635
1013.566 .0243601
1014.158 .0243572
1014.749 .0243546
1015.340 .0243529
1015.931 .0243523
1016.521 .0243528
1017.111 .0243554
1017.701 .0243599
1018.291 .0243653
1018.880 .0243713
1019.470 .0243770
1020.059 .0243816
1020.647 .0243849
1021.236 .0243867
1021.824 .0243871
1022.412 .0243877
1023.000 .0243891
1023.588 .0243914
1024.175 .0243946
1024.762 .0243987
1025.349 .0244031
1025.936 .0244067
1026.523 .0244089
1027.109 .0244097
1027.695 .0244091
1028.281 .0244084
1028.867 .0244076
1029.452 .0244083
1030.038 .0244105
1030.623 .0244147
1031.208 .0244207
1031.792 .0244284
1032.377 .0244368
1032.961 .0244451
1033.546 .0244530
1034.130 .0244608
1034.714 .0244672
1035.297 .0244730
1035.881 .0244780
1036.464 .0244834
1037.047 .0244891
1037.630 .0244950
1038.213 .0245014
1038.796 .0245088
1039.378 .0245161
1039.961 .0245235
1040.543 .0245302
1041.125 .0245363
1041.707 .0245413
1042.289 .0245451
1042.871 .0245481
1043.452 .0245510
1044.034 .0245539
1044.615 .0245573
1045.196 .0245618
1045.777 .0245681
1046.358 .0245750
1046.939 .0245822
1047.520 .0245896
1048.101 .0245960
1048.681 .0246010
1049.262 .0246047
1049.842 .0246071
1050.422 .0246079
1051.002 .0246080
1051.582 .0246069
1052.162 .0246055
1052.742 .0246044
1053.322 .0246034
1053.902 .0246024
1054.482 .0246018
1055.061 .0246013
1055.641 .0246004
1056.220 .0246000
1056.800 .0246001
1057.379 .0246002
1057.958 .0246018
1058.538 .0246043
1059.117 .0246078
1059.696 .0246125
1060.275 .0246191
1060.854 .0246266
1061.433 .0246348
1062.012 .0246421
1062.592 .0246489
1063.171 .0246554
1063.750 .0246609
1064.329 .0246649
1064.908 .0246675
1065.487 .0246690
1066.066 .0246691
1066.645 .0246680
1067.224 .0246667
1067.803 .0246644
1068.382 .0246625
1068.961 .0246598
1069.540 .0246565
1070.119 .0246527
1070.698 .0246485
1071.278 .0246439
1071.857 .0246399
1072.436 .0246358
1073.016 .0246308
1073.595 .0246264
1074.175 .0246236
1074.754 .0246221
1075.334 .0246213
1075.913 .0246209
1076.493 .0246213
1077.073 .0246221
1077.653 .0246236
1078.233 .0246246
1078.813 .0246258
1079.393 .0246271
1079.974 .0246275
1080.554 .0246262
1081.135 .0246237
1081.716 .0246199
1082.296 .0246137
1082.877 .0246053
1083.458 .0245951
1084.040 .0245819
1084.621 .0245661
1085.202 .0245494
1085.784 .0245319
1086.366 .0245128
1086.948 .0244930
1087.530 .0244738
1088.112 .0244569
1088.695 .0244426
1089.277 .0244306
1089.860 .0244210
1090.443 .0244147
1091.026 .0244109
1091.610 .0244075
1092.193 .0244056
1092.777 .0244050
1093.361 .0244038
1093.946 .0244020
1094.530 .0244008
1095.115 .0243998
1095.700 .0243981
1096.285 .0243973
1096.871 .0243966
1097.456 .0243946
1098.042 .0243907
1098.628 .0243849
1099.215 .0243758
1099.802 .0243646
1100.389 .0243503
1100.976 .0243324
1101.564 .0243139
1102.152 .0242959
1102.740 .0242789
1103.329 .0242655
1103.917 .0242566
1104.507 .0242508
1105.096 .0242466
1105.686 .0242458
1106.276 .0242462
1106.867 .0242473
1107.457 .0242491
1108.049 .0242525
1108.640 .0242580
1109.232 .0242685
1109.825 .0242847
1110.417 .0243066
1111.010 .0243365
1111.604 .0243707
1112.198 .0244067
1112.792 .0244426
1113.387 .0244749
1113.982 .0245038
1114.577 .0245287
1115.173 .0245519
1115.769 .0245700
1116.366 .0245848
1116.963 .0245982
1117.561 .0246071
1118.159 .0246118
1118.758 .0246101
1119.357 .0246011
1119.957 .0245848
1120.557 .0245631
1121.157 .0245349
1121.758 .0245049
1122.360 .0244767
1122.962 .0244501
1123.564 .0244269
1124.167 .0244094
1124.771 .0243973
1125.375 .0243904
1125.980 .0243927
1126.585 .0244028
1127.191 .0244185
1127.797 .0244422
1128.404 .0244708
1129.012 .0245052
1129.620 .0245447
1130.229 .0245885
1130.838 .0246322
1131.448 .0246779
1132.058 .0247243
1132.669 .0247675
1133.281 .0248101
1133.894 .0248541
1134.507 .0248996
1135.120 .0249447
1135.735 .0249877
1136.350 .0250277
1136.965 .0250656
1137.582 .0251015
1138.199 .0251337
1138.816 .0251627
1139.435 .0251958
1140.054 .0252333
1140.674 .0252800
1141.294 .0253137
1141.916 .0253659
1142.538 .0254821
1143.160 .0255388
1143.784 .0257120
1144.408 .0251244
1145.033 .0258023
