Measurement Sequence started on: 14-45-04-498
Integration time: 36
Scans to Average: 2 
>>>>>Begin Spectral Data<<<<<
433.946 .0411895
434.870 .0543279
435.793 .0493675
436.715 .0458500
437.635 .0446000
438.555 .0449684
439.473 .0444843
440.389 .0437565
441.305 .0433412
442.219 .0430986
443.132 .0429425
444.044 .0428416
444.954 .0427833
445.863 .0427609
446.771 .0427632
447.678 .0427657
448.584 .0427747
449.488 .0427607
450.391 .0427432
451.293 .0427045
452.194 .0426624
453.094 .0426079
453.992 .0425470
454.890 .0424689
455.786 .0423797
456.681 .0422724
457.575 .0421524
458.468 .0420113
459.360 .0418642
460.250 .0417182
461.140 .0415813
462.028 .0414635
462.915 .0413639
463.801 .0412743
464.687 .0411925
465.571 .0411026
466.454 .0410085
467.335 .0409043
468.216 .0407978
469.096 .0406875
469.975 .0405805
470.853 .0404803
471.729 .0403903
472.605 .0403097
473.479 .0402420
474.353 .0401798
475.226 .0401180
476.097 .0400501
476.968 .0399746
477.838 .0398883
478.706 .0398015
479.574 .0397097
480.441 .0396222
481.306 .0395381
482.171 .0394647
483.035 .0393972
483.898 .0393419
484.760 .0393005
485.621 .0392721
486.481 .0392520
487.340 .0392382
488.198 .0392241
489.055 .0392123
489.912 .0391968
490.767 .0391799
491.622 .0391606
492.476 .0391430
493.329 .0391247
494.180 .0391109
495.032 .0391000
495.882 .0390930
496.731 .0390826
497.580 .0390711
498.427 .0390494
499.274 .0390176
500.120 .0389759
500.965 .0389263
501.809 .0388713
502.653 .0388168
503.495 .0387635
504.337 .0387154
505.178 .0386723
506.018 .0386390
506.858 .0386093
507.696 .0385876
508.534 .0385690
509.371 .0385543
510.208 .0385438
511.043 .0385472
511.878 .0385547
512.712 .0385698
513.545 .0385895
514.377 .0386094
515.209 .0386244
516.040 .0386352
516.870 .0386372
517.699 .0386285
518.528 .0386110
519.356 .0385906
520.183 .0385549
521.010 .0385217
521.836 .0384804
522.661 .0384327
523.485 .0383781
524.309 .0383154
525.132 .0382310
525.954 .0381280
526.776 .0380152
527.597 .0378837
528.417 .0377378
529.237 .0375923
530.056 .0374444
530.874 .0373070
531.692 .0371824
532.508 .0370692
533.325 .0369665
534.140 .0368820
534.955 .0367996
535.770 .0367121
536.583 .0366223
537.397 .0365242
538.209 .0364214
539.021 .0363176
539.832 .0362219
540.643 .0361371
541.453 .0360748
542.262 .0360367
543.071 .0360166
543.879 .0360173
544.687 .0360322
545.494 .0360589
546.300 .0360927
547.106 .0361296
547.911 .0361717
548.716 .0362216
549.520 .0362798
550.323 .0363428
551.126 .0364118
551.929 .0364813
552.731 .0365414
553.532 .0365896
554.332 .0366212
555.133 .0366348
555.932 .0366277
556.731 .0366004
557.530 .0365594
558.328 .0365063
559.125 .0364467
559.922 .0363829
560.719 .0363184
561.515 .0362547
562.310 .0361903
563.105 .0361291
563.899 .0360688
564.693 .0360062
565.487 .0359423
566.280 .0358760
567.072 .0358094
567.864 .0357412
568.655 .0356736
569.446 .0356094
570.236 .0355478
571.026 .0354871
571.816 .0354306
572.605 .0353788
573.393 .0353326
574.181 .0352888
574.969 .0352442
575.756 .0352004
576.543 .0351533
577.329 .0351028
578.115 .0350511
578.900 .0349984
579.685 .0349469
580.469 .0348981
581.253 .0348539
582.036 .0348146
582.820 .0347802
583.602 .0347511
584.384 .0347260
585.166 .0347029
585.947 .0346781
586.728 .0346511
587.509 .0346222
588.289 .0345921
589.069 .0345597
589.848 .0345276
590.627 .0344975
591.405 .0344698
592.183 .0344452
592.961 .0344250
593.738 .0344068
594.515 .0343903
595.291 .0343733
596.067 .0343558
596.843 .0343353
597.618 .0343134
598.393 .0342893
599.167 .0342644
599.941 .0342381
600.715 .0342110
601.488 .0341823
602.261 .0341534
603.034 .0341225
603.806 .0340894
604.578 .0340546
605.349 .0340194
606.121 .0339829
606.891 .0339474
607.662 .0339125
608.432 .0338804
609.201 .0338501
609.971 .0338226
610.740 .0337961
611.508 .0337713
612.277 .0337473
613.045 .0337239
613.812 .0337011
614.579 .0336801
615.346 .0336598
616.113 .0336410
616.879 .0336237
617.645 .0336078
618.411 .0335920
619.176 .0335771
619.941 .0335619
620.705 .0335467
621.470 .0335301
622.233 .0335127
622.997 .0334941
623.760 .0334745
624.523 .0334533
625.286 .0334311
626.048 .0334081
626.810 .0333844
627.572 .0333600
628.333 .0333359
629.095 .0333127
629.855 .0332906
630.616 .0332693
631.376 .0332491
632.136 .0332297
632.895 .0332105
633.655 .0331902
634.414 .0331693
635.172 .0331469
635.931 .0331231
636.689 .0330990
637.447 .0330748
638.204 .0330517
638.962 .0330302
639.718 .0330110
640.475 .0329937
641.231 .0329781
641.988 .0329626
642.743 .0329463
643.499 .0329291
644.254 .0329091
645.009 .0328859
645.764 .0328603
646.518 .0328333
647.272 .0328051
648.026 .0327766
648.780 .0327486
649.533 .0327216
650.286 .0326963
651.039 .0326717
651.792 .0326478
652.544 .0326255
653.296 .0326039
654.048 .0325827
654.799 .0325622
655.550 .0325426
656.301 .0325234
657.052 .0325042
657.802 .0324855
658.552 .0324672
659.302 .0324488
660.052 .0324307
660.801 .0324130
661.550 .0323958
662.299 .0323785
663.048 .0323604
663.796 .0323418
664.544 .0323222
665.292 .0323009
666.040 .0322777
666.787 .0322536
667.534 .0322298
668.281 .0322067
669.028 .0321849
669.774 .0321659
670.521 .0321491
671.266 .0321344
672.012 .0321221
672.758 .0321115
673.503 .0321027
674.248 .0320952
674.992 .0320892
675.737 .0320847
676.481 .0320817
677.225 .0320799
677.969 .0320792
678.712 .0320792
679.455 .0320792
680.199 .0320780
680.941 .0320760
681.684 .0320730
682.426 .0320684
683.168 .0320624
683.910 .0320552
684.652 .0320467
685.393 .0320373
686.134 .0320264
686.875 .0320144
687.616 .0320012
688.356 .0319867
689.097 .0319703
689.837 .0319521
690.576 .0319319
691.316 .0319101
692.055 .0318869
692.794 .0318630
693.533 .0318390
694.272 .0318154
695.010 .0317935
695.748 .0317729
696.486 .0317535
697.224 .0317355
697.962 .0317179
698.699 .0317007
699.436 .0316830
700.173 .0316647
700.909 .0316460
701.646 .0316265
702.382 .0316073
703.118 .0315877
703.853 .0315687
704.589 .0315497
705.324 .0315312
706.059 .0315128
706.794 .0314944
707.529 .0314762
708.263 .0314585
708.997 .0314411
709.731 .0314234
710.465 .0314061
711.198 .0313890
711.931 .0313718
712.664 .0313546
713.397 .0313369
714.130 .0313195
714.862 .0313017
715.594 .0312844
716.326 .0312672
717.058 .0312513
717.789 .0312363
718.520 .0312217
719.251 .0312072
719.982 .0311922
720.713 .0311766
721.443 .0311605
722.173 .0311441
722.903 .0311278
723.633 .0311120
724.362 .0310976
725.091 .0310849
725.820 .0310743
726.549 .0310663
727.278 .0310603
728.006 .0310563
728.734 .0310534
729.462 .0310508
730.190 .0310485
730.917 .0310461
731.644 .0310436
732.371 .0310406
733.098 .0310371
733.825 .0310332
734.551 .0310284
735.277 .0310229
736.003 .0310162
736.728 .0310080
737.454 .0309983
738.179 .0309874
738.904 .0309757
739.629 .0309634
740.353 .0309512
741.077 .0309399
741.801 .0309297
742.525 .0309201
743.249 .0309116
743.972 .0309040
744.695 .0308972
745.418 .0308911
746.141 .0308860
746.863 .0308822
747.585 .0308797
748.307 .0308782
749.029 .0308772
749.750 .0308768
750.472 .0308765
751.193 .0308747
751.913 .0308717
752.634 .0308671
753.354 .0308604
754.074 .0308516
754.794 .0308411
755.514 .0308287
756.233 .0308147
756.952 .0307993
757.671 .0307824
758.390 .0307643
759.108 .0307450
759.826 .0307247
760.544 .0307043
761.262 .0306842
761.979 .0306639
762.697 .0306443
763.414 .0306260
764.130 .0306090
764.847 .0305930
765.563 .0305782
766.279 .0305643
766.995 .0305513
767.710 .0305386
768.426 .0305258
769.141 .0305136
769.855 .0305021
770.570 .0304905
771.284 .0304794
771.998 .0304686
772.712 .0304578
773.426 .0304470
774.139 .0304363
774.852 .0304250
775.565 .0304132
776.277 .0304002
776.990 .0303856
777.702 .0303697
778.414 .0303526
779.125 .0303340
779.836 .0303147
780.547 .0302956
781.258 .0302761
781.969 .0302570
782.679 .0302391
783.389 .0302221
784.099 .0302066
784.808 .0301927
785.517 .0301803
786.226 .0301696
786.935 .0301598
787.643 .0301505
788.352 .0301424
789.060 .0301354
789.767 .0301285
790.475 .0301218
791.182 .0301156
791.889 .0301100
792.595 .0301043
793.301 .0300992
794.008 .0300942
794.713 .0300892
795.419 .0300837
796.124 .0300763
796.829 .0300674
797.534 .0300571
798.238 .0300452
798.942 .0300330
799.646 .0300211
800.350 .0300100
801.053 .0300002
801.756 .0299924
802.459 .0299866
803.162 .0299822
803.864 .0299787
804.566 .0299761
805.267 .0299734
805.969 .0299708
806.670 .0299682
807.371 .0299665
808.071 .0299672
808.772 .0299697
809.472 .0299740
810.171 .0299795
810.871 .0299859
811.570 .0299918
812.269 .0299967
812.967 .0299998
813.666 .0300009
814.364 .0299998
815.061 .0299973
815.759 .0299936
816.456 .0299900
817.153 .0299865
817.849 .0299830
818.545 .0299794
819.241 .0299752
819.937 .0299694
820.632 .0299626
821.327 .0299544
822.022 .0299452
822.717 .0299345
823.411 .0299234
824.105 .0299117
824.798 .0299000
825.491 .0298882
826.184 .0298767
826.877 .0298652
827.569 .0298540
828.261 .0298426
828.953 .0298311
829.645 .0298198
830.336 .0298090
831.027 .0297983
831.717 .0297882
832.407 .0297786
833.097 .0297694
833.787 .0297601
834.476 .0297515
835.165 .0297424
835.854 .0297332
836.542 .0297239
837.230 .0297147
837.918 .0297051
838.605 .0296962
839.292 .0296876
839.979 .0296788
840.665 .0296703
841.352 .0296607
842.037 .0296492
842.723 .0296363
843.408 .0296212
844.093 .0296039
844.777 .0295848
845.462 .0295648
846.145 .0295434
846.829 .0295214
847.512 .0294989
848.195 .0294759
848.878 .0294519
849.560 .0294274
850.242 .0294012
850.923 .0293736
851.605 .0293456
852.286 .0293166
852.966 .0292877
853.646 .0292595
854.326 .0292319
855.006 .0292051
855.685 .0291787
856.364 .0291528
857.043 .0291268
857.721 .0291014
858.399 .0290771
859.077 .0290536
859.754 .0290320
860.431 .0290122
861.107 .0289943
861.784 .0289784
862.459 .0289637
863.135 .0289491
863.810 .0289348
864.485 .0289203
865.160 .0289057
865.834 .0288910
866.508 .0288770
867.181 .0288639
867.854 .0288519
868.527 .0288407
869.199 .0288294
869.872 .0288173
870.543 .0288048
871.215 .0287904
871.886 .0287745
872.557 .0287570
873.227 .0287387
873.897 .0287202
874.567 .0287024
875.236 .0286855
875.905 .0286699
876.573 .0286558
877.242 .0286433
877.909 .0286312
878.577 .0286198
879.244 .0286086
879.911 .0285975
880.577 .0285871
881.243 .0285772
881.909 .0285677
882.575 .0285592
883.240 .0285521
883.904 .0285471
884.569 .0285438
885.232 .0285425
885.896 .0285430
886.559 .0285450
887.222 .0285482
887.885 .0285517
888.547 .0285551
889.208 .0285584
889.870 .0285615
890.531 .0285635
891.192 .0285652
891.852 .0285666
892.512 .0285688
893.171 .0285717
893.830 .0285754
894.489 .0285795
895.148 .0285837
895.806 .0285877
896.464 .0285912
897.121 .0285942
897.778 .0285969
898.434 .0285992
899.091 .0286018
899.747 .0286046
900.402 .0286080
901.057 .0286123
901.712 .0286173
902.366 .0286224
903.020 .0286274
903.674 .0286313
904.327 .0286343
904.980 .0286371
905.633 .0286395
906.285 .0286419
906.936 .0286448
907.588 .0286478
908.239 .0286504
908.889 .0286527
909.540 .0286540
910.190 .0286537
910.839 .0286521
911.488 .0286490
912.137 .0286442
912.785 .0286386
913.433 .0286329
914.081 .0286269
914.728 .0286213
915.375 .0286159
916.021 .0286092
916.668 .0286007
917.313 .0285899
917.959 .0285764
918.604 .0285598
919.248 .0285406
919.892 .0285192
920.536 .0284961
921.180 .0284726
921.823 .0284485
922.465 .0284245
923.108 .0284011
923.750 .0283787
924.391 .0283562
925.032 .0283341
925.673 .0283124
926.313 .0282909
926.953 .0282700
927.593 .0282499
928.232 .0282301
928.871 .0282110
929.510 .0281924
930.148 .0281740
930.786 .0281558
931.423 .0281376
932.060 .0281190
932.697 .0281002
933.333 .0280805
933.969 .0280597
934.604 .0280380
935.239 .0280158
935.874 .0279932
936.508 .0279702
937.142 .0279469
937.776 .0279238
938.409 .0279008
939.042 .0278772
939.674 .0278527
940.306 .0278275
940.938 .0278014
941.569 .0277746
942.200 .0277479
942.830 .0277208
943.460 .0276945
944.090 .0276689
944.720 .0276435
945.349 .0276180
945.977 .0275926
946.606 .0275658
947.233 .0275378
947.861 .0275086
948.488 .0274781
949.115 .0274471
949.741 .0274171
950.367 .0273881
950.993 .0273606
951.618 .0273348
952.243 .0273100
952.868 .0272854
953.492 .0272612
954.115 .0272362
954.739 .0272105
955.362 .0271847
955.984 .0271593
956.607 .0271342
957.229 .0271111
957.850 .0270905
958.471 .0270719
959.092 .0270553
959.713 .0270395
960.333 .0270240
960.952 .0270087
961.572 .0269931
962.191 .0269769
962.809 .0269607
963.428 .0269454
964.045 .0269301
964.663 .0269156
965.280 .0269018
965.897 .0268885
966.513 .0268752
967.129 .0268620
967.745 .0268479
968.361 .0268331
968.976 .0268177
969.590 .0268019
970.205 .0267860
970.818 .0267704
971.432 .0267555
972.045 .0267419
972.658 .0267302
973.271 .0267198
973.883 .0267101
974.495 .0267012
975.106 .0266923
975.717 .0266835
976.328 .0266736
976.938 .0266635
977.548 .0266536
978.158 .0266439
978.768 .0266343
979.377 .0266254
979.985 .0266167
980.594 .0266088
981.202 .0266014
981.809 .0265936
982.417 .0265856
983.024 .0265771
983.631 .0265687
984.237 .0265603
984.843 .0265521
985.449 .0265441
986.054 .0265362
986.659 .0265296
987.264 .0265236
987.868 .0265178
988.472 .0265136
989.076 .0265110
989.679 .0265102
990.282 .0265107
990.885 .0265125
991.487 .0265153
992.090 .0265193
992.691 .0265234
993.293 .0265277
993.894 .0265320
994.495 .0265372
995.095 .0265429
995.696 .0265490
996.296 .0265565
996.895 .0265638
997.494 .0265711
998.093 .0265788
998.692 .0265854
999.291 .0265908
999.889 .0265947
1000.487 .0265975
1001.084 .0265995
1001.681 .0266005
1002.278 .0266016
1002.875 .0266030
1003.471 .0266052
1004.067 .0266083
1004.663 .0266116
1005.258 .0266156
1005.854 .0266205
1006.449 .0266255
1007.043 .0266307
1007.638 .0266365
1008.232 .0266427
1008.826 .0266497
1009.419 .0266580
1010.012 .0266686
1010.605 .0266805
1011.198 .0266938
1011.791 .0267079
1012.383 .0267217
1012.975 .0267351
1013.566 .0267474
1014.158 .0267582
1014.749 .0267681
1015.340 .0267779
1015.931 .0267874
1016.521 .0267973
1017.111 .0268085
1017.701 .0268194
1018.291 .0268295
1018.880 .0268388
1019.470 .0268456
1020.059 .0268496
1020.647 .0268510
1021.236 .0268509
1021.824 .0268496
1022.412 .0268488
1023.000 .0268487
1023.588 .0268492
1024.175 .0268506
1024.762 .0268527
1025.349 .0268540
1025.936 .0268553
1026.523 .0268554
1027.109 .0268555
1027.695 .0268555
1028.281 .0268574
1028.867 .0268601
1029.452 .0268639
1030.038 .0268691
1030.623 .0268753
1031.208 .0268815
1031.792 .0268883
1032.377 .0268947
1032.961 .0269014
1033.546 .0269081
1034.130 .0269145
1034.714 .0269199
1035.297 .0269255
1035.881 .0269299
1036.464 .0269329
1037.047 .0269328
1037.630 .0269307
1038.213 .0269260
1038.796 .0269200
1039.378 .0269141
1039.961 .0269082
1040.543 .0269024
1041.125 .0268956
1041.707 .0268880
1042.289 .0268786
1042.871 .0268660
1043.452 .0268513
1044.034 .0268343
1044.615 .0268164
1045.196 .0267977
1045.777 .0267799
1046.358 .0267644
1046.939 .0267524
1047.520 .0267439
1048.101 .0267363
1048.681 .0267298
1049.262 .0267230
1049.842 .0267140
1050.422 .0267037
1051.002 .0266936
1051.582 .0266827
1052.162 .0266722
1052.742 .0266644
1053.322 .0266582
1053.902 .0266545
1054.482 .0266534
1055.061 .0266529
1055.641 .0266526
1056.220 .0266527
1056.800 .0266511
1057.379 .0266476
1057.958 .0266445
1058.538 .0266409
1059.117 .0266375
1059.696 .0266359
1060.275 .0266347
1060.854 .0266343
1061.433 .0266348
1062.012 .0266353
1062.592 .0266342
1063.171 .0266313
1063.750 .0266257
1064.329 .0266164
1064.908 .0266042
1065.487 .0265880
1066.066 .0265694
1066.645 .0265494
1067.224 .0265274
1067.803 .0265027
1068.382 .0264755
1068.961 .0264456
1069.540 .0264140
1070.119 .0263818
1070.698 .0263485
1071.278 .0263172
1071.857 .0262884
1072.436 .0262626
1073.016 .0262418
1073.595 .0262249
1074.175 .0262127
1074.754 .0262032
1075.334 .0261961
1075.913 .0261888
1076.493 .0261813
1077.073 .0261747
1077.653 .0261686
1078.233 .0261657
1078.813 .0261657
1079.393 .0261669
1079.974 .0261714
1080.554 .0261772
1081.135 .0261814
1081.716 .0261845
1082.296 .0261841
1082.877 .0261790
1083.458 .0261679
1084.040 .0261511
1084.621 .0261300
1085.202 .0261063
1085.784 .0260827
1086.366 .0260594
1086.948 .0260382
1087.530 .0260216
1088.112 .0260070
1088.695 .0259974
1089.277 .0259909
1089.860 .0259853
1090.443 .0259778
1091.026 .0259673
1091.610 .0259522
1092.193 .0259344
1092.777 .0259148
1093.361 .0258971
1093.946 .0258821
1094.530 .0258729
1095.115 .0258688
1095.700 .0258696
1096.285 .0258759
1096.871 .0258841
1097.456 .0258927
1098.042 .0258989
1098.628 .0259005
1099.215 .0258997
1099.802 .0258955
1100.389 .0258927
1100.976 .0258923
1101.564 .0258955
1102.152 .0259028
1102.740 .0259132
1103.329 .0259252
1103.917 .0259359
1104.507 .0259444
1105.096 .0259472
1105.686 .0259448
1106.276 .0259366
1106.867 .0259248
1107.457 .0259110
1108.049 .0258977
1108.640 .0258845
1109.232 .0258719
1109.825 .0258630
1110.417 .0258559
1111.010 .0258502
1111.604 .0258468
1112.198 .0258450
1112.792 .0258444
1113.387 .0258452
1113.982 .0258488
1114.577 .0258546
1115.173 .0258660
1115.769 .0258820
1116.366 .0259028
1116.963 .0259279
1117.561 .0259553
1118.159 .0259828
1118.758 .0260121
1119.357 .0260389
1119.957 .0260611
1120.557 .0260826
1121.157 .0261031
1121.758 .0261203
1122.360 .0261379
1122.962 .0261539
1123.564 .0261694
1124.167 .0261867
1124.771 .0262030
1125.375 .0262171
1125.980 .0262321
1126.585 .0262456
1127.191 .0262575
1127.797 .0262740
1128.404 .0262964
1129.012 .0263189
1129.620 .0263494
1130.229 .0263863
1130.838 .0264238
1131.448 .0264630
1132.058 .0265012
1132.669 .0265394
1133.281 .0265783
1133.894 .0266141
1134.507 .0266475
1135.120 .0266816
1135.735 .0267168
1136.350 .0267471
1136.965 .0267762
1137.582 .0268039
1138.199 .0268262
1138.816 .0268455
1139.435 .0268568
1140.054 .0268708
1140.674 .0268782
1141.294 .0268823
1141.916 .0268833
1142.538 .0267714
1143.160 .0270213
1143.784 .0267928
1144.408 .0268417
1145.033 .0268761
