Measurement Sequence started on: 14-45-04-498
Integration time: 36
Scans to Average: 2 
>>>>>Begin Spectral Data<<<<<
433.946 .0649657
434.870 .0588708
435.793 .0533892
436.715 .0517980
437.635 .0515647
438.555 .0518710
439.473 .0508477
440.389 .0501981
441.305 .0497968
442.219 .0494856
443.132 .0492327
444.044 .0490426
444.954 .0489192
445.863 .0488304
446.771 .0487613
447.678 .0486947
448.584 .0486245
449.488 .0485330
450.391 .0484075
451.293 .0482601
452.194 .0481016
453.094 .0479296
453.992 .0477559
454.890 .0475863
455.786 .0474192
456.681 .0472547
457.575 .0470952
458.468 .0469341
459.360 .0467799
460.250 .0466387
461.140 .0464989
462.028 .0463679
462.915 .0462502
463.801 .0461383
464.687 .0460351
465.571 .0459413
466.454 .0458510
467.335 .0457649
468.216 .0456862
469.096 .0456081
469.975 .0455310
470.853 .0454583
471.729 .0453840
472.605 .0453077
473.479 .0452291
474.353 .0451398
475.226 .0450409
476.097 .0449383
476.968 .0448293
477.838 .0447155
478.706 .0446026
479.574 .0444921
480.441 .0443914
481.306 .0443018
482.171 .0442193
483.035 .0441432
483.898 .0440754
484.760 .0440103
485.621 .0439458
486.481 .0438835
487.340 .0438252
488.198 .0437722
489.055 .0437243
489.912 .0436791
490.767 .0436385
491.622 .0436015
492.476 .0435656
493.329 .0435308
494.180 .0434948
495.032 .0434536
495.882 .0434100
496.731 .0433623
497.580 .0433128
498.427 .0432618
499.274 .0432092
500.120 .0431550
500.965 .0430989
501.809 .0430375
502.653 .0429700
503.495 .0429025
504.337 .0428338
505.178 .0427619
506.018 .0426914
506.858 .0426194
507.696 .0425497
508.534 .0424824
509.371 .0424177
510.208 .0423542
511.043 .0422919
511.878 .0422310
512.712 .0421690
513.545 .0421106
514.377 .0420560
515.209 .0420041
516.040 .0419614
516.870 .0419271
517.699 .0419014
518.528 .0418819
519.356 .0418724
520.183 .0418660
521.010 .0418584
521.836 .0418507
522.661 .0418370
523.485 .0418098
524.309 .0417724
525.132 .0417216
525.954 .0416558
526.776 .0415796
527.597 .0414945
528.417 .0413956
529.237 .0412933
530.056 .0411802
530.874 .0410535
531.692 .0409211
532.508 .0407839
533.325 .0406335
534.140 .0404824
534.955 .0403386
535.770 .0401987
536.583 .0400694
537.397 .0399682
538.209 .0398886
539.021 .0398366
539.832 .0398098
540.643 .0398021
541.453 .0398093
542.262 .0398298
543.071 .0398459
543.879 .0398559
544.687 .0398618
545.494 .0398571
546.300 .0398363
547.106 .0398088
547.911 .0397751
548.716 .0397409
549.520 .0397045
550.323 .0396718
551.126 .0396400
551.929 .0396133
552.731 .0395878
553.532 .0395630
554.332 .0395348
555.133 .0395046
555.932 .0394702
556.731 .0394341
557.530 .0393932
558.328 .0393517
559.125 .0393088
559.922 .0392650
560.719 .0392221
561.515 .0391805
562.310 .0391378
563.105 .0390995
563.899 .0390607
564.693 .0390243
565.487 .0389868
566.280 .0389464
567.072 .0389006
567.864 .0388509
568.655 .0387938
569.446 .0387308
570.236 .0386638
571.026 .0385972
571.816 .0385320
572.605 .0384711
573.393 .0384158
574.181 .0383672
574.969 .0383246
575.756 .0382834
576.543 .0382400
577.329 .0381969
578.115 .0381499
578.900 .0381008
579.685 .0380511
580.469 .0380017
581.253 .0379553
582.036 .0379121
582.820 .0378743
583.602 .0378427
584.384 .0378161
585.166 .0377922
585.947 .0377702
586.728 .0377493
587.509 .0377278
588.289 .0377046
589.069 .0376814
589.848 .0376576
590.627 .0376333
591.405 .0376078
592.183 .0375823
592.961 .0375576
593.738 .0375339
594.515 .0375091
595.291 .0374846
596.067 .0374593
596.843 .0374321
597.618 .0374032
598.393 .0373742
599.167 .0373436
599.941 .0373116
600.715 .0372785
601.488 .0372456
602.261 .0372125
603.034 .0371803
603.806 .0371491
604.578 .0371191
605.349 .0370899
606.121 .0370620
606.891 .0370348
607.662 .0370090
608.432 .0369841
609.201 .0369604
609.971 .0369376
610.740 .0369166
611.508 .0368965
612.277 .0368776
613.045 .0368606
613.812 .0368451
614.579 .0368289
615.346 .0368130
616.113 .0367966
616.879 .0367799
617.645 .0367631
618.411 .0367465
619.176 .0367302
619.941 .0367147
620.705 .0366998
621.470 .0366845
622.233 .0366680
622.997 .0366506
623.760 .0366303
624.523 .0366077
625.286 .0365821
626.048 .0365541
626.810 .0365247
627.572 .0364948
628.333 .0364651
629.095 .0364355
629.855 .0364059
630.616 .0363770
631.376 .0363481
632.136 .0363190
632.895 .0362895
633.655 .0362607
634.414 .0362326
635.172 .0362053
635.931 .0361788
636.689 .0361535
637.447 .0361292
638.204 .0361060
638.962 .0360832
639.718 .0360608
640.475 .0360392
641.231 .0360171
641.988 .0359946
642.743 .0359716
643.499 .0359469
644.254 .0359205
645.009 .0358923
645.764 .0358626
646.518 .0358314
647.272 .0357997
648.026 .0357685
648.780 .0357377
649.533 .0357080
650.286 .0356789
651.039 .0356501
651.792 .0356221
652.544 .0355940
653.296 .0355657
654.048 .0355383
654.799 .0355124
655.550 .0354879
656.301 .0354655
657.052 .0354456
657.802 .0354282
658.552 .0354123
659.302 .0353981
660.052 .0353843
660.801 .0353707
661.550 .0353577
662.299 .0353446
663.048 .0353315
663.796 .0353196
664.544 .0353080
665.292 .0352967
666.040 .0352853
666.787 .0352734
667.534 .0352606
668.281 .0352469
669.028 .0352323
669.774 .0352166
670.521 .0351999
671.266 .0351830
672.012 .0351652
672.758 .0351471
673.503 .0351284
674.248 .0351090
674.992 .0350890
675.737 .0350682
676.481 .0350467
677.225 .0350248
677.969 .0350028
678.712 .0349816
679.455 .0349614
680.199 .0349422
680.941 .0349245
681.684 .0349081
682.426 .0348926
683.168 .0348779
683.910 .0348636
684.652 .0348492
685.393 .0348351
686.134 .0348211
686.875 .0348070
687.616 .0347933
688.356 .0347807
689.097 .0347688
689.837 .0347568
690.576 .0347448
691.316 .0347318
692.055 .0347175
692.794 .0347020
693.533 .0346851
694.272 .0346670
695.010 .0346485
695.748 .0346299
696.486 .0346107
697.224 .0345918
697.962 .0345725
698.699 .0345527
699.436 .0345324
700.173 .0345110
700.909 .0344883
701.646 .0344648
702.382 .0344415
703.118 .0344182
703.853 .0343956
704.589 .0343742
705.324 .0343533
706.059 .0343336
706.794 .0343138
707.529 .0342937
708.263 .0342732
708.997 .0342524
709.731 .0342305
710.465 .0342085
711.198 .0341867
711.931 .0341650
712.664 .0341443
713.397 .0341244
714.130 .0341047
714.862 .0340856
715.594 .0340665
716.326 .0340470
717.058 .0340269
717.789 .0340064
718.520 .0339843
719.251 .0339618
719.982 .0339387
720.713 .0339151
721.443 .0338911
722.173 .0338676
722.903 .0338440
723.633 .0338209
724.362 .0337982
725.091 .0337759
725.820 .0337540
726.549 .0337326
727.278 .0337110
728.006 .0336899
728.734 .0336693
729.462 .0336491
730.190 .0336295
730.917 .0336112
731.644 .0335938
732.371 .0335776
733.098 .0335629
733.825 .0335494
734.551 .0335367
735.277 .0335245
736.003 .0335121
736.728 .0334993
737.454 .0334860
738.179 .0334719
738.904 .0334571
739.629 .0334420
740.353 .0334269
741.077 .0334115
741.801 .0333965
742.525 .0333816
743.249 .0333666
743.972 .0333518
744.695 .0333372
745.418 .0333222
746.141 .0333072
746.863 .0332926
747.585 .0332785
748.307 .0332647
749.029 .0332517
749.750 .0332389
750.472 .0332269
751.193 .0332152
751.913 .0332035
752.634 .0331911
753.354 .0331787
754.074 .0331658
754.794 .0331519
755.514 .0331372
756.233 .0331213
756.952 .0331038
757.671 .0330852
758.390 .0330650
759.108 .0330436
759.826 .0330215
760.544 .0329993
761.262 .0329775
761.979 .0329565
762.697 .0329366
763.414 .0329176
764.130 .0329002
764.847 .0328839
765.563 .0328682
766.279 .0328532
766.995 .0328391
767.710 .0328260
768.426 .0328142
769.141 .0328035
769.855 .0327936
770.570 .0327843
771.284 .0327747
771.998 .0327645
772.712 .0327534
773.426 .0327410
774.139 .0327273
774.852 .0327122
775.565 .0326963
776.277 .0326796
776.990 .0326625
777.702 .0326453
778.414 .0326278
779.125 .0326101
779.836 .0325918
780.547 .0325731
781.258 .0325539
781.969 .0325348
782.679 .0325159
783.389 .0324972
784.099 .0324789
784.808 .0324612
785.517 .0324442
786.226 .0324279
786.935 .0324118
787.643 .0323961
788.352 .0323809
789.060 .0323665
789.767 .0323523
790.475 .0323389
791.182 .0323258
791.889 .0323131
792.595 .0323004
793.301 .0322873
794.008 .0322737
794.713 .0322601
795.419 .0322467
796.124 .0322336
796.829 .0322207
797.534 .0322084
798.238 .0321963
798.942 .0321850
799.646 .0321737
800.350 .0321621
801.053 .0321502
801.756 .0321381
802.459 .0321253
803.162 .0321125
803.864 .0320996
804.566 .0320867
805.267 .0320739
805.969 .0320608
806.670 .0320470
807.371 .0320330
808.071 .0320190
808.772 .0320052
809.472 .0319912
810.171 .0319777
810.871 .0319644
811.570 .0319514
812.269 .0319391
812.967 .0319268
813.666 .0319145
814.364 .0319019
815.061 .0318892
815.759 .0318765
816.456 .0318642
817.153 .0318526
817.849 .0318415
818.545 .0318311
819.241 .0318206
819.937 .0318095
820.632 .0317975
821.327 .0317843
822.022 .0317694
822.717 .0317531
823.411 .0317356
824.105 .0317168
824.798 .0316978
825.491 .0316781
826.184 .0316579
826.877 .0316376
827.569 .0316168
828.261 .0315956
828.953 .0315743
829.645 .0315529
830.336 .0315317
831.027 .0315110
831.717 .0314908
832.407 .0314712
833.097 .0314527
833.787 .0314349
834.476 .0314175
835.165 .0314009
835.854 .0313849
836.542 .0313687
837.230 .0313525
837.918 .0313365
838.605 .0313200
839.292 .0313036
839.979 .0312871
840.665 .0312705
841.352 .0312544
842.037 .0312388
842.723 .0312236
843.408 .0312089
844.093 .0311946
844.777 .0311801
845.462 .0311655
846.145 .0311508
846.829 .0311355
847.512 .0311201
848.195 .0311050
848.878 .0310904
849.560 .0310764
850.242 .0310630
850.923 .0310494
851.605 .0310357
852.286 .0310213
852.966 .0310055
853.646 .0309883
854.326 .0309700
855.006 .0309505
855.685 .0309305
856.364 .0309100
857.043 .0308895
857.721 .0308694
858.399 .0308494
859.077 .0308294
859.754 .0308092
860.431 .0307887
861.107 .0307685
861.784 .0307484
862.459 .0307293
863.135 .0307111
863.810 .0306944
864.485 .0306793
865.160 .0306656
865.834 .0306537
866.508 .0306433
867.181 .0306341
867.854 .0306260
868.527 .0306183
869.199 .0306105
869.872 .0306029
870.543 .0305950
871.215 .0305866
871.886 .0305781
872.557 .0305690
873.227 .0305592
873.897 .0305489
874.567 .0305382
875.236 .0305275
875.905 .0305167
876.573 .0305066
877.242 .0304960
877.909 .0304859
878.577 .0304758
879.244 .0304653
879.911 .0304551
880.577 .0304449
881.243 .0304344
881.909 .0304241
882.575 .0304135
883.240 .0304031
883.904 .0303925
884.569 .0303823
885.232 .0303715
885.896 .0303604
886.559 .0303486
887.222 .0303354
887.885 .0303212
888.547 .0303069
889.208 .0302921
889.870 .0302774
890.531 .0302636
891.192 .0302504
891.852 .0302384
892.512 .0302277
893.171 .0302183
893.830 .0302102
894.489 .0302030
895.148 .0301965
895.806 .0301900
896.464 .0301843
897.121 .0301789
897.778 .0301736
898.434 .0301690
899.091 .0301644
899.747 .0301593
900.402 .0301537
901.057 .0301474
901.712 .0301405
902.366 .0301322
903.020 .0301227
903.674 .0301118
904.327 .0300998
904.980 .0300866
905.633 .0300725
906.285 .0300576
906.936 .0300424
907.588 .0300266
908.239 .0300100
908.889 .0299931
909.540 .0299756
910.190 .0299572
910.839 .0299378
911.488 .0299175
912.137 .0298966
912.785 .0298747
913.433 .0298527
914.081 .0298303
914.728 .0298078
915.375 .0297850
916.021 .0297623
916.668 .0297395
917.313 .0297168
917.959 .0296941
918.604 .0296717
919.248 .0296502
919.892 .0296295
920.536 .0296096
921.180 .0295912
921.823 .0295737
922.465 .0295567
923.108 .0295396
923.750 .0295223
924.391 .0295045
925.032 .0294861
925.673 .0294673
926.313 .0294482
926.953 .0294290
927.593 .0294098
928.232 .0293907
928.871 .0293720
929.510 .0293533
930.148 .0293344
930.786 .0293149
931.423 .0292949
932.060 .0292745
932.697 .0292536
933.333 .0292327
933.969 .0292120
934.604 .0291917
935.239 .0291718
935.874 .0291523
936.508 .0291333
937.142 .0291148
937.776 .0290965
938.409 .0290782
939.042 .0290600
939.674 .0290415
940.306 .0290226
940.938 .0290037
941.569 .0289848
942.200 .0289659
942.830 .0289471
943.460 .0289288
944.090 .0289107
944.720 .0288927
945.349 .0288754
945.977 .0288583
946.606 .0288419
947.233 .0288258
947.861 .0288098
948.488 .0287942
949.115 .0287790
949.741 .0287645
950.367 .0287504
950.993 .0287369
951.618 .0287239
952.243 .0287109
952.868 .0286983
953.492 .0286859
954.115 .0286738
954.739 .0286623
955.362 .0286515
955.984 .0286413
956.607 .0286320
957.229 .0286233
957.850 .0286152
958.471 .0286070
959.092 .0285986
959.713 .0285894
960.333 .0285787
960.952 .0285672
961.572 .0285553
962.191 .0285431
962.809 .0285316
963.428 .0285206
964.045 .0285106
964.663 .0285016
965.280 .0284933
965.897 .0284854
966.513 .0284779
967.129 .0284708
967.745 .0284635
968.361 .0284561
968.976 .0284491
969.590 .0284423
970.205 .0284365
970.818 .0284319
971.432 .0284285
972.045 .0284264
972.658 .0284255
973.271 .0284255
973.883 .0284260
974.495 .0284263
975.106 .0284256
975.717 .0284234
976.328 .0284192
976.938 .0284128
977.548 .0284046
978.158 .0283959
978.768 .0283870
979.377 .0283786
979.985 .0283709
980.594 .0283637
981.202 .0283571
981.809 .0283508
982.417 .0283438
983.024 .0283366
983.631 .0283292
984.237 .0283214
984.843 .0283135
985.449 .0283060
986.054 .0282991
986.659 .0282931
987.264 .0282881
987.868 .0282837
988.472 .0282799
989.076 .0282771
989.679 .0282748
990.282 .0282732
990.885 .0282721
991.487 .0282709
992.090 .0282690
992.691 .0282664
993.293 .0282625
993.894 .0282573
994.495 .0282510
995.095 .0282442
995.696 .0282367
996.296 .0282293
996.895 .0282223
997.494 .0282155
998.093 .0282092
998.692 .0282026
999.291 .0281956
999.889 .0281872
1000.487 .0281779
1001.084 .0281674
1001.681 .0281556
1002.278 .0281431
1002.875 .0281301
1003.471 .0281166
1004.067 .0281034
1004.663 .0280907
1005.258 .0280781
1005.854 .0280659
1006.449 .0280542
1007.043 .0280420
1007.638 .0280297
1008.232 .0280167
1008.826 .0280029
1009.419 .0279880
1010.012 .0279728
1010.605 .0279567
1011.198 .0279402
1011.791 .0279241
1012.383 .0279082
1012.975 .0278928
1013.566 .0278781
1014.158 .0278635
1014.749 .0278497
1015.340 .0278368
1015.931 .0278247
1016.521 .0278139
1017.111 .0278051
1017.701 .0277972
1018.291 .0277908
1018.880 .0277860
1019.470 .0277824
1020.059 .0277791
1020.647 .0277767
1021.236 .0277744
1021.824 .0277730
1022.412 .0277722
1023.000 .0277718
1023.588 .0277719
1024.175 .0277723
1024.762 .0277713
1025.349 .0277683
1025.936 .0277635
1026.523 .0277559
1027.109 .0277456
1027.695 .0277340
1028.281 .0277213
1028.867 .0277083
1029.452 .0276959
1030.038 .0276848
1030.623 .0276739
1031.208 .0276644
1031.792 .0276548
1032.377 .0276451
1032.961 .0276358
1033.546 .0276268
1034.130 .0276186
1034.714 .0276120
1035.297 .0276075
1035.881 .0276045
1036.464 .0276034
1037.047 .0276043
1037.630 .0276057
1038.213 .0276079
1038.796 .0276108
1039.378 .0276135
1039.961 .0276157
1040.543 .0276179
1041.125 .0276191
1041.707 .0276187
1042.289 .0276166
1042.871 .0276124
1043.452 .0276074
1044.034 .0276009
1044.615 .0275939
1045.196 .0275871
1045.777 .0275818
1046.358 .0275775
1046.939 .0275740
1047.520 .0275721
1048.101 .0275708
1048.681 .0275696
1049.262 .0275680
1049.842 .0275659
1050.422 .0275643
1051.002 .0275626
1051.582 .0275619
1052.162 .0275628
1052.742 .0275648
1053.322 .0275675
1053.902 .0275708
1054.482 .0275746
1055.061 .0275787
1055.641 .0275820
1056.220 .0275846
1056.800 .0275869
1057.379 .0275882
1057.958 .0275884
1058.538 .0275876
1059.117 .0275871
1059.696 .0275871
1060.275 .0275873
1060.854 .0275882
1061.433 .0275891
1062.012 .0275910
1062.592 .0275939
1063.171 .0275964
1063.750 .0275988
1064.329 .0276000
1064.908 .0275991
1065.487 .0275956
1066.066 .0275905
1066.645 .0275836
1067.224 .0275761
1067.803 .0275690
1068.382 .0275625
1068.961 .0275569
1069.540 .0275539
1070.119 .0275523
1070.698 .0275532
1071.278 .0275562
1071.857 .0275602
1072.436 .0275631
1073.016 .0275650
1073.595 .0275658
1074.175 .0275652
1074.754 .0275637
1075.334 .0275615
1075.913 .0275585
1076.493 .0275557
1077.073 .0275528
1077.653 .0275505
1078.233 .0275495
1078.813 .0275496
1079.393 .0275487
1079.974 .0275487
1080.554 .0275496
1081.135 .0275518
1081.716 .0275548
1082.296 .0275597
1082.877 .0275676
1083.458 .0275762
1084.040 .0275853
1084.621 .0275947
1085.202 .0276054
1085.784 .0276181
1086.366 .0276325
1086.948 .0276481
1087.530 .0276647
1088.112 .0276824
1088.695 .0276994
1089.277 .0277142
1089.860 .0277256
1090.443 .0277305
1091.026 .0277294
1091.610 .0277237
1092.193 .0277148
1092.777 .0277018
1093.361 .0276905
1093.946 .0276811
1094.530 .0276734
1095.115 .0276651
1095.700 .0276566
1096.285 .0276470
1096.871 .0276363
1097.456 .0276221
1098.042 .0276041
1098.628 .0275853
1099.215 .0275688
1099.802 .0275545
1100.389 .0275444
1100.976 .0275384
1101.564 .0275375
1102.152 .0275390
1102.740 .0275443
1103.329 .0275499
1103.917 .0275572
1104.507 .0275658
1105.096 .0275763
1105.686 .0275878
1106.276 .0275989
1106.867 .0276112
1107.457 .0276249
1108.049 .0276390
1108.640 .0276521
1109.232 .0276623
1109.825 .0276723
1110.417 .0276803
1111.010 .0276874
1111.604 .0276921
1112.198 .0276974
1112.792 .0277056
1113.387 .0277141
1113.982 .0277260
1114.577 .0277398
1115.173 .0277592
1115.769 .0277795
1116.366 .0278014
1116.963 .0278224
1117.561 .0278426
1118.159 .0278615
1118.758 .0278790
1119.357 .0278950
1119.957 .0279103
1120.557 .0279269
1121.157 .0279452
1121.758 .0279641
1122.360 .0279855
1122.962 .0280026
1123.564 .0280191
1124.167 .0280316
1124.771 .0280436
1125.375 .0280489
1125.980 .0280522
1126.585 .0280540
1127.191 .0280536
1127.797 .0280522
1128.404 .0280473
1129.012 .0280394
1129.620 .0280335
1130.229 .0280246
1130.838 .0280152
1131.448 .0280050
1132.058 .0279998
1132.669 .0279957
1133.281 .0279960
1133.894 .0279997
1134.507 .0280069
1135.120 .0280186
1135.735 .0280390
1136.350 .0280645
1136.965 .0281035
1137.582 .0281529
1138.199 .0282186
1138.816 .0282958
1139.435 .0283849
1140.054 .0284891
1140.674 .0286118
1141.294 .0287564
1141.916 .0289059
1142.538 .0289149
1143.160 .0292238
1143.784 .0295246
1144.408 .0298320
1145.033 .0295978
