Measurement Sequence started on: 14-45-04-498
Integration time: 36
Scans to Average: 2 
>>>>>Begin Spectral Data<<<<<
433.946 .0455558
434.870 .0424406
435.793 .0397357
436.715 .0405012
437.635 .0415686
438.555 .0418113
439.473 .0417989
440.389 .0419046
441.305 .0420457
442.219 .0421219
443.132 .0421557
444.044 .0421802
444.954 .0422074
445.863 .0422414
446.771 .0422782
447.678 .0423092
448.584 .0423234
449.488 .0423180
450.391 .0422818
451.293 .0422298
452.194 .0421620
453.094 .0420794
453.992 .0419940
454.890 .0419066
455.786 .0418082
456.681 .0417102
457.575 .0416100
458.468 .0415036
459.360 .0413863
460.250 .0412579
461.140 .0411200
462.028 .0409783
462.915 .0408369
463.801 .0407007
464.687 .0405726
465.571 .0404609
466.454 .0403593
467.335 .0402703
468.216 .0401929
469.096 .0401248
469.975 .0400625
470.853 .0400044
471.729 .0399474
472.605 .0398902
473.479 .0398300
474.353 .0397713
475.226 .0397142
476.097 .0396561
476.968 .0395997
477.838 .0395442
478.706 .0394915
479.574 .0394419
480.441 .0393971
481.306 .0393570
482.171 .0393190
483.035 .0392813
483.898 .0392436
484.760 .0392024
485.621 .0391621
486.481 .0391188
487.340 .0390754
488.198 .0390328
489.055 .0389903
489.912 .0389470
490.767 .0389056
491.622 .0388642
492.476 .0388231
493.329 .0387819
494.180 .0387410
495.032 .0386991
495.882 .0386608
496.731 .0386256
497.580 .0385986
498.427 .0385755
499.274 .0385606
500.120 .0385497
500.965 .0385454
501.809 .0385455
502.653 .0385492
503.495 .0385573
504.337 .0385686
505.178 .0385788
506.018 .0385897
506.858 .0385953
507.696 .0385965
508.534 .0385884
509.371 .0385710
510.208 .0385426
511.043 .0385093
511.878 .0384669
512.712 .0384226
513.545 .0383748
514.377 .0383259
515.209 .0382732
516.040 .0382183
516.870 .0381607
517.699 .0381028
518.528 .0380388
519.356 .0379759
520.183 .0379092
521.010 .0378516
521.836 .0377951
522.661 .0377422
523.485 .0376934
524.309 .0376428
525.132 .0375874
525.954 .0375313
526.776 .0374701
527.597 .0374095
528.417 .0373420
529.237 .0372747
530.056 .0372037
530.874 .0371363
531.692 .0370711
532.508 .0370119
533.325 .0369590
534.140 .0369139
534.955 .0368660
535.770 .0368210
536.583 .0367810
537.397 .0367427
538.209 .0367012
539.021 .0366536
539.832 .0365978
540.643 .0365361
541.453 .0364606
542.262 .0363830
543.071 .0363014
543.879 .0362211
544.687 .0361392
545.494 .0360573
546.300 .0359806
547.106 .0359110
547.911 .0358453
548.716 .0357863
549.520 .0357280
550.323 .0356735
551.126 .0356187
551.929 .0355663
552.731 .0355164
553.532 .0354661
554.332 .0354155
555.133 .0353661
555.932 .0353212
556.731 .0352821
557.530 .0352498
558.328 .0352320
559.125 .0352242
559.922 .0352228
560.719 .0352256
561.515 .0352284
562.310 .0352256
563.105 .0352180
563.899 .0352046
564.693 .0351849
565.487 .0351637
566.280 .0351420
567.072 .0351224
567.864 .0351054
568.655 .0350896
569.446 .0350707
570.236 .0350468
571.026 .0350173
571.816 .0349776
572.605 .0349313
573.393 .0348845
574.181 .0348399
574.969 .0348010
575.756 .0347696
576.543 .0347465
577.329 .0347276
578.115 .0347109
578.900 .0346920
579.685 .0346676
580.469 .0346363
581.253 .0345995
582.036 .0345588
582.820 .0345161
583.602 .0344750
584.384 .0344370
585.166 .0344025
585.947 .0343719
586.728 .0343412
587.509 .0343107
588.289 .0342789
589.069 .0342464
589.848 .0342135
590.627 .0341804
591.405 .0341485
592.183 .0341175
592.961 .0340882
593.738 .0340618
594.515 .0340367
595.291 .0340130
596.067 .0339893
596.843 .0339653
597.618 .0339396
598.393 .0339129
599.167 .0338860
599.941 .0338580
600.715 .0338289
601.488 .0338000
602.261 .0337706
603.034 .0337413
603.806 .0337130
604.578 .0336853
605.349 .0336589
606.121 .0336346
606.891 .0336112
607.662 .0335885
608.432 .0335671
609.201 .0335472
609.971 .0335275
610.740 .0335084
611.508 .0334892
612.277 .0334694
613.045 .0334501
613.812 .0334311
614.579 .0334116
615.346 .0333925
616.113 .0333740
616.879 .0333552
617.645 .0333366
618.411 .0333171
619.176 .0332970
619.941 .0332765
620.705 .0332553
621.470 .0332334
622.233 .0332113
622.997 .0331896
623.760 .0331681
624.523 .0331471
625.286 .0331259
626.048 .0331046
626.810 .0330828
627.572 .0330595
628.333 .0330351
629.095 .0330089
629.855 .0329813
630.616 .0329524
631.376 .0329235
632.136 .0328945
632.895 .0328651
633.655 .0328371
634.414 .0328096
635.172 .0327827
635.931 .0327563
636.689 .0327302
637.447 .0327042
638.204 .0326788
638.962 .0326538
639.718 .0326295
640.475 .0326063
641.231 .0325842
641.988 .0325626
642.743 .0325421
643.499 .0325222
644.254 .0325023
645.009 .0324820
645.764 .0324619
646.518 .0324408
647.272 .0324195
648.026 .0323975
648.780 .0323756
649.533 .0323542
650.286 .0323333
651.039 .0323131
651.792 .0322935
652.544 .0322750
653.296 .0322573
654.048 .0322401
654.799 .0322240
655.550 .0322081
656.301 .0321926
657.052 .0321772
657.802 .0321617
658.552 .0321463
659.302 .0321309
660.052 .0321159
660.801 .0321006
661.550 .0320857
662.299 .0320711
663.048 .0320567
663.796 .0320432
664.544 .0320301
665.292 .0320167
666.040 .0320031
666.787 .0319893
667.534 .0319754
668.281 .0319612
669.028 .0319473
669.774 .0319337
670.521 .0319205
671.266 .0319076
672.012 .0318955
672.758 .0318836
673.503 .0318722
674.248 .0318605
674.992 .0318485
675.737 .0318359
676.481 .0318227
677.225 .0318087
677.969 .0317942
678.712 .0317796
679.455 .0317649
680.199 .0317500
680.941 .0317356
681.684 .0317213
682.426 .0317067
683.168 .0316918
683.910 .0316764
684.652 .0316600
685.393 .0316429
686.134 .0316255
686.875 .0316079
687.616 .0315903
688.356 .0315735
689.097 .0315568
689.837 .0315406
690.576 .0315246
691.316 .0315076
692.055 .0314896
692.794 .0314706
693.533 .0314504
694.272 .0314294
695.010 .0314086
695.748 .0313889
696.486 .0313701
697.224 .0313529
697.962 .0313368
698.699 .0313213
699.436 .0313063
700.173 .0312907
700.909 .0312743
701.646 .0312574
702.382 .0312404
703.118 .0312238
703.853 .0312085
704.589 .0311953
705.324 .0311841
706.059 .0311749
706.794 .0311669
707.529 .0311597
708.263 .0311521
708.997 .0311439
709.731 .0311340
710.465 .0311226
711.198 .0311099
711.931 .0310960
712.664 .0310815
713.397 .0310670
714.130 .0310524
714.862 .0310381
715.594 .0310238
716.326 .0310101
717.058 .0309970
717.789 .0309845
718.520 .0309723
719.251 .0309610
719.982 .0309504
720.713 .0309405
721.443 .0309309
722.173 .0309220
722.903 .0309138
723.633 .0309063
724.362 .0308991
725.091 .0308920
725.820 .0308852
726.549 .0308786
727.278 .0308712
728.006 .0308631
728.734 .0308540
729.462 .0308434
730.190 .0308318
730.917 .0308195
731.644 .0308067
732.371 .0307939
733.098 .0307816
733.825 .0307702
734.551 .0307595
735.277 .0307491
736.003 .0307390
736.728 .0307292
737.454 .0307196
738.179 .0307095
738.904 .0306991
739.629 .0306888
740.353 .0306787
741.077 .0306689
741.801 .0306592
742.525 .0306495
743.249 .0306404
743.972 .0306310
744.695 .0306214
745.418 .0306113
746.141 .0306006
746.863 .0305897
747.585 .0305784
748.307 .0305666
749.029 .0305543
749.750 .0305416
750.472 .0305289
751.193 .0305162
751.913 .0305035
752.634 .0304908
753.354 .0304780
754.074 .0304650
754.794 .0304512
755.514 .0304359
756.233 .0304192
756.952 .0304007
757.671 .0303808
758.390 .0303597
759.108 .0303377
759.826 .0303162
760.544 .0302955
761.262 .0302756
761.979 .0302568
762.697 .0302389
763.414 .0302220
764.130 .0302054
764.847 .0301890
765.563 .0301729
766.279 .0301576
766.995 .0301428
767.710 .0301287
768.426 .0301154
769.141 .0301036
769.855 .0300921
770.570 .0300814
771.284 .0300713
771.998 .0300615
772.712 .0300522
773.426 .0300440
774.139 .0300369
774.852 .0300309
775.565 .0300255
776.277 .0300207
776.990 .0300160
777.702 .0300112
778.414 .0300061
779.125 .0300011
779.836 .0299965
780.547 .0299921
781.258 .0299880
781.969 .0299853
782.679 .0299837
783.389 .0299828
784.099 .0299818
784.808 .0299799
785.517 .0299770
786.226 .0299726
786.935 .0299666
787.643 .0299600
788.352 .0299534
789.060 .0299470
789.767 .0299413
790.475 .0299367
791.182 .0299328
791.889 .0299295
792.595 .0299268
793.301 .0299234
794.008 .0299189
794.713 .0299139
795.419 .0299083
796.124 .0299025
796.829 .0298973
797.534 .0298929
798.238 .0298897
798.942 .0298882
799.646 .0298879
800.350 .0298883
801.053 .0298894
801.756 .0298902
802.459 .0298899
803.162 .0298881
803.864 .0298846
804.566 .0298791
805.267 .0298724
805.969 .0298647
806.670 .0298560
807.371 .0298474
808.071 .0298395
808.772 .0298326
809.472 .0298261
810.171 .0298198
810.871 .0298133
811.570 .0298059
812.269 .0297977
812.967 .0297882
813.666 .0297780
814.364 .0297679
815.061 .0297582
815.759 .0297497
816.456 .0297427
817.153 .0297373
817.849 .0297325
818.545 .0297276
819.241 .0297220
819.937 .0297144
820.632 .0297045
821.327 .0296925
822.022 .0296783
822.717 .0296622
823.411 .0296451
824.105 .0296273
824.798 .0296092
825.491 .0295907
826.184 .0295716
826.877 .0295521
827.569 .0295319
828.261 .0295114
828.953 .0294903
829.645 .0294695
830.336 .0294494
831.027 .0294303
831.717 .0294126
832.407 .0293965
833.097 .0293814
833.787 .0293674
834.476 .0293539
835.165 .0293409
835.854 .0293281
836.542 .0293155
837.230 .0293030
837.918 .0292908
838.605 .0292788
839.292 .0292674
839.979 .0292561
840.665 .0292454
841.352 .0292344
842.037 .0292232
842.723 .0292115
843.408 .0291992
844.093 .0291862
844.777 .0291724
845.462 .0291579
846.145 .0291426
846.829 .0291264
847.512 .0291098
848.195 .0290930
848.878 .0290760
849.560 .0290590
850.242 .0290419
850.923 .0290242
851.605 .0290065
852.286 .0289881
852.966 .0289697
853.646 .0289514
854.326 .0289333
855.006 .0289155
855.685 .0288983
856.364 .0288818
857.043 .0288660
857.721 .0288509
858.399 .0288364
859.077 .0288222
859.754 .0288083
860.431 .0287944
861.107 .0287807
861.784 .0287674
862.459 .0287546
863.135 .0287422
863.810 .0287303
864.485 .0287191
865.160 .0287083
865.834 .0286980
866.508 .0286883
867.181 .0286794
867.854 .0286718
868.527 .0286653
869.199 .0286597
869.872 .0286549
870.543 .0286509
871.215 .0286468
871.886 .0286427
872.557 .0286377
873.227 .0286320
873.897 .0286258
874.567 .0286191
875.236 .0286123
875.905 .0286061
876.573 .0286005
877.242 .0285954
877.909 .0285907
878.577 .0285865
879.244 .0285817
879.911 .0285769
880.577 .0285717
881.243 .0285661
881.909 .0285606
882.575 .0285551
883.240 .0285497
883.904 .0285451
884.569 .0285412
885.232 .0285375
885.896 .0285342
886.559 .0285314
887.222 .0285285
887.885 .0285252
888.547 .0285218
889.208 .0285180
889.870 .0285135
890.531 .0285090
891.192 .0285041
891.852 .0284996
892.512 .0284958
893.171 .0284929
893.830 .0284912
894.489 .0284910
895.148 .0284922
895.806 .0284943
896.464 .0284971
897.121 .0285005
897.778 .0285036
898.434 .0285065
899.091 .0285089
899.747 .0285109
900.402 .0285124
901.057 .0285137
901.712 .0285143
902.366 .0285144
903.020 .0285139
903.674 .0285125
904.327 .0285097
904.980 .0285058
905.633 .0285005
906.285 .0284938
906.936 .0284862
907.588 .0284780
908.239 .0284693
908.889 .0284598
909.540 .0284497
910.190 .0284388
910.839 .0284271
911.488 .0284149
912.137 .0284016
912.785 .0283876
913.433 .0283730
914.081 .0283575
914.728 .0283414
915.375 .0283247
916.021 .0283076
916.668 .0282900
917.313 .0282718
917.959 .0282531
918.604 .0282340
919.248 .0282147
919.892 .0281955
920.536 .0281763
921.180 .0281570
921.823 .0281379
922.465 .0281185
923.108 .0280991
923.750 .0280793
924.391 .0280590
925.032 .0280385
925.673 .0280171
926.313 .0279951
926.953 .0279727
927.593 .0279497
928.232 .0279267
928.871 .0279033
929.510 .0278800
930.148 .0278561
930.786 .0278318
931.423 .0278072
932.060 .0277822
932.697 .0277570
933.333 .0277318
933.969 .0277061
934.604 .0276809
935.239 .0276560
935.874 .0276317
936.508 .0276086
937.142 .0275868
937.776 .0275657
938.409 .0275453
939.042 .0275250
939.674 .0275047
940.306 .0274842
940.938 .0274634
941.569 .0274424
942.200 .0274210
942.830 .0273994
943.460 .0273773
944.090 .0273550
944.720 .0273326
945.349 .0273097
945.977 .0272862
946.606 .0272622
947.233 .0272376
947.861 .0272127
948.488 .0271876
949.115 .0271628
949.741 .0271382
950.367 .0271136
950.993 .0270888
951.618 .0270644
952.243 .0270403
952.868 .0270170
953.492 .0269946
954.115 .0269733
954.739 .0269532
955.362 .0269344
955.984 .0269164
956.607 .0268994
957.229 .0268832
957.850 .0268679
958.471 .0268526
959.092 .0268377
959.713 .0268234
960.333 .0268096
960.952 .0267972
961.572 .0267858
962.191 .0267754
962.809 .0267661
963.428 .0267573
964.045 .0267492
964.663 .0267412
965.280 .0267333
965.897 .0267256
966.513 .0267182
967.129 .0267115
967.745 .0267050
968.361 .0266994
968.976 .0266948
969.590 .0266911
970.205 .0266881
970.818 .0266855
971.432 .0266835
972.045 .0266822
972.658 .0266816
973.271 .0266811
973.883 .0266808
974.495 .0266805
975.106 .0266803
975.717 .0266797
976.328 .0266788
976.938 .0266778
977.548 .0266764
978.158 .0266750
978.768 .0266729
979.377 .0266699
979.985 .0266662
980.594 .0266613
981.202 .0266557
981.809 .0266487
982.417 .0266417
983.024 .0266351
983.631 .0266299
984.237 .0266262
984.843 .0266242
985.449 .0266233
986.054 .0266235
986.659 .0266238
987.264 .0266241
987.868 .0266239
988.472 .0266239
989.076 .0266238
989.679 .0266244
990.282 .0266256
990.885 .0266282
991.487 .0266313
992.090 .0266354
992.691 .0266395
993.293 .0266434
993.894 .0266464
994.495 .0266491
995.095 .0266513
995.696 .0266535
996.296 .0266554
996.895 .0266574
997.494 .0266595
998.093 .0266621
998.692 .0266643
999.291 .0266671
999.889 .0266703
1000.487 .0266740
1001.084 .0266782
1001.681 .0266827
1002.278 .0266870
1002.875 .0266907
1003.471 .0266937
1004.067 .0266958
1004.663 .0266966
1005.258 .0266969
1005.854 .0266965
1006.449 .0266964
1007.043 .0266971
1007.638 .0266979
1008.232 .0266994
1008.826 .0267014
1009.419 .0267032
1010.012 .0267042
1010.605 .0267047
1011.198 .0267046
1011.791 .0267043
1012.383 .0267039
1012.975 .0267042
1013.566 .0267052
1014.158 .0267070
1014.749 .0267096
1015.340 .0267127
1015.931 .0267162
1016.521 .0267202
1017.111 .0267245
1017.701 .0267296
1018.291 .0267351
1018.880 .0267415
1019.470 .0267491
1020.059 .0267577
1020.647 .0267674
1021.236 .0267771
1021.824 .0267866
1022.412 .0267959
1023.000 .0268044
1023.588 .0268118
1024.175 .0268184
1024.762 .0268232
1025.349 .0268269
1025.936 .0268292
1026.523 .0268306
1027.109 .0268307
1027.695 .0268301
1028.281 .0268289
1028.867 .0268271
1029.452 .0268247
1030.038 .0268217
1030.623 .0268177
1031.208 .0268132
1031.792 .0268083
1032.377 .0268023
1032.961 .0267953
1033.546 .0267882
1034.130 .0267811
1034.714 .0267743
1035.297 .0267674
1035.881 .0267605
1036.464 .0267538
1037.047 .0267471
1037.630 .0267405
1038.213 .0267334
1038.796 .0267271
1039.378 .0267216
1039.961 .0267162
1040.543 .0267103
1041.125 .0267039
1041.707 .0266968
1042.289 .0266882
1042.871 .0266778
1043.452 .0266650
1044.034 .0266502
1044.615 .0266336
1045.196 .0266161
1045.777 .0265980
1046.358 .0265791
1046.939 .0265601
1047.520 .0265402
1048.101 .0265191
1048.681 .0264964
1049.262 .0264720
1049.842 .0264472
1050.422 .0264228
1051.002 .0264002
1051.582 .0263791
1052.162 .0263615
1052.742 .0263476
1053.322 .0263366
1053.902 .0263275
1054.482 .0263205
1055.061 .0263143
1055.641 .0263083
1056.220 .0263025
1056.800 .0262975
1057.379 .0262941
1057.958 .0262925
1058.538 .0262915
1059.117 .0262908
1059.696 .0262897
1060.275 .0262868
1060.854 .0262807
1061.433 .0262719
1062.012 .0262601
1062.592 .0262458
1063.171 .0262297
1063.750 .0262131
1064.329 .0261967
1064.908 .0261803
1065.487 .0261644
1066.066 .0261487
1066.645 .0261324
1067.224 .0261156
1067.803 .0260986
1068.382 .0260817
1068.961 .0260662
1069.540 .0260513
1070.119 .0260390
1070.698 .0260299
1071.278 .0260232
1071.857 .0260189
1072.436 .0260162
1073.016 .0260148
1073.595 .0260129
1074.175 .0260107
1074.754 .0260080
1075.334 .0260036
1075.913 .0259990
1076.493 .0259932
1077.073 .0259865
1077.653 .0259795
1078.233 .0259722
1078.813 .0259644
1079.393 .0259572
1079.974 .0259494
1080.554 .0259405
1081.135 .0259316
1081.716 .0259224
1082.296 .0259136
1082.877 .0259054
1083.458 .0258994
1084.040 .0258944
1084.621 .0258898
1085.202 .0258871
1085.784 .0258848
1086.366 .0258832
1086.948 .0258809
1087.530 .0258779
1088.112 .0258748
1088.695 .0258716
1089.277 .0258689
1089.860 .0258676
1090.443 .0258677
1091.026 .0258691
1091.610 .0258702
1092.193 .0258714
1092.777 .0258723
1093.361 .0258717
1093.946 .0258688
1094.530 .0258655
1095.115 .0258609
1095.700 .0258561
1096.285 .0258519
1096.871 .0258499
1097.456 .0258505
1098.042 .0258521
1098.628 .0258538
1099.215 .0258537
1099.802 .0258513
1100.389 .0258458
1100.976 .0258362
1101.564 .0258248
1102.152 .0258116
1102.740 .0257990
1103.329 .0257885
1103.917 .0257819
1104.507 .0257794
1105.096 .0257800
1105.686 .0257834
1106.276 .0257882
1106.867 .0257923
1107.457 .0257939
1108.049 .0257941
1108.640 .0257932
1109.232 .0257934
1109.825 .0257960
1110.417 .0258018
1111.010 .0258143
1111.604 .0258307
1112.198 .0258518
1112.792 .0258754
1113.387 .0259006
1113.982 .0259258
1114.577 .0259485
1115.173 .0259705
1115.769 .0259901
1116.366 .0260072
1116.963 .0260273
1117.561 .0260484
1118.159 .0260734
1118.758 .0261018
1119.357 .0261322
1119.957 .0261628
1120.557 .0261958
1121.157 .0262267
1121.758 .0262554
1122.360 .0262821
1122.962 .0263068
1123.564 .0263265
1124.167 .0263474
1124.771 .0263700
1125.375 .0263929
1125.980 .0264196
1126.585 .0264521
1127.191 .0264848
1127.797 .0265240
1128.404 .0265638
1129.012 .0266040
1129.620 .0266488
1130.229 .0266940
1130.838 .0267380
1131.448 .0267818
1132.058 .0268293
1132.669 .0268751
1133.281 .0269214
1133.894 .0269719
1134.507 .0270197
1135.120 .0270672
1135.735 .0271150
1136.350 .0271590
1136.965 .0272039
1137.582 .0272485
1138.199 .0272937
1138.816 .0273358
1139.435 .0273822
1140.054 .0274281
1140.674 .0274773
1141.294 .0275303
1141.916 .0275964
1142.538 .0276124
1143.160 .0276905
1143.784 .0278353
1144.408 .0278365
1145.033 .0281586
