Measurement Sequence started on: 14-45-04-498
Integration time: 36
Scans to Average: 2 
>>>>>Begin Spectral Data<<<<<
433.946 .0440789
434.870 .0446354
435.793 .0422935
436.715 .0399350
437.635 .0394270
438.555 .0402729
439.473 .0398673
440.389 .0395385
441.305 .0393299
442.219 .0391920
443.132 .0390560
444.044 .0389038
444.954 .0387515
445.863 .0386232
446.771 .0385151
447.678 .0384217
448.584 .0383422
449.488 .0382625
450.391 .0381870
451.293 .0381077
452.194 .0380229
453.094 .0379329
453.992 .0378421
454.890 .0377376
455.786 .0376267
456.681 .0375161
457.575 .0374039
458.468 .0372957
459.360 .0371921
460.250 .0370936
461.140 .0369985
462.028 .0369113
462.915 .0368316
463.801 .0367545
464.687 .0366725
465.571 .0365860
466.454 .0364931
467.335 .0363959
468.216 .0362938
469.096 .0361920
469.975 .0360951
470.853 .0360051
471.729 .0359172
472.605 .0358345
473.479 .0357565
474.353 .0356842
475.226 .0356159
476.097 .0355557
476.968 .0355009
477.838 .0354540
478.706 .0354151
479.574 .0353853
480.441 .0353608
481.306 .0353408
482.171 .0353208
483.035 .0352999
483.898 .0352761
484.760 .0352514
485.621 .0352254
486.481 .0352048
487.340 .0351885
488.198 .0351760
489.055 .0351654
489.912 .0351566
490.767 .0351450
491.622 .0351260
492.476 .0350987
493.329 .0350615
494.180 .0350147
495.032 .0349626
495.882 .0349065
496.731 .0348504
497.580 .0347982
498.427 .0347538
499.274 .0347123
500.120 .0346788
500.965 .0346475
501.809 .0346181
502.653 .0345892
503.495 .0345612
504.337 .0345296
505.178 .0344953
506.018 .0344629
506.858 .0344259
507.696 .0343885
508.534 .0343532
509.371 .0343182
510.208 .0342898
511.043 .0342644
511.878 .0342435
512.712 .0342219
513.545 .0342038
514.377 .0341858
515.209 .0341658
516.040 .0341472
516.870 .0341289
517.699 .0341124
518.528 .0340979
519.356 .0340847
520.183 .0340701
521.010 .0340571
521.836 .0340459
522.661 .0340321
523.485 .0340170
524.309 .0339990
525.132 .0339778
525.954 .0339521
526.776 .0339218
527.597 .0338831
528.417 .0338291
529.237 .0337663
530.056 .0336901
530.874 .0336038
531.692 .0335119
532.508 .0334186
533.325 .0333309
534.140 .0332478
534.955 .0331705
535.770 .0330964
536.583 .0330269
537.397 .0329638
538.209 .0329037
539.021 .0328471
539.832 .0327971
540.643 .0327525
541.453 .0327158
542.262 .0326886
543.071 .0326684
543.879 .0326453
544.687 .0326243
545.494 .0325985
546.300 .0325671
547.106 .0325267
547.911 .0324874
548.716 .0324514
549.520 .0324221
550.323 .0323987
551.126 .0323783
551.929 .0323623
552.731 .0323497
553.532 .0323290
554.332 .0323032
555.133 .0322699
555.932 .0322322
556.731 .0321915
557.530 .0321534
558.328 .0321204
559.125 .0320945
559.922 .0320771
560.719 .0320623
561.515 .0320476
562.310 .0320320
563.105 .0320128
563.899 .0319897
564.693 .0319640
565.487 .0319349
566.280 .0319059
567.072 .0318792
567.864 .0318528
568.655 .0318280
569.446 .0318047
570.236 .0317810
571.026 .0317546
571.816 .0317250
572.605 .0316950
573.393 .0316622
574.181 .0316308
574.969 .0315984
575.756 .0315649
576.543 .0315299
577.329 .0314941
578.115 .0314561
578.900 .0314162
579.685 .0313765
580.469 .0313373
581.253 .0313001
582.036 .0312650
582.820 .0312313
583.602 .0312001
584.384 .0311724
585.166 .0311459
585.947 .0311185
586.728 .0310922
587.509 .0310667
588.289 .0310433
589.069 .0310224
589.848 .0310032
590.627 .0309861
591.405 .0309699
592.183 .0309536
592.961 .0309343
593.738 .0309141
594.515 .0308917
595.291 .0308685
596.067 .0308453
596.843 .0308212
597.618 .0307968
598.393 .0307723
599.167 .0307475
599.941 .0307213
600.715 .0306935
601.488 .0306645
602.261 .0306347
603.034 .0306053
603.806 .0305771
604.578 .0305506
605.349 .0305257
606.121 .0305032
606.891 .0304815
607.662 .0304598
608.432 .0304378
609.201 .0304155
609.971 .0303936
610.740 .0303719
611.508 .0303512
612.277 .0303318
613.045 .0303152
613.812 .0303002
614.579 .0302857
615.346 .0302720
616.113 .0302580
616.879 .0302432
617.645 .0302278
618.411 .0302127
619.176 .0301973
619.941 .0301824
620.705 .0301689
621.470 .0301567
622.233 .0301455
622.997 .0301349
623.760 .0301244
624.523 .0301135
625.286 .0301020
626.048 .0300886
626.810 .0300741
627.572 .0300585
628.333 .0300415
629.095 .0300235
629.855 .0300048
630.616 .0299865
631.376 .0299684
632.136 .0299516
632.895 .0299364
633.655 .0299223
634.414 .0299088
635.172 .0298953
635.931 .0298817
636.689 .0298676
637.447 .0298525
638.204 .0298369
638.962 .0298212
639.718 .0298063
640.475 .0297920
641.231 .0297785
641.988 .0297655
642.743 .0297529
643.499 .0297389
644.254 .0297230
645.009 .0297050
645.764 .0296845
646.518 .0296619
647.272 .0296387
648.026 .0296152
648.780 .0295920
649.533 .0295694
650.286 .0295481
651.039 .0295280
651.792 .0295088
652.544 .0294900
653.296 .0294715
654.048 .0294538
654.799 .0294369
655.550 .0294206
656.301 .0294059
657.052 .0293931
657.802 .0293821
658.552 .0293726
659.302 .0293634
660.052 .0293543
660.801 .0293451
661.550 .0293352
662.299 .0293249
663.048 .0293142
663.796 .0293032
664.544 .0292927
665.292 .0292827
666.040 .0292735
666.787 .0292649
667.534 .0292566
668.281 .0292480
669.028 .0292387
669.774 .0292282
670.521 .0292161
671.266 .0292026
672.012 .0291893
672.758 .0291752
673.503 .0291607
674.248 .0291468
674.992 .0291333
675.737 .0291202
676.481 .0291075
677.225 .0290945
677.969 .0290815
678.712 .0290687
679.455 .0290561
680.199 .0290436
680.941 .0290320
681.684 .0290216
682.426 .0290114
683.168 .0290024
683.910 .0289941
684.652 .0289858
685.393 .0289781
686.134 .0289707
686.875 .0289632
687.616 .0289556
688.356 .0289475
689.097 .0289386
689.837 .0289287
690.576 .0289180
691.316 .0289057
692.055 .0288927
692.794 .0288791
693.533 .0288654
694.272 .0288514
695.010 .0288382
695.748 .0288252
696.486 .0288125
697.224 .0288001
697.962 .0287874
698.699 .0287744
699.436 .0287613
700.173 .0287479
700.909 .0287349
701.646 .0287223
702.382 .0287107
703.118 .0286995
703.853 .0286892
704.589 .0286794
705.324 .0286697
706.059 .0286596
706.794 .0286489
707.529 .0286374
708.263 .0286255
708.997 .0286125
709.731 .0285986
710.465 .0285843
711.198 .0285698
711.931 .0285545
712.664 .0285388
713.397 .0285228
714.130 .0285066
714.862 .0284904
715.594 .0284748
716.326 .0284597
717.058 .0284450
717.789 .0284312
718.520 .0284176
719.251 .0284045
719.982 .0283916
720.713 .0283785
721.443 .0283657
722.173 .0283526
722.903 .0283393
723.633 .0283257
724.362 .0283120
725.091 .0282990
725.820 .0282860
726.549 .0282740
727.278 .0282622
728.006 .0282508
728.734 .0282396
729.462 .0282282
730.190 .0282169
730.917 .0282059
731.644 .0281951
732.371 .0281850
733.098 .0281756
733.825 .0281676
734.551 .0281605
735.277 .0281546
736.003 .0281497
736.728 .0281455
737.454 .0281417
738.179 .0281379
738.904 .0281339
739.629 .0281301
740.353 .0281259
741.077 .0281212
741.801 .0281162
742.525 .0281105
743.249 .0281040
743.972 .0280968
744.695 .0280890
745.418 .0280807
746.141 .0280715
746.863 .0280620
747.585 .0280523
748.307 .0280422
749.029 .0280322
749.750 .0280215
750.472 .0280109
751.193 .0279998
751.913 .0279879
752.634 .0279756
753.354 .0279628
754.074 .0279496
754.794 .0279360
755.514 .0279221
756.233 .0279081
756.952 .0278936
757.671 .0278794
758.390 .0278652
759.108 .0278514
759.826 .0278378
760.544 .0278246
761.262 .0278115
761.979 .0277988
762.697 .0277855
763.414 .0277717
764.130 .0277574
764.847 .0277423
765.563 .0277269
766.279 .0277118
766.995 .0276968
767.710 .0276826
768.426 .0276694
769.141 .0276572
769.855 .0276450
770.570 .0276334
771.284 .0276221
771.998 .0276105
772.712 .0275986
773.426 .0275866
774.139 .0275745
774.852 .0275632
775.565 .0275524
776.277 .0275421
776.990 .0275326
777.702 .0275239
778.414 .0275155
779.125 .0275075
779.836 .0274998
780.547 .0274922
781.258 .0274844
781.969 .0274769
782.679 .0274696
783.389 .0274623
784.099 .0274557
784.808 .0274497
785.517 .0274444
786.226 .0274397
786.935 .0274354
787.643 .0274319
788.352 .0274296
789.060 .0274279
789.767 .0274264
790.475 .0274253
791.182 .0274242
791.889 .0274229
792.595 .0274213
793.301 .0274190
794.008 .0274166
794.713 .0274138
795.419 .0274108
796.124 .0274074
796.829 .0274041
797.534 .0274006
798.238 .0273973
798.942 .0273941
799.646 .0273907
800.350 .0273867
801.053 .0273825
801.756 .0273777
802.459 .0273722
803.162 .0273660
803.864 .0273593
804.566 .0273518
805.267 .0273444
805.969 .0273364
806.670 .0273285
807.371 .0273208
808.071 .0273137
808.772 .0273066
809.472 .0272993
810.171 .0272918
810.871 .0272837
811.570 .0272749
812.269 .0272655
812.967 .0272549
813.666 .0272437
814.364 .0272320
815.061 .0272197
815.759 .0272069
816.456 .0271938
817.153 .0271802
817.849 .0271661
818.545 .0271516
819.241 .0271368
819.937 .0271218
820.632 .0271067
821.327 .0270917
822.022 .0270765
822.717 .0270611
823.411 .0270453
824.105 .0270288
824.798 .0270121
825.491 .0269947
826.184 .0269771
826.877 .0269596
827.569 .0269426
828.261 .0269263
828.953 .0269106
829.645 .0268949
830.336 .0268793
831.027 .0268633
831.717 .0268464
832.407 .0268288
833.097 .0268106
833.787 .0267920
834.476 .0267737
835.165 .0267564
835.854 .0267402
836.542 .0267254
837.230 .0267121
837.918 .0266994
838.605 .0266870
839.292 .0266749
839.979 .0266621
840.665 .0266488
841.352 .0266353
842.037 .0266216
842.723 .0266079
843.408 .0265951
844.093 .0265829
844.777 .0265716
845.462 .0265606
846.145 .0265498
846.829 .0265382
847.512 .0265264
848.195 .0265142
848.878 .0265018
849.560 .0264896
850.242 .0264784
850.923 .0264682
851.605 .0264591
852.286 .0264510
852.966 .0264441
853.646 .0264377
854.326 .0264320
855.006 .0264264
855.685 .0264211
856.364 .0264162
857.043 .0264120
857.721 .0264085
858.399 .0264056
859.077 .0264034
859.754 .0264012
860.431 .0263987
861.107 .0263962
861.784 .0263931
862.459 .0263895
863.135 .0263857
863.810 .0263819
864.485 .0263778
865.160 .0263741
865.834 .0263707
866.508 .0263677
867.181 .0263653
867.854 .0263629
868.527 .0263606
869.199 .0263582
869.872 .0263559
870.543 .0263529
871.215 .0263493
871.886 .0263454
872.557 .0263408
873.227 .0263355
873.897 .0263295
874.567 .0263235
875.236 .0263175
875.905 .0263121
876.573 .0263069
877.242 .0263020
877.909 .0262973
878.577 .0262920
879.244 .0262856
879.911 .0262780
880.577 .0262693
881.243 .0262593
881.909 .0262480
882.575 .0262369
883.240 .0262255
883.904 .0262145
884.569 .0262040
885.232 .0261940
885.896 .0261844
886.559 .0261747
887.222 .0261645
887.885 .0261534
888.547 .0261417
889.208 .0261291
889.870 .0261155
890.531 .0261019
891.192 .0260881
891.852 .0260746
892.512 .0260622
893.171 .0260510
893.830 .0260407
894.489 .0260314
895.148 .0260229
895.806 .0260145
896.464 .0260060
897.121 .0259967
897.778 .0259862
898.434 .0259749
899.091 .0259624
899.747 .0259487
900.402 .0259341
901.057 .0259192
901.712 .0259040
902.366 .0258884
903.020 .0258725
903.674 .0258560
904.327 .0258390
904.980 .0258212
905.633 .0258028
906.285 .0257839
906.936 .0257648
907.588 .0257458
908.239 .0257274
908.889 .0257100
909.540 .0256931
910.190 .0256773
910.839 .0256627
911.488 .0256485
912.137 .0256348
912.785 .0256210
913.433 .0256077
914.081 .0255946
914.728 .0255817
915.375 .0255692
916.021 .0255568
916.668 .0255445
917.313 .0255319
917.959 .0255186
918.604 .0255051
919.248 .0254908
919.892 .0254756
920.536 .0254599
921.180 .0254442
921.823 .0254281
922.465 .0254121
923.108 .0253961
923.750 .0253799
924.391 .0253632
925.032 .0253462
925.673 .0253288
926.313 .0253109
926.953 .0252932
927.593 .0252758
928.232 .0252585
928.871 .0252422
929.510 .0252260
930.148 .0252104
930.786 .0251952
931.423 .0251799
932.060 .0251646
932.697 .0251491
933.333 .0251334
933.969 .0251177
934.604 .0251022
935.239 .0250871
935.874 .0250724
936.508 .0250584
937.142 .0250452
937.776 .0250327
938.409 .0250211
939.042 .0250100
939.674 .0249993
940.306 .0249890
940.938 .0249790
941.569 .0249695
942.200 .0249606
942.830 .0249522
943.460 .0249444
944.090 .0249371
944.720 .0249302
945.349 .0249239
945.977 .0249183
946.606 .0249131
947.233 .0249082
947.861 .0249032
948.488 .0248976
949.115 .0248917
949.741 .0248856
950.367 .0248792
950.993 .0248726
951.618 .0248663
952.243 .0248601
952.868 .0248544
953.492 .0248489
954.115 .0248436
954.739 .0248383
955.362 .0248334
955.984 .0248281
956.607 .0248226
957.229 .0248177
957.850 .0248130
958.471 .0248084
959.092 .0248044
959.713 .0248001
960.333 .0247957
960.952 .0247911
961.572 .0247865
962.191 .0247811
962.809 .0247758
963.428 .0247708
964.045 .0247659
964.663 .0247619
965.280 .0247590
965.897 .0247570
966.513 .0247565
967.129 .0247573
967.745 .0247588
968.361 .0247606
968.976 .0247627
969.590 .0247644
970.205 .0247656
970.818 .0247664
971.432 .0247665
972.045 .0247661
972.658 .0247659
973.271 .0247653
973.883 .0247641
974.495 .0247625
975.106 .0247600
975.717 .0247566
976.328 .0247515
976.938 .0247446
977.548 .0247364
978.158 .0247273
978.768 .0247173
979.377 .0247067
979.985 .0246958
980.594 .0246848
981.202 .0246741
981.809 .0246636
982.417 .0246537
983.024 .0246446
983.631 .0246362
984.237 .0246283
984.843 .0246208
985.449 .0246132
986.054 .0246050
986.659 .0245964
987.264 .0245873
987.868 .0245771
988.472 .0245663
989.076 .0245551
989.679 .0245444
990.282 .0245341
990.885 .0245239
991.487 .0245132
992.090 .0245022
992.691 .0244898
993.293 .0244758
993.894 .0244608
994.495 .0244450
995.095 .0244296
995.696 .0244143
996.296 .0243998
996.895 .0243866
997.494 .0243747
998.093 .0243638
998.692 .0243530
999.291 .0243422
999.889 .0243306
1000.487 .0243181
1001.084 .0243050
1001.681 .0242914
1002.278 .0242779
1002.875 .0242648
1003.471 .0242520
1004.067 .0242395
1004.663 .0242276
1005.258 .0242159
1005.854 .0242049
1006.449 .0241944
1007.043 .0241837
1007.638 .0241730
1008.232 .0241619
1008.826 .0241505
1009.419 .0241385
1010.012 .0241266
1010.605 .0241145
1011.198 .0241024
1011.791 .0240911
1012.383 .0240802
1012.975 .0240701
1013.566 .0240612
1014.158 .0240533
1014.749 .0240462
1015.340 .0240396
1015.931 .0240330
1016.521 .0240262
1017.111 .0240197
1017.701 .0240130
1018.291 .0240064
1018.880 .0240002
1019.470 .0239944
1020.059 .0239887
1020.647 .0239839
1021.236 .0239799
1021.824 .0239765
1022.412 .0239742
1023.000 .0239726
1023.588 .0239713
1024.175 .0239702
1024.762 .0239688
1025.349 .0239668
1025.936 .0239643
1026.523 .0239612
1027.109 .0239571
1027.695 .0239526
1028.281 .0239482
1028.867 .0239440
1029.452 .0239408
1030.038 .0239391
1030.623 .0239385
1031.208 .0239390
1031.792 .0239403
1032.377 .0239418
1032.961 .0239431
1033.546 .0239440
1034.130 .0239449
1034.714 .0239456
1035.297 .0239459
1035.881 .0239465
1036.464 .0239476
1037.047 .0239493
1037.630 .0239515
1038.213 .0239540
1038.796 .0239568
1039.378 .0239599
1039.961 .0239629
1040.543 .0239658
1041.125 .0239687
1041.707 .0239722
1042.289 .0239754
1042.871 .0239791
1043.452 .0239836
1044.034 .0239883
1044.615 .0239935
1045.196 .0239992
1045.777 .0240053
1046.358 .0240116
1046.939 .0240182
1047.520 .0240252
1048.101 .0240323
1048.681 .0240402
1049.262 .0240485
1049.842 .0240570
1050.422 .0240665
1051.002 .0240761
1051.582 .0240854
1052.162 .0240946
1052.742 .0241028
1053.322 .0241097
1053.902 .0241158
1054.482 .0241208
1055.061 .0241260
1055.641 .0241317
1056.220 .0241379
1056.800 .0241453
1057.379 .0241537
1057.958 .0241628
1058.538 .0241716
1059.117 .0241803
1059.696 .0241879
1060.275 .0241946
1060.854 .0242000
1061.433 .0242053
1062.012 .0242107
1062.592 .0242174
1063.171 .0242254
1063.750 .0242343
1064.329 .0242436
1064.908 .0242527
1065.487 .0242600
1066.066 .0242656
1066.645 .0242684
1067.224 .0242697
1067.803 .0242685
1068.382 .0242666
1068.961 .0242644
1069.540 .0242625
1070.119 .0242612
1070.698 .0242603
1071.278 .0242581
1071.857 .0242561
1072.436 .0242529
1073.016 .0242488
1073.595 .0242438
1074.175 .0242390
1074.754 .0242336
1075.334 .0242277
1075.913 .0242218
1076.493 .0242165
1077.073 .0242097
1077.653 .0242034
1078.233 .0241966
1078.813 .0241894
1079.393 .0241826
1079.974 .0241759
1080.554 .0241703
1081.135 .0241664
1081.716 .0241627
1082.296 .0241595
1082.877 .0241566
1083.458 .0241545
1084.040 .0241513
1084.621 .0241467
1085.202 .0241427
1085.784 .0241388
1086.366 .0241352
1086.948 .0241340
1087.530 .0241356
1088.112 .0241407
1088.695 .0241480
1089.277 .0241569
1089.860 .0241662
1090.443 .0241746
1091.026 .0241814
1091.610 .0241863
1092.193 .0241904
1092.777 .0241931
1093.361 .0241942
1093.946 .0241963
1094.530 .0241983
1095.115 .0242012
1095.700 .0242045
1096.285 .0242083
1096.871 .0242115
1097.456 .0242137
1098.042 .0242143
1098.628 .0242128
1099.215 .0242095
1099.802 .0242048
1100.389 .0241984
1100.976 .0241921
1101.564 .0241847
1102.152 .0241759
1102.740 .0241669
1103.329 .0241573
1103.917 .0241447
1104.507 .0241301
1105.096 .0241122
1105.686 .0240926
1106.276 .0240706
1106.867 .0240490
1107.457 .0240286
1108.049 .0240098
1108.640 .0239952
1109.232 .0239835
1109.825 .0239761
1110.417 .0239729
1111.010 .0239724
1111.604 .0239746
1112.198 .0239798
1112.792 .0239874
1113.387 .0239965
1113.982 .0240096
1114.577 .0240275
1115.173 .0240484
1115.769 .0240709
1116.366 .0240968
1116.963 .0241244
1117.561 .0241512
1118.159 .0241778
1118.758 .0242012
1119.357 .0242220
1119.957 .0242378
1120.557 .0242490
1121.157 .0242548
1121.758 .0242589
1122.360 .0242613
1122.962 .0242609
1123.564 .0242615
1124.167 .0242645
1124.771 .0242669
1125.375 .0242705
1125.980 .0242732
1126.585 .0242756
1127.191 .0242764
1127.797 .0242778
1128.404 .0242791
1129.012 .0242833
1129.620 .0242929
1130.229 .0243078
1130.838 .0243273
1131.448 .0243518
1132.058 .0243789
1132.669 .0244069
1133.281 .0244351
1133.894 .0244628
1134.507 .0244868
1135.120 .0245118
1135.735 .0245369
1136.350 .0245653
1136.965 .0245957
1137.582 .0246279
1138.199 .0246622
1138.816 .0246967
1139.435 .0247297
1140.054 .0247588
1140.674 .0247884
1141.294 .0248256
1141.916 .0248851
1142.538 .0248426
1143.160 .0248635
1143.784 .0250061
1144.408 .0252018
1145.033 .0257378
