Measurement Sequence started on: 14-45-04-498
Integration time: 36
Scans to Average: 2 
>>>>>Begin Spectral Data<<<<<
433.946 .0634764
434.870 .0540813
435.793 .0549218
436.715 .0525368
437.635 .0503296
438.555 .0500170
439.473 .0486973
440.389 .0478035
441.305 .0470196
442.219 .0464152
443.132 .0459510
444.044 .0455826
444.954 .0452953
445.863 .0450526
446.771 .0448455
447.678 .0446821
448.584 .0445609
449.488 .0444576
450.391 .0443673
451.293 .0442869
452.194 .0442179
453.094 .0441519
453.992 .0440764
454.890 .0440008
455.786 .0439180
456.681 .0438295
457.575 .0437396
458.468 .0436499
459.360 .0435661
460.250 .0434923
461.140 .0434160
462.028 .0433380
462.915 .0432552
463.801 .0431659
464.687 .0430613
465.571 .0429505
466.454 .0428389
467.335 .0427259
468.216 .0426152
469.096 .0425200
469.975 .0424289
470.853 .0423494
471.729 .0422746
472.605 .0421997
473.479 .0421202
474.353 .0420368
475.226 .0419467
476.097 .0418592
476.968 .0417798
477.838 .0417077
478.706 .0416455
479.574 .0415994
480.441 .0415621
481.306 .0415297
482.171 .0414979
483.035 .0414631
483.898 .0414226
484.760 .0413797
485.621 .0413331
486.481 .0412837
487.340 .0412357
488.198 .0411866
489.055 .0411340
489.912 .0410733
490.767 .0409989
491.622 .0409097
492.476 .0408073
493.329 .0406911
494.180 .0405666
495.032 .0404448
495.882 .0403286
496.731 .0402155
497.580 .0401105
498.427 .0400104
499.274 .0399116
500.120 .0398129
500.965 .0397147
501.809 .0396142
502.653 .0395165
503.495 .0394276
504.337 .0393474
505.178 .0392817
506.018 .0392315
506.858 .0391915
507.696 .0391626
508.534 .0391376
509.371 .0391073
510.208 .0390737
511.043 .0390422
511.878 .0390060
512.712 .0389691
513.545 .0389347
514.377 .0389059
515.209 .0388789
516.040 .0388602
516.870 .0388532
517.699 .0388565
518.528 .0388707
519.356 .0388939
520.183 .0389243
521.010 .0389647
521.836 .0390025
522.661 .0390353
523.485 .0390609
524.309 .0390761
525.132 .0390762
525.954 .0390667
526.776 .0390528
527.597 .0390418
528.417 .0390238
529.237 .0390080
530.056 .0389809
530.874 .0389402
531.692 .0388784
532.508 .0387945
533.325 .0386931
534.140 .0385700
534.955 .0384327
535.770 .0382927
536.583 .0381545
537.397 .0380262
538.209 .0379102
539.021 .0378109
539.832 .0377213
540.643 .0376412
541.453 .0375640
542.262 .0374922
543.071 .0374242
543.879 .0373595
544.687 .0372984
545.494 .0372420
546.300 .0371917
547.106 .0371415
547.911 .0371059
548.716 .0370807
549.520 .0370579
550.323 .0370388
551.126 .0370249
551.929 .0370165
552.731 .0370071
553.532 .0369981
554.332 .0369861
555.133 .0369763
555.932 .0369621
556.731 .0369396
557.530 .0369176
558.328 .0368983
559.125 .0368814
559.922 .0368676
560.719 .0368609
561.515 .0368531
562.310 .0368434
563.105 .0368315
563.899 .0368142
564.693 .0367902
565.487 .0367559
566.280 .0367116
567.072 .0366639
567.864 .0366099
568.655 .0365473
569.446 .0364802
570.236 .0364123
571.026 .0363400
571.816 .0362668
572.605 .0361939
573.393 .0361266
574.181 .0360662
574.969 .0360153
575.756 .0359682
576.543 .0359289
577.329 .0358943
578.115 .0358606
578.900 .0358292
579.685 .0357999
580.469 .0357700
581.253 .0357466
582.036 .0357265
582.820 .0357105
583.602 .0356968
584.384 .0356876
585.166 .0356781
585.947 .0356674
586.728 .0356523
587.509 .0356316
588.289 .0356046
589.069 .0355747
589.848 .0355402
590.627 .0355060
591.405 .0354728
592.183 .0354408
592.961 .0354106
593.738 .0353827
594.515 .0353526
595.291 .0353211
596.067 .0352884
596.843 .0352545
597.618 .0352183
598.393 .0351819
599.167 .0351465
599.941 .0351141
600.715 .0350853
601.488 .0350602
602.261 .0350381
603.034 .0350203
603.806 .0350032
604.578 .0349860
605.349 .0349690
606.121 .0349520
606.891 .0349342
607.662 .0349168
608.432 .0348985
609.201 .0348800
609.971 .0348608
610.740 .0348416
611.508 .0348222
612.277 .0348025
613.045 .0347826
613.812 .0347621
614.579 .0347411
615.346 .0347209
616.113 .0347008
616.879 .0346820
617.645 .0346652
618.411 .0346496
619.176 .0346354
619.941 .0346229
620.705 .0346124
621.470 .0346052
622.233 .0346009
622.997 .0346000
623.760 .0346010
624.523 .0346032
625.286 .0346059
626.048 .0346078
626.810 .0346084
627.572 .0346062
628.333 .0346001
629.095 .0345899
629.855 .0345757
630.616 .0345588
631.376 .0345402
632.136 .0345205
632.895 .0345011
633.655 .0344812
634.414 .0344600
635.172 .0344381
635.931 .0344143
636.689 .0343893
637.447 .0343631
638.204 .0343356
638.962 .0343080
639.718 .0342821
640.475 .0342588
641.231 .0342378
641.988 .0342195
642.743 .0342033
643.499 .0341872
644.254 .0341712
645.009 .0341544
645.764 .0341363
646.518 .0341178
647.272 .0340997
648.026 .0340813
648.780 .0340636
649.533 .0340460
650.286 .0340281
651.039 .0340093
651.792 .0339888
652.544 .0339656
653.296 .0339413
654.048 .0339174
654.799 .0338946
655.550 .0338737
656.301 .0338552
657.052 .0338390
657.802 .0338250
658.552 .0338112
659.302 .0337983
660.052 .0337850
660.801 .0337715
661.550 .0337573
662.299 .0337442
663.048 .0337329
663.796 .0337238
664.544 .0337178
665.292 .0337142
666.040 .0337116
666.787 .0337094
667.534 .0337057
668.281 .0337009
669.028 .0336948
669.774 .0336871
670.521 .0336779
671.266 .0336687
672.012 .0336596
672.758 .0336511
673.503 .0336432
674.248 .0336366
674.992 .0336306
675.737 .0336245
676.481 .0336185
677.225 .0336115
677.969 .0336040
678.712 .0335954
679.455 .0335855
680.199 .0335750
680.941 .0335629
681.684 .0335498
682.426 .0335352
683.168 .0335197
683.910 .0335028
684.652 .0334846
685.393 .0334650
686.134 .0334443
686.875 .0334224
687.616 .0333994
688.356 .0333758
689.097 .0333523
689.837 .0333281
690.576 .0333037
691.316 .0332796
692.055 .0332559
692.794 .0332322
693.533 .0332098
694.272 .0331881
695.010 .0331677
695.748 .0331488
696.486 .0331310
697.224 .0331139
697.962 .0330976
698.699 .0330815
699.436 .0330645
700.173 .0330469
700.909 .0330282
701.646 .0330080
702.382 .0329874
703.118 .0329661
703.853 .0329445
704.589 .0329234
705.324 .0329035
706.059 .0328852
706.794 .0328684
707.529 .0328534
708.263 .0328398
708.997 .0328278
709.731 .0328164
710.465 .0328058
711.198 .0327959
711.931 .0327863
712.664 .0327770
713.397 .0327676
714.130 .0327579
714.862 .0327486
715.594 .0327395
716.326 .0327307
717.058 .0327221
717.789 .0327137
718.520 .0327048
719.251 .0326956
719.982 .0326857
720.713 .0326748
721.443 .0326630
722.173 .0326501
722.903 .0326354
723.633 .0326192
724.362 .0326024
725.091 .0325846
725.820 .0325668
726.549 .0325499
727.278 .0325342
728.006 .0325202
728.734 .0325073
729.462 .0324954
730.190 .0324843
730.917 .0324726
731.644 .0324599
732.371 .0324459
733.098 .0324313
733.825 .0324162
734.551 .0324016
735.277 .0323886
736.003 .0323773
736.728 .0323678
737.454 .0323602
738.179 .0323535
738.904 .0323474
739.629 .0323405
740.353 .0323321
741.077 .0323227
741.801 .0323116
742.525 .0322986
743.249 .0322852
743.972 .0322719
744.695 .0322588
745.418 .0322450
746.141 .0322311
746.863 .0322169
747.585 .0322021
748.307 .0321866
749.029 .0321702
749.750 .0321532
750.472 .0321361
751.193 .0321179
751.913 .0320993
752.634 .0320801
753.354 .0320602
754.074 .0320396
754.794 .0320190
755.514 .0319982
756.233 .0319774
756.952 .0319571
757.671 .0319382
758.390 .0319195
759.108 .0319011
759.826 .0318828
760.544 .0318644
761.262 .0318455
761.979 .0318264
762.697 .0318069
763.414 .0317886
764.130 .0317715
764.847 .0317558
765.563 .0317415
766.279 .0317300
766.995 .0317203
767.710 .0317116
768.426 .0317039
769.141 .0316969
769.855 .0316892
770.570 .0316810
771.284 .0316722
771.998 .0316632
772.712 .0316551
773.426 .0316482
774.139 .0316431
774.852 .0316394
775.565 .0316373
776.277 .0316363
776.990 .0316355
777.702 .0316345
778.414 .0316322
779.125 .0316284
779.836 .0316233
780.547 .0316166
781.258 .0316091
781.969 .0316013
782.679 .0315943
783.389 .0315881
784.099 .0315826
784.808 .0315775
785.517 .0315733
786.226 .0315685
786.935 .0315634
787.643 .0315577
788.352 .0315516
789.060 .0315456
789.767 .0315401
790.475 .0315353
791.182 .0315313
791.889 .0315281
792.595 .0315261
793.301 .0315239
794.008 .0315218
794.713 .0315188
795.419 .0315154
796.124 .0315115
796.829 .0315064
797.534 .0315003
798.238 .0314934
798.942 .0314854
799.646 .0314761
800.350 .0314646
801.053 .0314510
801.756 .0314354
802.459 .0314179
803.162 .0313982
803.864 .0313775
804.566 .0313563
805.267 .0313347
805.969 .0313133
806.670 .0312922
807.371 .0312712
808.071 .0312512
808.772 .0312324
809.472 .0312135
810.171 .0311951
810.871 .0311771
811.570 .0311593
812.269 .0311418
812.967 .0311251
813.666 .0311085
814.364 .0310924
815.061 .0310777
815.759 .0310639
816.456 .0310507
817.153 .0310388
817.849 .0310267
818.545 .0310144
819.241 .0310010
819.937 .0309861
820.632 .0309687
821.327 .0309500
822.022 .0309299
822.717 .0309093
823.411 .0308889
824.105 .0308703
824.798 .0308529
825.491 .0308373
826.184 .0308227
826.877 .0308087
827.569 .0307948
828.261 .0307799
828.953 .0307639
829.645 .0307468
830.336 .0307286
831.027 .0307104
831.717 .0306921
832.407 .0306750
833.097 .0306583
833.787 .0306426
834.476 .0306275
835.165 .0306127
835.854 .0305982
836.542 .0305837
837.230 .0305698
837.918 .0305565
838.605 .0305439
839.292 .0305323
839.979 .0305219
840.665 .0305127
841.352 .0305053
842.037 .0304995
842.723 .0304955
843.408 .0304929
844.093 .0304916
844.777 .0304914
845.462 .0304923
846.145 .0304936
846.829 .0304947
847.512 .0304956
848.195 .0304965
848.878 .0304959
849.560 .0304949
850.242 .0304930
850.923 .0304906
851.605 .0304875
852.286 .0304836
852.966 .0304784
853.646 .0304724
854.326 .0304661
855.006 .0304592
855.685 .0304514
856.364 .0304436
857.043 .0304352
857.721 .0304267
858.399 .0304178
859.077 .0304083
859.754 .0303981
860.431 .0303875
861.107 .0303763
861.784 .0303643
862.459 .0303520
863.135 .0303397
863.810 .0303273
864.485 .0303150
865.160 .0303027
865.834 .0302896
866.508 .0302758
867.181 .0302620
867.854 .0302479
868.527 .0302339
869.199 .0302199
869.872 .0302063
870.543 .0301933
871.215 .0301804
871.886 .0301681
872.557 .0301552
873.227 .0301424
873.897 .0301294
874.567 .0301162
875.236 .0301033
875.905 .0300911
876.573 .0300798
877.242 .0300691
877.909 .0300588
878.577 .0300479
879.244 .0300358
879.911 .0300231
880.577 .0300094
881.243 .0299947
881.909 .0299790
882.575 .0299629
883.240 .0299462
883.904 .0299297
884.569 .0299127
885.232 .0298953
885.896 .0298773
886.559 .0298592
887.222 .0298407
887.885 .0298218
888.547 .0298032
889.208 .0297848
889.870 .0297669
890.531 .0297497
891.192 .0297323
891.852 .0297145
892.512 .0296963
893.171 .0296778
893.830 .0296589
894.489 .0296397
895.148 .0296205
895.806 .0296018
896.464 .0295837
897.121 .0295658
897.778 .0295478
898.434 .0295303
899.091 .0295130
899.747 .0294951
900.402 .0294772
901.057 .0294595
901.712 .0294424
902.366 .0294258
903.020 .0294105
903.674 .0293969
904.327 .0293845
904.980 .0293734
905.633 .0293630
906.285 .0293532
906.936 .0293437
907.588 .0293334
908.239 .0293222
908.889 .0293105
909.540 .0292977
910.190 .0292834
910.839 .0292687
911.488 .0292542
912.137 .0292393
912.785 .0292241
913.433 .0292089
914.081 .0291933
914.728 .0291774
915.375 .0291611
916.021 .0291444
916.668 .0291281
917.313 .0291125
917.959 .0290973
918.604 .0290827
919.248 .0290695
919.892 .0290569
920.536 .0290450
921.180 .0290336
921.823 .0290222
922.465 .0290105
923.108 .0289987
923.750 .0289867
924.391 .0289743
925.032 .0289619
925.673 .0289493
926.313 .0289367
926.953 .0289245
927.593 .0289126
928.232 .0289010
928.871 .0288898
929.510 .0288796
930.148 .0288696
930.786 .0288601
931.423 .0288506
932.060 .0288412
932.697 .0288316
933.333 .0288212
933.969 .0288103
934.604 .0287989
935.239 .0287876
935.874 .0287762
936.508 .0287651
937.142 .0287544
937.776 .0287441
938.409 .0287344
939.042 .0287245
939.674 .0287149
940.306 .0287056
940.938 .0286972
941.569 .0286895
942.200 .0286830
942.830 .0286780
943.460 .0286743
944.090 .0286715
944.720 .0286687
945.349 .0286661
945.977 .0286633
946.606 .0286602
947.233 .0286572
947.861 .0286540
948.488 .0286511
949.115 .0286484
949.741 .0286461
950.367 .0286432
950.993 .0286390
951.618 .0286328
952.243 .0286247
952.868 .0286141
953.492 .0286011
954.115 .0285867
954.739 .0285718
955.362 .0285576
955.984 .0285434
956.607 .0285295
957.229 .0285165
957.850 .0285032
958.471 .0284892
959.092 .0284734
959.713 .0284562
960.333 .0284372
960.952 .0284179
961.572 .0283996
962.191 .0283819
962.809 .0283663
963.428 .0283533
964.045 .0283419
964.663 .0283326
965.280 .0283239
965.897 .0283153
966.513 .0283069
967.129 .0282984
967.745 .0282884
968.361 .0282777
968.976 .0282669
969.590 .0282565
970.205 .0282462
970.818 .0282368
971.432 .0282280
972.045 .0282196
972.658 .0282120
973.271 .0282038
973.883 .0281944
974.495 .0281836
975.106 .0281697
975.717 .0281536
976.328 .0281351
976.938 .0281152
977.548 .0280951
978.158 .0280758
978.768 .0280581
979.377 .0280416
979.985 .0280262
980.594 .0280110
981.202 .0279957
981.809 .0279795
982.417 .0279618
983.024 .0279429
983.631 .0279239
984.237 .0279055
984.843 .0278883
985.449 .0278733
986.054 .0278603
986.659 .0278493
987.264 .0278400
987.868 .0278306
988.472 .0278210
989.076 .0278104
989.679 .0277991
990.282 .0277867
990.885 .0277737
991.487 .0277597
992.090 .0277455
992.691 .0277315
993.293 .0277179
993.894 .0277046
994.495 .0276917
995.095 .0276790
995.696 .0276674
996.296 .0276556
996.895 .0276450
997.494 .0276345
998.093 .0276247
998.692 .0276152
999.291 .0276063
999.889 .0275968
1000.487 .0275867
1001.084 .0275760
1001.681 .0275648
1002.278 .0275519
1002.875 .0275388
1003.471 .0275237
1004.067 .0275079
1004.663 .0274917
1005.258 .0274757
1005.854 .0274594
1006.449 .0274449
1007.043 .0274309
1007.638 .0274184
1008.232 .0274070
1008.826 .0273969
1009.419 .0273873
1010.012 .0273786
1010.605 .0273699
1011.198 .0273607
1011.791 .0273507
1012.383 .0273416
1012.975 .0273325
1013.566 .0273253
1014.158 .0273196
1014.749 .0273157
1015.340 .0273142
1015.931 .0273145
1016.521 .0273158
1017.111 .0273176
1017.701 .0273192
1018.291 .0273205
1018.880 .0273211
1019.470 .0273221
1020.059 .0273248
1020.647 .0273303
1021.236 .0273394
1021.824 .0273524
1022.412 .0273685
1023.000 .0273862
1023.588 .0274045
1024.175 .0274217
1024.762 .0274367
1025.349 .0274487
1025.936 .0274587
1026.523 .0274670
1027.109 .0274755
1027.695 .0274852
1028.281 .0274966
1028.867 .0275104
1029.452 .0275262
1030.038 .0275410
1030.623 .0275545
1031.208 .0275660
1031.792 .0275741
1032.377 .0275791
1032.961 .0275825
1033.546 .0275856
1034.130 .0275904
1034.714 .0275973
1035.297 .0276068
1035.881 .0276186
1036.464 .0276322
1037.047 .0276455
1037.630 .0276575
1038.213 .0276687
1038.796 .0276771
1039.378 .0276842
1039.961 .0276918
1040.543 .0276995
1041.125 .0277081
1041.707 .0277181
1042.289 .0277285
1042.871 .0277391
1043.452 .0277489
1044.034 .0277569
1044.615 .0277632
1045.196 .0277687
1045.777 .0277729
1046.358 .0277752
1046.939 .0277765
1047.520 .0277767
1048.101 .0277751
1048.681 .0277732
1049.262 .0277703
1049.842 .0277666
1050.422 .0277633
1051.002 .0277615
1051.582 .0277603
1052.162 .0277604
1052.742 .0277618
1053.322 .0277634
1053.902 .0277637
1054.482 .0277625
1055.061 .0277592
1055.641 .0277537
1056.220 .0277468
1056.800 .0277386
1057.379 .0277294
1057.958 .0277199
1058.538 .0277088
1059.117 .0276964
1059.696 .0276836
1060.275 .0276708
1060.854 .0276561
1061.433 .0276428
1062.012 .0276307
1062.592 .0276200
1063.171 .0276109
1063.750 .0276040
1064.329 .0275996
1064.908 .0275963
1065.487 .0275934
1066.066 .0275914
1066.645 .0275896
1067.224 .0275909
1067.803 .0275922
1068.382 .0275966
1068.961 .0276039
1069.540 .0276115
1070.119 .0276179
1070.698 .0276243
1071.278 .0276292
1071.857 .0276318
1072.436 .0276312
1073.016 .0276298
1073.595 .0276286
1074.175 .0276292
1074.754 .0276312
1075.334 .0276347
1075.913 .0276411
1076.493 .0276513
1077.073 .0276596
1077.653 .0276678
1078.233 .0276727
1078.813 .0276743
1079.393 .0276728
1079.974 .0276691
1080.554 .0276639
1081.135 .0276580
1081.716 .0276524
1082.296 .0276488
1082.877 .0276450
1083.458 .0276425
1084.040 .0276392
1084.621 .0276368
1085.202 .0276338
1085.784 .0276277
1086.366 .0276189
1086.948 .0276103
1087.530 .0276010
1088.112 .0275933
1088.695 .0275842
1089.277 .0275765
1089.860 .0275699
1090.443 .0275640
1091.026 .0275581
1091.610 .0275542
1092.193 .0275524
1092.777 .0275522
1093.361 .0275514
1093.946 .0275511
1094.530 .0275484
1095.115 .0275442
1095.700 .0275377
1096.285 .0275257
1096.871 .0275084
1097.456 .0274897
1098.042 .0274705
1098.628 .0274524
1099.215 .0274363
1099.802 .0274235
1100.389 .0274112
1100.976 .0273988
1101.564 .0273818
1102.152 .0273581
1102.740 .0273289
1103.329 .0272931
1103.917 .0272521
1104.507 .0272083
1105.096 .0271679
1105.686 .0271309
1106.276 .0271012
1106.867 .0270787
1107.457 .0270577
1108.049 .0270363
1108.640 .0270156
1109.232 .0269926
1109.825 .0269677
1110.417 .0269439
1111.010 .0269264
1111.604 .0269163
1112.198 .0269178
1112.792 .0269308
1113.387 .0269562
1113.982 .0269901
1114.577 .0270309
1115.173 .0270694
1115.769 .0271070
1116.366 .0271410
1116.963 .0271719
1117.561 .0272033
1118.159 .0272382
1118.758 .0272748
1119.357 .0273131
1119.957 .0273551
1120.557 .0274005
1121.157 .0274403
1121.758 .0274770
1122.360 .0275080
1122.962 .0275296
1123.564 .0275432
1124.167 .0275487
1124.771 .0275461
1125.375 .0275386
1125.980 .0275258
1126.585 .0275120
1127.191 .0274951
1127.797 .0274833
1128.404 .0274744
1129.012 .0274693
1129.620 .0274726
1130.229 .0274792
1130.838 .0274885
1131.448 .0275001
1132.058 .0275152
1132.669 .0275295
1133.281 .0275456
1133.894 .0275709
1134.507 .0276044
1135.120 .0276513
1135.735 .0277141
1136.350 .0277933
1136.965 .0278834
1137.582 .0279853
1138.199 .0280886
1138.816 .0281945
1139.435 .0282998
1140.054 .0284028
1140.674 .0285098
1141.294 .0286055
1141.916 .0287054
1142.538 .0287773
1143.160 .0289674
1143.784 .0292151
1144.408 .0288878
1145.033 .0292145
