Measurement Sequence started on: 14-45-04-498
Integration time: 36
Scans to Average: 2 
>>>>>Begin Spectral Data<<<<<
433.946 .0799861
434.870 .0745157
435.793 .0646595
436.715 .0621499
437.635 .0607101
438.555 .0608127
439.473 .0589172
440.389 .0574920
441.305 .0565072
442.219 .0556660
443.132 .0549469
444.044 .0543343
444.954 .0538040
445.863 .0533495
446.771 .0529460
447.678 .0525816
448.584 .0522581
449.488 .0519460
450.391 .0516554
451.293 .0513794
452.194 .0511321
453.094 .0508924
453.992 .0506710
454.890 .0504611
455.786 .0502515
456.681 .0500512
457.575 .0498594
458.468 .0496628
459.360 .0494811
460.250 .0493109
461.140 .0491489
462.028 .0489878
462.915 .0488314
463.801 .0486681
464.687 .0484994
465.571 .0483249
466.454 .0481482
467.335 .0479760
468.216 .0478200
469.096 .0476773
469.975 .0475530
470.853 .0474559
471.729 .0473783
472.605 .0473122
473.479 .0472630
474.353 .0472205
475.226 .0471833
476.097 .0471503
476.968 .0471217
477.838 .0470931
478.706 .0470684
479.574 .0470476
480.441 .0470270
481.306 .0470036
482.171 .0469770
483.035 .0469438
483.898 .0469026
484.760 .0468541
485.621 .0467949
486.481 .0467247
487.340 .0466550
488.198 .0465780
489.055 .0464962
489.912 .0464147
490.767 .0463336
491.622 .0462542
492.476 .0461803
493.329 .0461110
494.180 .0460415
495.032 .0459766
495.882 .0459177
496.731 .0458544
497.580 .0457952
498.427 .0457386
499.274 .0456826
500.120 .0456355
500.965 .0455933
501.809 .0455531
502.653 .0455179
503.495 .0454879
504.337 .0454506
505.178 .0454101
506.018 .0453639
506.858 .0453035
507.696 .0452325
508.534 .0451503
509.371 .0450531
510.208 .0449508
511.043 .0448487
511.878 .0447451
512.712 .0446434
513.545 .0445496
514.377 .0444478
515.209 .0443522
516.040 .0442552
516.870 .0441534
517.699 .0440430
518.528 .0439334
519.356 .0438216
520.183 .0437112
521.010 .0436225
521.836 .0435499
522.661 .0435001
523.485 .0434776
524.309 .0434635
525.132 .0434615
525.954 .0434597
526.776 .0434601
527.597 .0434508
528.417 .0434388
529.237 .0434224
530.056 .0433986
530.874 .0433781
531.692 .0433652
532.508 .0433502
533.325 .0433380
534.140 .0433232
534.955 .0432957
535.770 .0432568
536.583 .0432124
537.397 .0431595
538.209 .0431013
539.021 .0430375
539.832 .0429663
540.643 .0428764
541.453 .0427833
542.262 .0426783
543.071 .0425630
543.879 .0424469
544.687 .0423284
545.494 .0422096
546.300 .0421061
547.106 .0420151
547.911 .0419413
548.716 .0418826
549.520 .0418377
550.323 .0417991
551.126 .0417647
551.929 .0417348
552.731 .0417080
553.532 .0416831
554.332 .0416664
555.133 .0416508
555.932 .0416426
556.731 .0416347
557.530 .0416265
558.328 .0416112
559.125 .0415880
559.922 .0415541
560.719 .0415052
561.515 .0414434
562.310 .0413746
563.105 .0413023
563.899 .0412313
564.693 .0411659
565.487 .0411014
566.280 .0410391
567.072 .0409793
567.864 .0409136
568.655 .0408443
569.446 .0407723
570.236 .0406948
571.026 .0406130
571.816 .0405343
572.605 .0404581
573.393 .0403820
574.181 .0403143
574.969 .0402536
575.756 .0401927
576.543 .0401329
577.329 .0400720
578.115 .0400097
578.900 .0399477
579.685 .0398840
580.469 .0398192
581.253 .0397565
582.036 .0396975
582.820 .0396366
583.602 .0395764
584.384 .0395207
585.166 .0394665
585.947 .0394154
586.728 .0393677
587.509 .0393245
588.289 .0392860
589.069 .0392520
589.848 .0392229
590.627 .0391981
591.405 .0391760
592.183 .0391537
592.961 .0391311
593.738 .0391072
594.515 .0390812
595.291 .0390527
596.067 .0390230
596.843 .0389934
597.618 .0389634
598.393 .0389346
599.167 .0389062
599.941 .0388797
600.715 .0388545
601.488 .0388299
602.261 .0388056
603.034 .0387824
603.806 .0387592
604.578 .0387357
605.349 .0387129
606.121 .0386904
606.891 .0386690
607.662 .0386482
608.432 .0386281
609.201 .0386090
609.971 .0385907
610.740 .0385725
611.508 .0385525
612.277 .0385319
613.045 .0385090
613.812 .0384829
614.579 .0384538
615.346 .0384226
616.113 .0383893
616.879 .0383553
617.645 .0383220
618.411 .0382902
619.176 .0382602
619.941 .0382322
620.705 .0382056
621.470 .0381801
622.233 .0381549
622.997 .0381287
623.760 .0381019
624.523 .0380759
625.286 .0380504
626.048 .0380260
626.810 .0380029
627.572 .0379808
628.333 .0379583
629.095 .0379342
629.855 .0379072
630.616 .0378768
631.376 .0378429
632.136 .0378055
632.895 .0377658
633.655 .0377258
634.414 .0376863
635.172 .0376488
635.931 .0376134
636.689 .0375798
637.447 .0375476
638.204 .0375158
638.962 .0374841
639.718 .0374530
640.475 .0374224
641.231 .0373931
641.988 .0373651
642.743 .0373390
643.499 .0373139
644.254 .0372896
645.009 .0372662
645.764 .0372423
646.518 .0372182
647.272 .0371934
648.026 .0371682
648.780 .0371439
649.533 .0371205
650.286 .0370983
651.039 .0370768
651.792 .0370555
652.544 .0370338
653.296 .0370108
654.048 .0369870
654.799 .0369623
655.550 .0369372
656.301 .0369127
657.052 .0368896
657.802 .0368679
658.552 .0368483
659.302 .0368303
660.052 .0368138
660.801 .0367973
661.550 .0367810
662.299 .0367636
663.048 .0367446
663.796 .0367246
664.544 .0367035
665.292 .0366814
666.040 .0366590
666.787 .0366363
667.534 .0366144
668.281 .0365930
669.028 .0365725
669.774 .0365522
670.521 .0365330
671.266 .0365140
672.012 .0364946
672.758 .0364738
673.503 .0364520
674.248 .0364283
674.992 .0364034
675.737 .0363781
676.481 .0363530
677.225 .0363292
677.969 .0363069
678.712 .0362863
679.455 .0362677
680.199 .0362501
680.941 .0362329
681.684 .0362154
682.426 .0361977
683.168 .0361788
683.910 .0361588
684.652 .0361385
685.393 .0361187
686.134 .0360997
686.875 .0360817
687.616 .0360648
688.356 .0360488
689.097 .0360331
689.837 .0360169
690.576 .0360002
691.316 .0359829
692.055 .0359653
692.794 .0359477
693.533 .0359307
694.272 .0359150
695.010 .0359003
695.748 .0358867
696.486 .0358736
697.224 .0358607
697.962 .0358471
698.699 .0358328
699.436 .0358176
700.173 .0358019
700.909 .0357857
701.646 .0357693
702.382 .0357536
703.118 .0357381
703.853 .0357225
704.589 .0357067
705.324 .0356903
706.059 .0356729
706.794 .0356539
707.529 .0356339
708.263 .0356123
708.997 .0355904
709.731 .0355676
710.465 .0355444
711.198 .0355215
711.931 .0354985
712.664 .0354756
713.397 .0354532
714.130 .0354311
714.862 .0354096
715.594 .0353893
716.326 .0353703
717.058 .0353523
717.789 .0353352
718.520 .0353187
719.251 .0353024
719.982 .0352855
720.713 .0352677
721.443 .0352491
722.173 .0352294
722.903 .0352092
723.633 .0351884
724.362 .0351678
725.091 .0351470
725.820 .0351263
726.549 .0351060
727.278 .0350850
728.006 .0350640
728.734 .0350428
729.462 .0350207
730.190 .0349987
730.917 .0349766
731.644 .0349549
732.371 .0349341
733.098 .0349150
733.825 .0348974
734.551 .0348820
735.277 .0348683
736.003 .0348556
736.728 .0348431
737.454 .0348312
738.179 .0348186
738.904 .0348052
739.629 .0347917
740.353 .0347771
741.077 .0347627
741.801 .0347487
742.525 .0347348
743.249 .0347217
743.972 .0347092
744.695 .0346979
745.418 .0346869
746.141 .0346761
746.863 .0346658
747.585 .0346560
748.307 .0346476
749.029 .0346396
749.750 .0346318
750.472 .0346243
751.193 .0346170
751.913 .0346089
752.634 .0346000
753.354 .0345899
754.074 .0345790
754.794 .0345663
755.514 .0345520
756.233 .0345359
756.952 .0345179
757.671 .0344984
758.390 .0344775
759.108 .0344552
759.826 .0344321
760.544 .0344082
761.262 .0343847
761.979 .0343615
762.697 .0343394
763.414 .0343176
764.130 .0342968
764.847 .0342766
765.563 .0342562
766.279 .0342362
766.995 .0342167
767.710 .0341975
768.426 .0341788
769.141 .0341600
769.855 .0341415
770.570 .0341229
771.284 .0341045
771.998 .0340852
772.712 .0340651
773.426 .0340451
774.139 .0340250
774.852 .0340049
775.565 .0339854
776.277 .0339670
776.990 .0339496
777.702 .0339333
778.414 .0339174
779.125 .0339023
779.836 .0338880
780.547 .0338743
781.258 .0338614
781.969 .0338489
782.679 .0338374
783.389 .0338264
784.099 .0338163
784.808 .0338065
785.517 .0337970
786.226 .0337876
786.935 .0337786
787.643 .0337708
788.352 .0337638
789.060 .0337577
789.767 .0337528
790.475 .0337487
791.182 .0337450
791.889 .0337414
792.595 .0337385
793.301 .0337352
794.008 .0337327
794.713 .0337306
795.419 .0337292
796.124 .0337285
796.829 .0337281
797.534 .0337265
798.238 .0337233
798.942 .0337170
799.646 .0337071
800.350 .0336935
801.053 .0336775
801.756 .0336594
802.459 .0336405
803.162 .0336221
803.864 .0336055
804.566 .0335907
805.267 .0335780
805.969 .0335660
806.670 .0335541
807.371 .0335416
808.071 .0335287
808.772 .0335147
809.472 .0335008
810.171 .0334878
810.871 .0334765
811.570 .0334665
812.269 .0334580
812.967 .0334505
813.666 .0334434
814.364 .0334353
815.061 .0334256
815.759 .0334135
816.456 .0333997
817.153 .0333841
817.849 .0333672
818.545 .0333501
819.241 .0333332
819.937 .0333160
820.632 .0332991
821.327 .0332822
822.022 .0332653
822.717 .0332484
823.411 .0332316
824.105 .0332150
824.798 .0331988
825.491 .0331835
826.184 .0331686
826.877 .0331549
827.569 .0331415
828.261 .0331272
828.953 .0331119
829.645 .0330957
830.336 .0330777
831.027 .0330584
831.717 .0330388
832.407 .0330186
833.097 .0329990
833.787 .0329795
834.476 .0329595
835.165 .0329401
835.854 .0329207
836.542 .0329011
837.230 .0328806
837.918 .0328601
838.605 .0328394
839.292 .0328185
839.979 .0327980
840.665 .0327780
841.352 .0327591
842.037 .0327416
842.723 .0327251
843.408 .0327098
844.093 .0326964
844.777 .0326845
845.462 .0326740
846.145 .0326644
846.829 .0326547
847.512 .0326443
848.195 .0326329
848.878 .0326207
849.560 .0326075
850.242 .0325932
850.923 .0325786
851.605 .0325640
852.286 .0325500
852.966 .0325361
853.646 .0325223
854.326 .0325088
855.006 .0324949
855.685 .0324797
856.364 .0324628
857.043 .0324441
857.721 .0324241
858.399 .0324027
859.077 .0323809
859.754 .0323584
860.431 .0323365
861.107 .0323157
861.784 .0322958
862.459 .0322771
863.135 .0322599
863.810 .0322437
864.485 .0322291
865.160 .0322158
865.834 .0322039
866.508 .0321930
867.181 .0321837
867.854 .0321757
868.527 .0321693
869.199 .0321649
869.872 .0321630
870.543 .0321632
871.215 .0321659
871.886 .0321702
872.557 .0321754
873.227 .0321811
873.897 .0321864
874.567 .0321903
875.236 .0321919
875.905 .0321912
876.573 .0321879
877.242 .0321820
877.909 .0321746
878.577 .0321663
879.244 .0321566
879.911 .0321464
880.577 .0321345
881.243 .0321216
881.909 .0321070
882.575 .0320913
883.240 .0320737
883.904 .0320545
884.569 .0320340
885.232 .0320128
885.896 .0319917
886.559 .0319719
887.222 .0319528
887.885 .0319354
888.547 .0319195
889.208 .0319043
889.870 .0318895
890.531 .0318766
891.192 .0318646
891.852 .0318541
892.512 .0318446
893.171 .0318364
893.830 .0318291
894.489 .0318232
895.148 .0318182
895.806 .0318141
896.464 .0318118
897.121 .0318100
897.778 .0318081
898.434 .0318074
899.091 .0318063
899.747 .0318044
900.402 .0318012
901.057 .0317963
901.712 .0317893
902.366 .0317801
903.020 .0317691
903.674 .0317562
904.327 .0317419
904.980 .0317264
905.633 .0317093
906.285 .0316914
906.936 .0316725
907.588 .0316525
908.239 .0316324
908.889 .0316122
909.540 .0315919
910.190 .0315718
910.839 .0315522
911.488 .0315334
912.137 .0315146
912.785 .0314952
913.433 .0314751
914.081 .0314545
914.728 .0314340
915.375 .0314128
916.021 .0313914
916.668 .0313715
917.313 .0313527
917.959 .0313350
918.604 .0313184
919.248 .0313022
919.892 .0312867
920.536 .0312712
921.180 .0312555
921.823 .0312401
922.465 .0312253
923.108 .0312111
923.750 .0311967
924.391 .0311825
925.032 .0311682
925.673 .0311522
926.313 .0311357
926.953 .0311184
927.593 .0310993
928.232 .0310794
928.871 .0310586
929.510 .0310370
930.148 .0310142
930.786 .0309904
931.423 .0309647
932.060 .0309380
932.697 .0309106
933.333 .0308822
933.969 .0308534
934.604 .0308260
935.239 .0307992
935.874 .0307732
936.508 .0307494
937.142 .0307276
937.776 .0307067
938.409 .0306876
939.042 .0306689
939.674 .0306506
940.306 .0306325
940.938 .0306147
941.569 .0305969
942.200 .0305802
942.830 .0305637
943.460 .0305472
944.090 .0305312
944.720 .0305156
945.349 .0305002
945.977 .0304855
946.606 .0304713
947.233 .0304577
947.861 .0304447
948.488 .0304320
949.115 .0304195
949.741 .0304073
950.367 .0303953
950.993 .0303828
951.618 .0303709
952.243 .0303593
952.868 .0303481
953.492 .0303381
954.115 .0303295
954.739 .0303218
955.362 .0303154
955.984 .0303093
956.607 .0303038
957.229 .0302979
957.850 .0302916
958.471 .0302842
959.092 .0302759
959.713 .0302663
960.333 .0302556
960.952 .0302443
961.572 .0302337
962.191 .0302233
962.809 .0302140
963.428 .0302058
964.045 .0301982
964.663 .0301908
965.280 .0301835
965.897 .0301761
966.513 .0301692
967.129 .0301621
967.745 .0301559
968.361 .0301507
968.976 .0301467
969.590 .0301443
970.205 .0301435
970.818 .0301439
971.432 .0301449
972.045 .0301451
972.658 .0301439
973.271 .0301400
973.883 .0301333
974.495 .0301230
975.106 .0301097
975.717 .0300938
976.328 .0300756
976.938 .0300565
977.548 .0300375
978.158 .0300188
978.768 .0300008
979.377 .0299832
979.985 .0299661
980.594 .0299490
981.202 .0299313
981.809 .0299131
982.417 .0298950
983.024 .0298775
983.631 .0298611
984.237 .0298467
984.843 .0298352
985.449 .0298269
986.054 .0298210
986.659 .0298175
987.264 .0298152
987.868 .0298135
988.472 .0298117
989.076 .0298096
989.679 .0298072
990.282 .0298049
990.885 .0298033
991.487 .0298031
992.090 .0298046
992.691 .0298081
993.293 .0298131
993.894 .0298201
994.495 .0298271
995.095 .0298338
995.696 .0298384
996.296 .0298411
996.895 .0298415
997.494 .0298398
998.093 .0298361
998.692 .0298316
999.291 .0298268
999.889 .0298216
1000.487 .0298154
1001.084 .0298086
1001.681 .0297989
1002.278 .0297870
1002.875 .0297712
1003.471 .0297524
1004.067 .0297311
1004.663 .0297091
1005.258 .0296869
1005.854 .0296656
1006.449 .0296459
1007.043 .0296272
1007.638 .0296094
1008.232 .0295931
1008.826 .0295771
1009.419 .0295612
1010.012 .0295450
1010.605 .0295290
1011.198 .0295129
1011.791 .0294981
1012.383 .0294841
1012.975 .0294718
1013.566 .0294614
1014.158 .0294521
1014.749 .0294439
1015.340 .0294366
1015.931 .0294304
1016.521 .0294254
1017.111 .0294211
1017.701 .0294178
1018.291 .0294152
1018.880 .0294131
1019.470 .0294103
1020.059 .0294078
1020.647 .0294053
1021.236 .0294028
1021.824 .0294004
1022.412 .0293989
1023.000 .0293976
1023.588 .0293967
1024.175 .0293959
1024.762 .0293937
1025.349 .0293904
1025.936 .0293861
1026.523 .0293793
1027.109 .0293724
1027.695 .0293656
1028.281 .0293603
1028.867 .0293566
1029.452 .0293559
1030.038 .0293576
1030.623 .0293607
1031.208 .0293650
1031.792 .0293694
1032.377 .0293734
1032.961 .0293771
1033.546 .0293805
1034.130 .0293835
1034.714 .0293876
1035.297 .0293924
1035.881 .0293974
1036.464 .0294035
1037.047 .0294099
1037.630 .0294152
1038.213 .0294182
1038.796 .0294201
1039.378 .0294205
1039.961 .0294197
1040.543 .0294186
1041.125 .0294165
1041.707 .0294141
1042.289 .0294110
1042.871 .0294075
1043.452 .0294032
1044.034 .0293998
1044.615 .0293968
1045.196 .0293942
1045.777 .0293930
1046.358 .0293925
1046.939 .0293921
1047.520 .0293922
1048.101 .0293917
1048.681 .0293902
1049.262 .0293875
1049.842 .0293846
1050.422 .0293809
1051.002 .0293780
1051.582 .0293746
1052.162 .0293710
1052.742 .0293661
1053.322 .0293601
1053.902 .0293515
1054.482 .0293405
1055.061 .0293277
1055.641 .0293132
1056.220 .0292980
1056.800 .0292835
1057.379 .0292709
1057.958 .0292617
1058.538 .0292543
1059.117 .0292488
1059.696 .0292427
1060.275 .0292369
1060.854 .0292295
1061.433 .0292206
1062.012 .0292113
1062.592 .0292052
1063.171 .0292019
1063.750 .0292038
1064.329 .0292113
1064.908 .0292247
1065.487 .0292415
1066.066 .0292601
1066.645 .0292770
1067.224 .0292920
1067.803 .0293046
1068.382 .0293148
1068.961 .0293227
1069.540 .0293302
1070.119 .0293373
1070.698 .0293453
1071.278 .0293552
1071.857 .0293651
1072.436 .0293733
1073.016 .0293800
1073.595 .0293826
1074.175 .0293816
1074.754 .0293759
1075.334 .0293662
1075.913 .0293559
1076.493 .0293452
1077.073 .0293341
1077.653 .0293226
1078.233 .0293124
1078.813 .0293019
1079.393 .0292909
1079.974 .0292778
1080.554 .0292635
1081.135 .0292481
1081.716 .0292322
1082.296 .0292156
1082.877 .0292002
1083.458 .0291863
1084.040 .0291746
1084.621 .0291627
1085.202 .0291517
1085.784 .0291386
1086.366 .0291267
1086.948 .0291133
1087.530 .0290995
1088.112 .0290852
1088.695 .0290720
1089.277 .0290610
1089.860 .0290537
1090.443 .0290478
1091.026 .0290473
1091.610 .0290508
1092.193 .0290579
1092.777 .0290655
1093.361 .0290762
1093.946 .0290874
1094.530 .0291001
1095.115 .0291120
1095.700 .0291234
1096.285 .0291336
1096.871 .0291449
1097.456 .0291535
1098.042 .0291605
1098.628 .0291642
1099.215 .0291666
1099.802 .0291667
1100.389 .0291673
1100.976 .0291658
1101.564 .0291653
1102.152 .0291651
1102.740 .0291678
1103.329 .0291699
1103.917 .0291706
1104.507 .0291719
1105.096 .0291739
1105.686 .0291738
1106.276 .0291708
1106.867 .0291663
1107.457 .0291630
1108.049 .0291600
1108.640 .0291619
1109.232 .0291645
1109.825 .0291723
1110.417 .0291828
1111.010 .0291915
1111.604 .0292000
1112.198 .0292079
1112.792 .0292141
1113.387 .0292202
1113.982 .0292280
1114.577 .0292381
1115.173 .0292515
1115.769 .0292727
1116.366 .0292980
1116.963 .0293273
1117.561 .0293546
1118.159 .0293781
1118.758 .0293945
1119.357 .0294075
1119.957 .0294123
1120.557 .0294166
1121.157 .0294223
1121.758 .0294301
1122.360 .0294421
1122.962 .0294584
1123.564 .0294789
1124.167 .0295038
1124.771 .0295297
1125.375 .0295573
1125.980 .0295861
1126.585 .0296206
1127.191 .0296573
1127.797 .0297032
1128.404 .0297559
1129.012 .0298156
1129.620 .0298754
1130.229 .0299384
1130.838 .0299954
1131.448 .0300504
1132.058 .0301046
1132.669 .0301564
1133.281 .0302070
1133.894 .0302565
1134.507 .0303050
1135.120 .0303497
1135.735 .0303922
1136.350 .0304297
1136.965 .0304587
1137.582 .0304875
1138.199 .0305120
1138.816 .0305378
1139.435 .0305703
1140.054 .0306001
1140.674 .0306223
1141.294 .0306283
1141.916 .0306023
1142.538 .0308623
1143.160 .0306252
1143.784 .0304263
1144.408 .0302541
1145.033 .0297955
