Measurement Sequence started on: 14-45-04-498
Integration time: 36
Scans to Average: 2 
>>>>>Begin Spectral Data<<<<<
433.946 .0393189
434.870 .0499394
435.793 .0462731
436.715 .0451514
437.635 .0424616
438.555 .0428756
439.473 .0423524
440.389 .0415879
441.305 .0410215
442.219 .0405509
443.132 .0401978
444.044 .0398865
444.954 .0396420
445.863 .0394609
446.771 .0393297
447.678 .0392240
448.584 .0391600
449.488 .0391035
450.391 .0390366
451.293 .0389681
452.194 .0388860
453.094 .0387959
453.992 .0387058
454.890 .0386210
455.786 .0385397
456.681 .0384601
457.575 .0383789
458.468 .0382882
459.360 .0381869
460.250 .0380844
461.140 .0379652
462.028 .0378404
462.915 .0377097
463.801 .0375756
464.687 .0374429
465.571 .0373183
466.454 .0372008
467.335 .0370940
468.216 .0369943
469.096 .0369004
469.975 .0368103
470.853 .0367285
471.729 .0366533
472.605 .0365823
473.479 .0365166
474.353 .0364576
475.226 .0364037
476.097 .0363590
476.968 .0363182
477.838 .0362854
478.706 .0362581
479.574 .0362367
480.441 .0362189
481.306 .0362028
482.171 .0361897
483.035 .0361764
483.898 .0361630
484.760 .0361477
485.621 .0361320
486.481 .0361154
487.340 .0361001
488.198 .0360872
489.055 .0360732
489.912 .0360576
490.767 .0360396
491.622 .0360178
492.476 .0359930
493.329 .0359639
494.180 .0359327
495.032 .0358986
495.882 .0358676
496.731 .0358346
497.580 .0358029
498.427 .0357735
499.274 .0357443
500.120 .0357152
500.965 .0356855
501.809 .0356526
502.653 .0356149
503.495 .0355729
504.337 .0355249
505.178 .0354704
506.018 .0354125
506.858 .0353485
507.696 .0352785
508.534 .0352044
509.371 .0351289
510.208 .0350515
511.043 .0349789
511.878 .0349114
512.712 .0348474
513.545 .0347910
514.377 .0347350
515.209 .0346825
516.040 .0346328
516.870 .0345872
517.699 .0345458
518.528 .0345111
519.356 .0344877
520.183 .0344757
521.010 .0344743
521.836 .0344852
522.661 .0345005
523.485 .0345193
524.309 .0345301
525.132 .0345270
525.954 .0345113
526.776 .0344829
527.597 .0344434
528.417 .0343927
529.237 .0343313
530.056 .0342665
530.874 .0341935
531.692 .0341214
532.508 .0340440
533.325 .0339635
534.140 .0338797
534.955 .0337952
535.770 .0337079
536.583 .0336254
537.397 .0335534
538.209 .0334937
539.021 .0334454
539.832 .0334085
540.643 .0333739
541.453 .0333459
542.262 .0333184
543.071 .0332915
543.879 .0332587
544.687 .0332290
545.494 .0331986
546.300 .0331752
547.106 .0331589
547.911 .0331487
548.716 .0331415
549.520 .0331333
550.323 .0331171
551.126 .0330899
551.929 .0330507
552.731 .0330010
553.532 .0329388
554.332 .0328727
555.133 .0328036
555.932 .0327371
556.731 .0326748
557.530 .0326223
558.328 .0325788
559.125 .0325433
559.922 .0325145
560.719 .0324890
561.515 .0324682
562.310 .0324546
563.105 .0324436
563.899 .0324372
564.693 .0324355
565.487 .0324383
566.280 .0324417
567.072 .0324488
567.864 .0324567
568.655 .0324628
569.446 .0324692
570.236 .0324712
571.026 .0324655
571.816 .0324524
572.605 .0324308
573.393 .0324021
574.181 .0323704
574.969 .0323369
575.756 .0322999
576.543 .0322653
577.329 .0322349
578.115 .0322046
578.900 .0321755
579.685 .0321468
580.469 .0321154
581.253 .0320819
582.036 .0320466
582.820 .0320088
583.602 .0319733
584.384 .0319412
585.166 .0319123
585.947 .0318868
586.728 .0318653
587.509 .0318445
588.289 .0318232
589.069 .0318020
589.848 .0317798
590.627 .0317558
591.405 .0317330
592.183 .0317096
592.961 .0316876
593.738 .0316663
594.515 .0316453
595.291 .0316243
596.067 .0316034
596.843 .0315815
597.618 .0315584
598.393 .0315352
599.167 .0315120
599.941 .0314883
600.715 .0314655
601.488 .0314435
602.261 .0314232
603.034 .0314038
603.806 .0313858
604.578 .0313692
605.349 .0313538
606.121 .0313401
606.891 .0313284
607.662 .0313184
608.432 .0313097
609.201 .0313023
609.971 .0312952
610.740 .0312876
611.508 .0312787
612.277 .0312689
613.045 .0312575
613.812 .0312455
614.579 .0312317
615.346 .0312168
616.113 .0312017
616.879 .0311866
617.645 .0311712
618.411 .0311558
619.176 .0311405
619.941 .0311245
620.705 .0311070
621.470 .0310888
622.233 .0310687
622.997 .0310475
623.760 .0310253
624.523 .0310023
625.286 .0309776
626.048 .0309525
626.810 .0309264
627.572 .0309001
628.333 .0308742
629.095 .0308479
629.855 .0308212
630.616 .0307946
631.376 .0307685
632.136 .0307425
632.895 .0307177
633.655 .0306950
634.414 .0306732
635.172 .0306540
635.931 .0306363
636.689 .0306200
637.447 .0306056
638.204 .0305930
638.962 .0305809
639.718 .0305693
640.475 .0305584
641.231 .0305473
641.988 .0305367
642.743 .0305267
643.499 .0305165
644.254 .0305057
645.009 .0304943
645.764 .0304813
646.518 .0304666
647.272 .0304507
648.026 .0304333
648.780 .0304150
649.533 .0303972
650.286 .0303796
651.039 .0303628
651.792 .0303473
652.544 .0303336
653.296 .0303206
654.048 .0303077
654.799 .0302950
655.550 .0302820
656.301 .0302690
657.052 .0302557
657.802 .0302432
658.552 .0302324
659.302 .0302237
660.052 .0302165
660.801 .0302107
661.550 .0302060
662.299 .0302013
663.048 .0301957
663.796 .0301891
664.544 .0301810
665.292 .0301714
666.040 .0301603
666.787 .0301491
667.534 .0301373
668.281 .0301252
669.028 .0301124
669.774 .0300993
670.521 .0300852
671.266 .0300699
672.012 .0300535
672.758 .0300372
673.503 .0300210
674.248 .0300052
674.992 .0299901
675.737 .0299760
676.481 .0299629
677.225 .0299508
677.969 .0299387
678.712 .0299273
679.455 .0299160
680.199 .0299048
680.941 .0298934
681.684 .0298830
682.426 .0298728
683.168 .0298628
683.910 .0298533
684.652 .0298435
685.393 .0298332
686.134 .0298228
686.875 .0298121
687.616 .0298016
688.356 .0297912
689.097 .0297811
689.837 .0297708
690.576 .0297608
691.316 .0297508
692.055 .0297404
692.794 .0297298
693.533 .0297191
694.272 .0297081
695.010 .0296973
695.748 .0296869
696.486 .0296769
697.224 .0296674
697.962 .0296582
698.699 .0296489
699.436 .0296391
700.173 .0296289
700.909 .0296182
701.646 .0296074
702.382 .0295967
703.118 .0295865
703.853 .0295768
704.589 .0295678
705.324 .0295593
706.059 .0295514
706.794 .0295435
707.529 .0295357
708.263 .0295279
708.997 .0295199
709.731 .0295115
710.465 .0295030
711.198 .0294946
711.931 .0294861
712.664 .0294770
713.397 .0294674
714.130 .0294567
714.862 .0294453
715.594 .0294326
716.326 .0294189
717.058 .0294047
717.789 .0293902
718.520 .0293754
719.251 .0293607
719.982 .0293461
720.713 .0293318
721.443 .0293173
722.173 .0293027
722.903 .0292876
723.633 .0292727
724.362 .0292575
725.091 .0292422
725.820 .0292275
726.549 .0292134
727.278 .0291998
728.006 .0291869
728.734 .0291741
729.462 .0291612
730.190 .0291482
730.917 .0291347
731.644 .0291211
732.371 .0291076
733.098 .0290942
733.825 .0290813
734.551 .0290691
735.277 .0290577
736.003 .0290462
736.728 .0290354
737.454 .0290255
738.179 .0290158
738.904 .0290065
739.629 .0289975
740.353 .0289892
741.077 .0289818
741.801 .0289748
742.525 .0289683
743.249 .0289620
743.972 .0289559
744.695 .0289494
745.418 .0289423
746.141 .0289345
746.863 .0289259
747.585 .0289165
748.307 .0289063
749.029 .0288956
749.750 .0288841
750.472 .0288724
751.193 .0288609
751.913 .0288494
752.634 .0288378
753.354 .0288260
754.074 .0288142
754.794 .0288018
755.514 .0287889
756.233 .0287754
756.952 .0287615
757.671 .0287479
758.390 .0287344
759.108 .0287219
759.826 .0287103
760.544 .0287001
761.262 .0286905
761.979 .0286815
762.697 .0286724
763.414 .0286627
764.130 .0286527
764.847 .0286422
765.563 .0286315
766.279 .0286214
766.995 .0286120
767.710 .0286036
768.426 .0285958
769.141 .0285888
769.855 .0285820
770.570 .0285750
771.284 .0285671
771.998 .0285583
772.712 .0285488
773.426 .0285391
774.139 .0285295
774.852 .0285206
775.565 .0285131
776.277 .0285069
776.990 .0285018
777.702 .0284975
778.414 .0284935
779.125 .0284897
779.836 .0284855
780.547 .0284809
781.258 .0284758
781.969 .0284703
782.679 .0284651
783.389 .0284601
784.099 .0284550
784.808 .0284499
785.517 .0284446
786.226 .0284385
786.935 .0284316
787.643 .0284238
788.352 .0284157
789.060 .0284075
789.767 .0284000
790.475 .0283929
791.182 .0283866
791.889 .0283815
792.595 .0283774
793.301 .0283734
794.008 .0283697
794.713 .0283658
795.419 .0283620
796.124 .0283581
796.829 .0283542
797.534 .0283507
798.238 .0283475
798.942 .0283447
799.646 .0283414
800.350 .0283374
801.053 .0283322
801.756 .0283253
802.459 .0283166
803.162 .0283061
803.864 .0282939
804.566 .0282803
805.267 .0282657
805.969 .0282504
806.670 .0282349
807.371 .0282194
808.071 .0282044
808.772 .0281901
809.472 .0281762
810.171 .0281629
810.871 .0281496
811.570 .0281366
812.269 .0281233
812.967 .0281098
813.666 .0280961
814.364 .0280825
815.061 .0280692
815.759 .0280562
816.456 .0280436
817.153 .0280317
817.849 .0280196
818.545 .0280070
819.241 .0279937
819.937 .0279798
820.632 .0279649
821.327 .0279489
822.022 .0279322
822.717 .0279153
823.411 .0278981
824.105 .0278811
824.798 .0278643
825.491 .0278476
826.184 .0278311
826.877 .0278147
827.569 .0277983
828.261 .0277821
828.953 .0277664
829.645 .0277507
830.336 .0277354
831.027 .0277208
831.717 .0277060
832.407 .0276917
833.097 .0276778
833.787 .0276640
834.476 .0276505
835.165 .0276376
835.854 .0276256
836.542 .0276143
837.230 .0276040
837.918 .0275943
838.605 .0275854
839.292 .0275771
839.979 .0275694
840.665 .0275619
841.352 .0275552
842.037 .0275485
842.723 .0275416
843.408 .0275348
844.093 .0275278
844.777 .0275208
845.462 .0275137
846.145 .0275064
846.829 .0274990
847.512 .0274917
848.195 .0274848
848.878 .0274779
849.560 .0274711
850.242 .0274642
850.923 .0274571
851.605 .0274501
852.286 .0274430
852.966 .0274362
853.646 .0274300
854.326 .0274246
855.006 .0274198
855.685 .0274157
856.364 .0274119
857.043 .0274084
857.721 .0274047
858.399 .0274007
859.077 .0273957
859.754 .0273898
860.431 .0273830
861.107 .0273756
861.784 .0273675
862.459 .0273592
863.135 .0273504
863.810 .0273414
864.485 .0273321
865.160 .0273228
865.834 .0273132
866.508 .0273041
867.181 .0272957
867.854 .0272880
868.527 .0272808
869.199 .0272744
869.872 .0272688
870.543 .0272638
871.215 .0272591
871.886 .0272545
872.557 .0272496
873.227 .0272444
873.897 .0272384
874.567 .0272319
875.236 .0272253
875.905 .0272184
876.573 .0272113
877.242 .0272041
877.909 .0271965
878.577 .0271883
879.244 .0271789
879.911 .0271687
880.577 .0271576
881.243 .0271453
881.909 .0271320
882.575 .0271185
883.240 .0271053
883.904 .0270926
884.569 .0270805
885.232 .0270693
885.896 .0270582
886.559 .0270470
887.222 .0270353
887.885 .0270231
888.547 .0270105
889.208 .0269975
889.870 .0269841
890.531 .0269711
891.192 .0269585
891.852 .0269466
892.512 .0269353
893.171 .0269249
893.830 .0269151
894.489 .0269052
895.148 .0268955
895.806 .0268859
896.464 .0268765
897.121 .0268678
897.778 .0268594
898.434 .0268516
899.091 .0268442
899.747 .0268365
900.402 .0268285
901.057 .0268201
901.712 .0268109
902.366 .0268006
903.020 .0267894
903.674 .0267775
904.327 .0267654
904.980 .0267535
905.633 .0267420
906.285 .0267309
906.936 .0267206
907.588 .0267098
908.239 .0266987
908.889 .0266873
909.540 .0266749
910.190 .0266619
910.839 .0266488
911.488 .0266356
912.137 .0266224
912.785 .0266099
913.433 .0265981
914.081 .0265865
914.728 .0265754
915.375 .0265637
916.021 .0265508
916.668 .0265369
917.313 .0265212
917.959 .0265037
918.604 .0264852
919.248 .0264662
919.892 .0264464
920.536 .0264270
921.180 .0264082
921.823 .0263902
922.465 .0263730
923.108 .0263564
923.750 .0263399
924.391 .0263231
925.032 .0263054
925.673 .0262869
926.313 .0262679
926.953 .0262488
927.593 .0262296
928.232 .0262111
928.871 .0261932
929.510 .0261759
930.148 .0261593
930.786 .0261431
931.423 .0261272
932.060 .0261109
932.697 .0260938
933.333 .0260758
933.969 .0260573
934.604 .0260384
935.239 .0260199
935.874 .0260023
936.508 .0259861
937.142 .0259712
937.776 .0259577
938.409 .0259456
939.042 .0259346
939.674 .0259240
940.306 .0259136
940.938 .0259028
941.569 .0258921
942.200 .0258811
942.830 .0258702
943.460 .0258597
944.090 .0258497
944.720 .0258403
945.349 .0258312
945.977 .0258224
946.606 .0258140
947.233 .0258054
947.861 .0257966
948.488 .0257870
949.115 .0257767
949.741 .0257659
950.367 .0257547
950.993 .0257431
951.618 .0257320
952.243 .0257212
952.868 .0257112
953.492 .0257017
954.115 .0256926
954.739 .0256838
955.362 .0256750
955.984 .0256663
956.607 .0256579
957.229 .0256500
957.850 .0256428
958.471 .0256360
959.092 .0256301
959.713 .0256247
960.333 .0256198
960.952 .0256156
961.572 .0256122
962.191 .0256090
962.809 .0256065
963.428 .0256043
964.045 .0256026
964.663 .0256012
965.280 .0256000
965.897 .0255986
966.513 .0255969
967.129 .0255947
967.745 .0255916
968.361 .0255882
968.976 .0255843
969.590 .0255801
970.205 .0255760
970.818 .0255720
971.432 .0255684
972.045 .0255650
972.658 .0255622
973.271 .0255595
973.883 .0255564
974.495 .0255528
975.106 .0255485
975.717 .0255436
976.328 .0255380
976.938 .0255317
977.548 .0255250
978.158 .0255183
978.768 .0255115
979.377 .0255040
979.985 .0254967
980.594 .0254889
981.202 .0254807
981.809 .0254717
982.417 .0254625
983.024 .0254530
983.631 .0254433
984.237 .0254339
984.843 .0254247
985.449 .0254158
986.054 .0254074
986.659 .0253992
987.264 .0253918
987.868 .0253848
988.472 .0253786
989.076 .0253733
989.679 .0253689
990.282 .0253652
990.885 .0253620
991.487 .0253586
992.090 .0253550
992.691 .0253508
993.293 .0253451
993.894 .0253385
994.495 .0253314
995.095 .0253242
995.696 .0253169
996.296 .0253099
996.895 .0253036
997.494 .0252978
998.093 .0252926
998.692 .0252873
999.291 .0252816
999.889 .0252757
1000.487 .0252685
1001.084 .0252601
1001.681 .0252508
1002.278 .0252412
1002.875 .0252313
1003.471 .0252220
1004.067 .0252133
1004.663 .0252054
1005.258 .0251986
1005.854 .0251920
1006.449 .0251851
1007.043 .0251771
1007.638 .0251675
1008.232 .0251555
1008.826 .0251418
1009.419 .0251269
1010.012 .0251115
1010.605 .0250968
1011.198 .0250831
1011.791 .0250710
1012.383 .0250608
1012.975 .0250520
1013.566 .0250440
1014.158 .0250368
1014.749 .0250300
1015.340 .0250231
1015.931 .0250167
1016.521 .0250109
1017.111 .0250067
1017.701 .0250038
1018.291 .0250022
1018.880 .0250014
1019.470 .0250006
1020.059 .0249990
1020.647 .0249960
1021.236 .0249913
1021.824 .0249853
1022.412 .0249776
1023.000 .0249691
1023.588 .0249601
1024.175 .0249510
1024.762 .0249413
1025.349 .0249312
1025.936 .0249212
1026.523 .0249113
1027.109 .0249017
1027.695 .0248931
1028.281 .0248860
1028.867 .0248809
1029.452 .0248776
1030.038 .0248764
1030.623 .0248769
1031.208 .0248790
1031.792 .0248822
1032.377 .0248862
1032.961 .0248908
1033.546 .0248962
1034.130 .0249022
1034.714 .0249088
1035.297 .0249158
1035.881 .0249218
1036.464 .0249267
1037.047 .0249307
1037.630 .0249332
1038.213 .0249347
1038.796 .0249352
1039.378 .0249354
1039.961 .0249353
1040.543 .0249348
1041.125 .0249339
1041.707 .0249326
1042.289 .0249305
1042.871 .0249275
1043.452 .0249236
1044.034 .0249187
1044.615 .0249138
1045.196 .0249093
1045.777 .0249060
1046.358 .0249032
1046.939 .0249010
1047.520 .0248988
1048.101 .0248961
1048.681 .0248935
1049.262 .0248914
1049.842 .0248903
1050.422 .0248918
1051.002 .0248950
1051.582 .0249004
1052.162 .0249076
1052.742 .0249154
1053.322 .0249220
1053.902 .0249267
1054.482 .0249294
1055.061 .0249296
1055.641 .0249284
1056.220 .0249275
1056.800 .0249281
1057.379 .0249312
1057.958 .0249359
1058.538 .0249410
1059.117 .0249460
1059.696 .0249496
1060.275 .0249499
1060.854 .0249475
1061.433 .0249429
1062.012 .0249374
1062.592 .0249333
1063.171 .0249318
1063.750 .0249338
1064.329 .0249391
1064.908 .0249471
1065.487 .0249552
1066.066 .0249627
1066.645 .0249677
1067.224 .0249697
1067.803 .0249697
1068.382 .0249690
1068.961 .0249679
1069.540 .0249676
1070.119 .0249697
1070.698 .0249730
1071.278 .0249764
1071.857 .0249793
1072.436 .0249803
1073.016 .0249804
1073.595 .0249781
1074.175 .0249745
1074.754 .0249698
1075.334 .0249664
1075.913 .0249635
1076.493 .0249617
1077.073 .0249617
1077.653 .0249627
1078.233 .0249649
1078.813 .0249681
1079.393 .0249713
1079.974 .0249747
1080.554 .0249785
1081.135 .0249825
1081.716 .0249855
1082.296 .0249877
1082.877 .0249879
1083.458 .0249882
1084.040 .0249876
1084.621 .0249859
1085.202 .0249838
1085.784 .0249825
1086.366 .0249822
1086.948 .0249822
1087.530 .0249845
1088.112 .0249876
1088.695 .0249919
1089.277 .0249969
1089.860 .0250008
1090.443 .0250058
1091.026 .0250111
1091.610 .0250185
1092.193 .0250282
1092.777 .0250410
1093.361 .0250555
1093.946 .0250714
1094.530 .0250891
1095.115 .0251067
1095.700 .0251228
1096.285 .0251361
1096.871 .0251466
1097.456 .0251540
1098.042 .0251579
1098.628 .0251579
1099.215 .0251555
1099.802 .0251526
1100.389 .0251468
1100.976 .0251394
1101.564 .0251294
1102.152 .0251168
1102.740 .0251033
1103.329 .0250884
1103.917 .0250727
1104.507 .0250561
1105.096 .0250402
1105.686 .0250250
1106.276 .0250110
1106.867 .0249984
1107.457 .0249873
1108.049 .0249761
1108.640 .0249663
1109.232 .0249564
1109.825 .0249476
1110.417 .0249410
1111.010 .0249382
1111.604 .0249382
1112.198 .0249415
1112.792 .0249467
1113.387 .0249534
1113.982 .0249608
1114.577 .0249719
1115.173 .0249827
1115.769 .0249938
1116.366 .0250066
1116.963 .0250223
1117.561 .0250391
1118.159 .0250596
1118.758 .0250838
1119.357 .0251112
1119.957 .0251424
1120.557 .0251752
1121.157 .0252075
1121.758 .0252391
1122.360 .0252706
1122.962 .0252978
1123.564 .0253228
1124.167 .0253452
1124.771 .0253649
1125.375 .0253832
1125.980 .0254022
1126.585 .0254180
1127.191 .0254339
1127.797 .0254485
1128.404 .0254629
1129.012 .0254728
1129.620 .0254829
1130.229 .0254883
1130.838 .0254944
1131.448 .0254986
1132.058 .0255047
1132.669 .0255114
1133.281 .0255236
1133.894 .0255349
1134.507 .0255509
1135.120 .0255691
1135.735 .0255918
1136.350 .0256131
1136.965 .0256387
1137.582 .0256615
1138.199 .0256856
1138.816 .0257084
1139.435 .0257337
1140.054 .0257592
1140.674 .0257841
1141.294 .0258117
1141.916 .0258221
1142.538 .0258779
1143.160 .0259268
1143.784 .0258446
1144.408 .0260334
1145.033 .0255120
