Measurement Sequence started on: 14-45-04-498
Integration time: 36
Scans to Average: 2 
>>>>>Begin Spectral Data<<<<<
433.946 .0569911
434.870 .0510827
435.793 .0503395
436.715 .0498960
437.635 .0496636
438.555 .0505326
439.473 .0502402
440.389 .0501396
441.305 .0500090
442.219 .0498269
443.132 .0496093
444.044 .0493426
444.954 .0490874
445.863 .0488429
446.771 .0486394
447.678 .0484715
448.584 .0483399
449.488 .0482305
450.391 .0481358
451.293 .0480615
452.194 .0479970
453.094 .0479243
453.992 .0478515
454.890 .0477774
455.786 .0476958
456.681 .0476223
457.575 .0475450
458.468 .0474630
459.360 .0473864
460.250 .0473128
461.140 .0472361
462.028 .0471593
462.915 .0470848
463.801 .0470087
464.687 .0469303
465.571 .0468465
466.454 .0467507
467.335 .0466500
468.216 .0465503
469.096 .0464478
469.975 .0463529
470.853 .0462691
471.729 .0461927
472.605 .0461221
473.479 .0460593
474.353 .0459998
475.226 .0459425
476.097 .0458833
476.968 .0458238
477.838 .0457556
478.706 .0456848
479.574 .0456121
480.441 .0455469
481.306 .0454921
482.171 .0454463
483.035 .0454069
483.898 .0453779
484.760 .0453518
485.621 .0453280
486.481 .0453023
487.340 .0452846
488.198 .0452685
489.055 .0452581
489.912 .0452516
490.767 .0452522
491.622 .0452582
492.476 .0452697
493.329 .0452777
494.180 .0452851
495.032 .0452829
495.882 .0452733
496.731 .0452542
497.580 .0452289
498.427 .0451944
499.274 .0451529
500.120 .0451064
500.965 .0450542
501.809 .0449895
502.653 .0449213
503.495 .0448445
504.337 .0447628
505.178 .0446777
506.018 .0445916
506.858 .0445102
507.696 .0444347
508.534 .0443601
509.371 .0442884
510.208 .0442218
511.043 .0441609
511.878 .0441041
512.712 .0440544
513.545 .0440195
514.377 .0439957
515.209 .0439846
516.040 .0439875
516.870 .0439987
517.699 .0440129
518.528 .0440250
519.356 .0440264
520.183 .0440137
521.010 .0439856
521.836 .0439535
522.661 .0439174
523.485 .0438826
524.309 .0438452
525.132 .0438059
525.954 .0437629
526.776 .0437119
527.597 .0436405
528.417 .0435521
529.237 .0434561
530.056 .0433512
530.874 .0432403
531.692 .0431354
532.508 .0430408
533.325 .0429680
534.140 .0429069
534.955 .0428542
535.770 .0428008
536.583 .0427432
537.397 .0426809
538.209 .0426109
539.021 .0425348
539.832 .0424552
540.643 .0423798
541.453 .0423214
542.262 .0422761
543.071 .0422488
543.879 .0422394
544.687 .0422424
545.494 .0422523
546.300 .0422557
547.106 .0422474
547.911 .0422318
548.716 .0422075
549.520 .0421694
550.323 .0421198
551.126 .0420661
551.929 .0420111
552.731 .0419513
553.532 .0418917
554.332 .0418341
555.133 .0417771
555.932 .0417213
556.731 .0416637
557.530 .0416046
558.328 .0415462
559.125 .0414878
559.922 .0414309
560.719 .0413781
561.515 .0413340
562.310 .0412984
563.105 .0412770
563.899 .0412749
564.693 .0412837
565.487 .0413010
566.280 .0413222
567.072 .0413420
567.864 .0413565
568.655 .0413620
569.446 .0413593
570.236 .0413470
571.026 .0413268
571.816 .0412970
572.605 .0412600
573.393 .0412212
574.181 .0411781
574.969 .0411309
575.756 .0410796
576.543 .0410234
577.329 .0409620
578.115 .0408955
578.900 .0408257
579.685 .0407554
580.469 .0406869
581.253 .0406197
582.036 .0405555
582.820 .0404954
583.602 .0404396
584.384 .0403885
585.166 .0403424
585.947 .0403002
586.728 .0402593
587.509 .0402198
588.289 .0401796
589.069 .0401399
589.848 .0401015
590.627 .0400636
591.405 .0400282
592.183 .0399970
592.961 .0399704
593.738 .0399479
594.515 .0399298
595.291 .0399149
596.067 .0399012
596.843 .0398869
597.618 .0398711
598.393 .0398532
599.167 .0398332
599.941 .0398102
600.715 .0397844
601.488 .0397578
602.261 .0397311
603.034 .0397050
603.806 .0396812
604.578 .0396584
605.349 .0396368
606.121 .0396153
606.891 .0395932
607.662 .0395697
608.432 .0395438
609.201 .0395163
609.971 .0394870
610.740 .0394564
611.508 .0394255
612.277 .0393947
613.045 .0393663
613.812 .0393402
614.579 .0393148
615.346 .0392903
616.113 .0392657
616.879 .0392408
617.645 .0392156
618.411 .0391898
619.176 .0391630
619.941 .0391351
620.705 .0391066
621.470 .0390773
622.233 .0390462
622.997 .0390147
623.760 .0389815
624.523 .0389476
625.286 .0389129
626.048 .0388779
626.810 .0388434
627.572 .0388102
628.333 .0387786
629.095 .0387470
629.855 .0387149
630.616 .0386827
631.376 .0386488
632.136 .0386144
632.895 .0385798
633.655 .0385461
634.414 .0385137
635.172 .0384844
635.931 .0384579
636.689 .0384341
637.447 .0384129
638.204 .0383931
638.962 .0383728
639.718 .0383529
640.475 .0383322
641.231 .0383099
641.988 .0382871
642.743 .0382643
643.499 .0382409
644.254 .0382181
645.009 .0381961
645.764 .0381740
646.518 .0381515
647.272 .0381291
648.026 .0381063
648.780 .0380832
649.533 .0380609
650.286 .0380386
651.039 .0380175
651.792 .0379977
652.544 .0379789
653.296 .0379609
654.048 .0379445
654.799 .0379291
655.550 .0379136
656.301 .0378975
657.052 .0378812
657.802 .0378643
658.552 .0378476
659.302 .0378304
660.052 .0378135
660.801 .0377961
661.550 .0377783
662.299 .0377606
663.048 .0377421
663.796 .0377227
664.544 .0377028
665.292 .0376819
666.040 .0376604
666.787 .0376385
667.534 .0376170
668.281 .0375959
669.028 .0375757
669.774 .0375560
670.521 .0375357
671.266 .0375154
672.012 .0374953
672.758 .0374744
673.503 .0374533
674.248 .0374327
674.992 .0374120
675.737 .0373923
676.481 .0373738
677.225 .0373551
677.969 .0373362
678.712 .0373167
679.455 .0372958
680.199 .0372731
680.941 .0372497
681.684 .0372258
682.426 .0372015
683.168 .0371784
683.910 .0371564
684.652 .0371356
685.393 .0371161
686.134 .0370969
686.875 .0370769
687.616 .0370559
688.356 .0370333
689.097 .0370093
689.837 .0369851
690.576 .0369616
691.316 .0369388
692.055 .0369172
692.794 .0368978
693.533 .0368802
694.272 .0368640
695.010 .0368493
695.748 .0368345
696.486 .0368196
697.224 .0368040
697.962 .0367880
698.699 .0367724
699.436 .0367583
700.173 .0367459
700.909 .0367351
701.646 .0367262
702.382 .0367188
703.118 .0367117
703.853 .0367051
704.589 .0366980
705.324 .0366894
706.059 .0366790
706.794 .0366666
707.529 .0366530
708.263 .0366390
708.997 .0366247
709.731 .0366096
710.465 .0365944
711.198 .0365790
711.931 .0365628
712.664 .0365454
713.397 .0365276
714.130 .0365085
714.862 .0364888
715.594 .0364680
716.326 .0364469
717.058 .0364257
717.789 .0364048
718.520 .0363839
719.251 .0363636
719.982 .0363436
720.713 .0363239
721.443 .0363037
722.173 .0362835
722.903 .0362622
723.633 .0362400
724.362 .0362163
725.091 .0361919
725.820 .0361669
726.549 .0361420
727.278 .0361169
728.006 .0360923
728.734 .0360679
729.462 .0360440
730.190 .0360204
730.917 .0359971
731.644 .0359741
732.371 .0359517
733.098 .0359302
733.825 .0359099
734.551 .0358911
735.277 .0358742
736.003 .0358589
736.728 .0358448
737.454 .0358317
738.179 .0358189
738.904 .0358066
739.629 .0357943
740.353 .0357819
741.077 .0357693
741.801 .0357562
742.525 .0357422
743.249 .0357276
743.972 .0357125
744.695 .0356968
745.418 .0356801
746.141 .0356628
746.863 .0356450
747.585 .0356274
748.307 .0356093
749.029 .0355910
749.750 .0355727
750.472 .0355542
751.193 .0355349
751.913 .0355153
752.634 .0354959
753.354 .0354768
754.074 .0354586
754.794 .0354416
755.514 .0354257
756.233 .0354111
756.952 .0353975
757.671 .0353854
758.390 .0353743
759.108 .0353645
759.826 .0353555
760.544 .0353480
761.262 .0353419
761.979 .0353365
762.697 .0353310
763.414 .0353252
764.130 .0353187
764.847 .0353105
765.563 .0353005
766.279 .0352896
766.995 .0352781
767.710 .0352664
768.426 .0352545
769.141 .0352430
769.855 .0352313
770.570 .0352193
771.284 .0352062
771.998 .0351921
772.712 .0351763
773.426 .0351594
774.139 .0351416
774.852 .0351232
775.565 .0351048
776.277 .0350861
776.990 .0350681
777.702 .0350509
778.414 .0350337
779.125 .0350174
779.836 .0350010
780.547 .0349851
781.258 .0349687
781.969 .0349519
782.679 .0349349
783.389 .0349175
784.099 .0348998
784.808 .0348820
785.517 .0348647
786.226 .0348484
786.935 .0348330
787.643 .0348192
788.352 .0348068
789.060 .0347953
789.767 .0347845
790.475 .0347738
791.182 .0347628
791.889 .0347513
792.595 .0347392
793.301 .0347262
794.008 .0347124
794.713 .0346980
795.419 .0346834
796.124 .0346688
796.829 .0346544
797.534 .0346394
798.238 .0346238
798.942 .0346072
799.646 .0345895
800.350 .0345701
801.053 .0345492
801.756 .0345270
802.459 .0345038
803.162 .0344801
803.864 .0344567
804.566 .0344337
805.267 .0344112
805.969 .0343892
806.670 .0343681
807.371 .0343472
808.071 .0343270
808.772 .0343069
809.472 .0342870
810.171 .0342673
810.871 .0342482
811.570 .0342292
812.269 .0342111
812.967 .0341944
813.666 .0341787
814.364 .0341639
815.061 .0341494
815.759 .0341356
816.456 .0341222
817.153 .0341090
817.849 .0340956
818.545 .0340812
819.241 .0340661
819.937 .0340499
820.632 .0340330
821.327 .0340153
822.022 .0339968
822.717 .0339787
823.411 .0339610
824.105 .0339446
824.798 .0339295
825.491 .0339164
826.184 .0339044
826.877 .0338937
827.569 .0338827
828.261 .0338709
828.953 .0338584
829.645 .0338458
830.336 .0338334
831.027 .0338212
831.717 .0338100
832.407 .0338001
833.097 .0337918
833.787 .0337848
834.476 .0337773
835.165 .0337695
835.854 .0337609
836.542 .0337500
837.230 .0337369
837.918 .0337224
838.605 .0337072
839.292 .0336922
839.979 .0336785
840.665 .0336661
841.352 .0336556
842.037 .0336472
842.723 .0336400
843.408 .0336334
844.093 .0336268
844.777 .0336193
845.462 .0336108
846.145 .0336019
846.829 .0335924
847.512 .0335825
848.195 .0335732
848.878 .0335646
849.560 .0335561
850.242 .0335477
850.923 .0335385
851.605 .0335281
852.286 .0335160
852.966 .0335016
853.646 .0334851
854.326 .0334669
855.006 .0334472
855.685 .0334269
856.364 .0334063
857.043 .0333862
857.721 .0333669
858.399 .0333486
859.077 .0333311
859.754 .0333144
860.431 .0332980
861.107 .0332816
861.784 .0332646
862.459 .0332471
863.135 .0332283
863.810 .0332080
864.485 .0331865
865.160 .0331640
865.834 .0331413
866.508 .0331190
867.181 .0330974
867.854 .0330772
868.527 .0330582
869.199 .0330405
869.872 .0330228
870.543 .0330052
871.215 .0329870
871.886 .0329677
872.557 .0329475
873.227 .0329267
873.897 .0329054
874.567 .0328843
875.236 .0328636
875.905 .0328436
876.573 .0328240
877.242 .0328049
877.909 .0327855
878.577 .0327661
879.244 .0327461
879.911 .0327254
880.577 .0327038
881.243 .0326818
881.909 .0326592
882.575 .0326359
883.240 .0326123
883.904 .0325889
884.569 .0325660
885.232 .0325444
885.896 .0325243
886.559 .0325063
887.222 .0324903
887.885 .0324758
888.547 .0324624
889.208 .0324497
889.870 .0324363
890.531 .0324218
891.192 .0324059
891.852 .0323886
892.512 .0323699
893.171 .0323506
893.830 .0323317
894.489 .0323138
895.148 .0322971
895.806 .0322818
896.464 .0322675
897.121 .0322544
897.778 .0322413
898.434 .0322283
899.091 .0322153
899.747 .0322023
900.402 .0321901
901.057 .0321791
901.712 .0321707
902.366 .0321640
903.020 .0321597
903.674 .0321575
904.327 .0321565
904.980 .0321563
905.633 .0321555
906.285 .0321539
906.936 .0321514
907.588 .0321469
908.239 .0321403
908.889 .0321320
909.540 .0321226
910.190 .0321111
910.839 .0320981
911.488 .0320842
912.137 .0320691
912.785 .0320532
913.433 .0320374
914.081 .0320205
914.728 .0320039
915.375 .0319875
916.021 .0319705
916.668 .0319539
917.313 .0319377
917.959 .0319213
918.604 .0319055
919.248 .0318906
919.892 .0318764
920.536 .0318628
921.180 .0318510
921.823 .0318402
922.465 .0318297
923.108 .0318191
923.750 .0318080
924.391 .0317962
925.032 .0317846
925.673 .0317724
926.313 .0317605
926.953 .0317492
927.593 .0317386
928.232 .0317276
928.871 .0317163
929.510 .0317048
930.148 .0316921
930.786 .0316783
931.423 .0316636
932.060 .0316474
932.697 .0316309
933.333 .0316136
933.969 .0315961
934.604 .0315777
935.239 .0315591
935.874 .0315392
936.508 .0315185
937.142 .0314970
937.776 .0314746
938.409 .0314517
939.042 .0314294
939.674 .0314072
940.306 .0313851
940.938 .0313643
941.569 .0313444
942.200 .0313253
942.830 .0313071
943.460 .0312888
944.090 .0312701
944.720 .0312505
945.349 .0312303
945.977 .0312090
946.606 .0311878
947.233 .0311669
947.861 .0311455
948.488 .0311245
949.115 .0311039
949.741 .0310835
950.367 .0310632
950.993 .0310437
951.618 .0310241
952.243 .0310049
952.868 .0309864
953.492 .0309689
954.115 .0309524
954.739 .0309378
955.362 .0309253
955.984 .0309138
956.607 .0309031
957.229 .0308927
957.850 .0308819
958.471 .0308704
959.092 .0308578
959.713 .0308436
960.333 .0308277
960.952 .0308110
961.572 .0307929
962.191 .0307734
962.809 .0307538
963.428 .0307332
964.045 .0307118
964.663 .0306894
965.280 .0306663
965.897 .0306425
966.513 .0306185
967.129 .0305950
967.745 .0305717
968.361 .0305490
968.976 .0305278
969.590 .0305077
970.205 .0304894
970.818 .0304724
971.432 .0304568
972.045 .0304424
972.658 .0304287
973.271 .0304146
973.883 .0303998
974.495 .0303839
975.106 .0303674
975.717 .0303502
976.328 .0303325
976.938 .0303148
977.548 .0302975
978.158 .0302810
978.768 .0302655
979.377 .0302505
979.985 .0302361
980.594 .0302216
981.202 .0302068
981.809 .0301921
982.417 .0301773
983.024 .0301640
983.631 .0301523
984.237 .0301426
984.843 .0301342
985.449 .0301268
986.054 .0301188
986.659 .0301103
987.264 .0301008
987.868 .0300897
988.472 .0300778
989.076 .0300658
989.679 .0300547
990.282 .0300451
990.885 .0300376
991.487 .0300323
992.090 .0300280
992.691 .0300244
993.293 .0300197
993.894 .0300145
994.495 .0300083
995.095 .0300013
995.696 .0299942
996.296 .0299875
996.895 .0299815
997.494 .0299763
998.093 .0299724
998.692 .0299698
999.291 .0299684
999.889 .0299675
1000.487 .0299664
1001.084 .0299653
1001.681 .0299628
1002.278 .0299591
1002.875 .0299537
1003.471 .0299473
1004.067 .0299397
1004.663 .0299316
1005.258 .0299235
1005.854 .0299157
1006.449 .0299085
1007.043 .0299021
1007.638 .0298960
1008.232 .0298906
1008.826 .0298845
1009.419 .0298771
1010.012 .0298677
1010.605 .0298563
1011.198 .0298430
1011.791 .0298289
1012.383 .0298144
1012.975 .0298004
1013.566 .0297882
1014.158 .0297778
1014.749 .0297698
1015.340 .0297647
1015.931 .0297622
1016.521 .0297619
1017.111 .0297627
1017.701 .0297646
1018.291 .0297663
1018.880 .0297681
1019.470 .0297700
1020.059 .0297718
1020.647 .0297743
1021.236 .0297769
1021.824 .0297809
1022.412 .0297865
1023.000 .0297939
1023.588 .0298024
1024.175 .0298121
1024.762 .0298222
1025.349 .0298312
1025.936 .0298394
1026.523 .0298461
1027.109 .0298519
1027.695 .0298571
1028.281 .0298610
1028.867 .0298648
1029.452 .0298682
1030.038 .0298717
1030.623 .0298747
1031.208 .0298781
1031.792 .0298816
1032.377 .0298845
1032.961 .0298870
1033.546 .0298883
1034.130 .0298882
1034.714 .0298875
1035.297 .0298859
1035.881 .0298829
1036.464 .0298807
1037.047 .0298791
1037.630 .0298783
1038.213 .0298798
1038.796 .0298824
1039.378 .0298869
1039.961 .0298930
1040.543 .0298996
1041.125 .0299050
1041.707 .0299082
1042.289 .0299102
1042.871 .0299090
1043.452 .0299058
1044.034 .0299010
1044.615 .0298944
1045.196 .0298873
1045.777 .0298795
1046.358 .0298703
1046.939 .0298601
1047.520 .0298498
1048.101 .0298386
1048.681 .0298260
1049.262 .0298126
1049.842 .0297989
1050.422 .0297851
1051.002 .0297726
1051.582 .0297621
1052.162 .0297540
1052.742 .0297498
1053.322 .0297488
1053.902 .0297501
1054.482 .0297537
1055.061 .0297583
1055.641 .0297631
1056.220 .0297673
1056.800 .0297707
1057.379 .0297715
1057.958 .0297698
1058.538 .0297664
1059.117 .0297606
1059.696 .0297529
1060.275 .0297438
1060.854 .0297322
1061.433 .0297186
1062.012 .0297024
1062.592 .0296834
1063.171 .0296633
1063.750 .0296431
1064.329 .0296225
1064.908 .0296015
1065.487 .0295821
1066.066 .0295642
1066.645 .0295477
1067.224 .0295328
1067.803 .0295199
1068.382 .0295102
1068.961 .0295027
1069.540 .0294955
1070.119 .0294894
1070.698 .0294850
1071.278 .0294798
1071.857 .0294722
1072.436 .0294623
1073.016 .0294492
1073.595 .0294323
1074.175 .0294123
1074.754 .0293905
1075.334 .0293680
1075.913 .0293451
1076.493 .0293225
1077.073 .0293001
1077.653 .0292788
1078.233 .0292572
1078.813 .0292354
1079.393 .0292155
1079.974 .0291975
1080.554 .0291823
1081.135 .0291715
1081.716 .0291659
1082.296 .0291675
1082.877 .0291735
1083.458 .0291844
1084.040 .0291985
1084.621 .0292135
1085.202 .0292274
1085.784 .0292392
1086.366 .0292487
1086.948 .0292558
1087.530 .0292619
1088.112 .0292680
1088.695 .0292744
1089.277 .0292816
1089.860 .0292895
1090.443 .0292974
1091.026 .0293050
1091.610 .0293114
1092.193 .0293145
1092.777 .0293159
1093.361 .0293134
1093.946 .0293083
1094.530 .0293018
1095.115 .0292941
1095.700 .0292856
1096.285 .0292765
1096.871 .0292679
1097.456 .0292570
1098.042 .0292442
1098.628 .0292292
1099.215 .0292100
1099.802 .0291885
1100.389 .0291610
1100.976 .0291315
1101.564 .0290996
1102.152 .0290661
1102.740 .0290326
1103.329 .0290000
1103.917 .0289696
1104.507 .0289414
1105.096 .0289168
1105.686 .0288973
1106.276 .0288834
1106.867 .0288758
1107.457 .0288738
1108.049 .0288767
1108.640 .0288871
1109.232 .0289007
1109.825 .0289181
1110.417 .0289402
1111.010 .0289631
1111.604 .0289875
1112.198 .0290124
1112.792 .0290372
1113.387 .0290654
1113.982 .0290942
1114.577 .0291256
1115.173 .0291546
1115.769 .0291831
1116.366 .0292068
1116.963 .0292233
1117.561 .0292338
1118.159 .0292379
1118.758 .0292352
1119.357 .0292295
1119.957 .0292211
1120.557 .0292127
1121.157 .0292055
1121.758 .0292018
1122.360 .0291984
1122.962 .0291951
1123.564 .0291914
1124.167 .0291896
1124.771 .0291881
1125.375 .0291909
1125.980 .0291950
1126.585 .0292035
1127.191 .0292186
1127.797 .0292401
1128.404 .0292687
1129.012 .0293073
1129.620 .0293584
1130.229 .0294190
1130.838 .0294879
1131.448 .0295649
1132.058 .0296452
1132.669 .0297287
1133.281 .0298121
1133.894 .0298965
1134.507 .0299784
1135.120 .0300599
1135.735 .0301468
1136.350 .0302380
1136.965 .0303374
1137.582 .0304421
1138.199 .0305495
1138.816 .0306547
1139.435 .0307544
1140.054 .0308467
1140.674 .0309388
1141.294 .0310270
1141.916 .0310944
1142.538 .0310880
1143.160 .0312129
1143.784 .0315597
1144.408 .0314843
1145.033 .0310374
