Measurement Sequence started on: 14-45-04-498
Integration time: 36
Scans to Average: 2 
>>>>>Begin Spectral Data<<<<<
433.946 .0617673
434.870 .0491937
435.793 .0489102
436.715 .0462546
437.635 .0458128
438.555 .0471715
439.473 .0464591
440.389 .0462484
441.305 .0460788
442.219 .0459659
443.132 .0458473
444.044 .0457196
444.954 .0455866
445.863 .0454796
446.771 .0454046
447.678 .0453604
448.584 .0453278
449.488 .0452872
450.391 .0452425
451.293 .0451871
452.194 .0451213
453.094 .0450344
453.992 .0449448
454.890 .0448570
455.786 .0447761
456.681 .0447110
457.575 .0446631
458.468 .0446325
459.360 .0446162
460.250 .0446066
461.140 .0445914
462.028 .0445709
462.915 .0445353
463.801 .0444756
464.687 .0444012
465.571 .0443132
466.454 .0442101
467.335 .0441022
468.216 .0439980
469.096 .0438981
469.975 .0438047
470.853 .0437177
471.729 .0436301
472.605 .0435411
473.479 .0434475
474.353 .0433428
475.226 .0432319
476.097 .0431176
476.968 .0430032
477.838 .0428925
478.706 .0427967
479.574 .0427130
480.441 .0426452
481.306 .0425933
482.171 .0425511
483.035 .0425123
483.898 .0424743
484.760 .0424298
485.621 .0423812
486.481 .0423273
487.340 .0422753
488.198 .0422280
489.055 .0421908
489.912 .0421604
490.767 .0421398
491.622 .0421247
492.476 .0421108
493.329 .0420939
494.180 .0420749
495.032 .0420494
495.882 .0420206
496.731 .0419892
497.580 .0419587
498.427 .0419310
499.274 .0419068
500.120 .0418804
500.965 .0418517
501.809 .0418175
502.653 .0417732
503.495 .0417192
504.337 .0416596
505.178 .0415929
506.018 .0415232
506.858 .0414531
507.696 .0413816
508.534 .0413052
509.371 .0412270
510.208 .0411448
511.043 .0410575
511.878 .0409681
512.712 .0408812
513.545 .0407996
514.377 .0407342
515.209 .0406861
516.040 .0406565
516.870 .0406423
517.699 .0406468
518.528 .0406578
519.356 .0406760
520.183 .0406935
521.010 .0407101
521.836 .0407216
522.661 .0407346
523.485 .0407432
524.309 .0407498
525.132 .0407547
525.954 .0407591
526.776 .0407503
527.597 .0407329
528.417 .0406923
529.237 .0406356
530.056 .0405547
530.874 .0404582
531.692 .0403404
532.508 .0402152
533.325 .0400885
534.140 .0399645
534.955 .0398439
535.770 .0397335
536.583 .0396282
537.397 .0395281
538.209 .0394283
539.021 .0393292
539.832 .0392285
540.643 .0391333
541.453 .0390376
542.262 .0389549
543.071 .0388850
543.879 .0388283
544.687 .0387827
545.494 .0387524
546.300 .0387358
547.106 .0387211
547.911 .0387097
548.716 .0387011
549.520 .0386906
550.323 .0386779
551.126 .0386562
551.929 .0386317
552.731 .0386023
553.532 .0385661
554.332 .0385236
555.133 .0384812
555.932 .0384388
556.731 .0383942
557.530 .0383504
558.328 .0383108
559.125 .0382699
559.922 .0382257
560.719 .0381762
561.515 .0381226
562.310 .0380605
563.105 .0379915
563.899 .0379169
564.693 .0378437
565.487 .0377733
566.280 .0377069
567.072 .0376463
567.864 .0375936
568.655 .0375466
569.446 .0375029
570.236 .0374557
571.026 .0374083
571.816 .0373530
572.605 .0372934
573.393 .0372314
574.181 .0371689
574.969 .0371072
575.756 .0370500
576.543 .0369978
577.329 .0369504
578.115 .0369079
578.900 .0368717
579.685 .0368374
580.469 .0368071
581.253 .0367764
582.036 .0367426
582.820 .0367065
583.602 .0366699
584.384 .0366314
585.166 .0365930
585.947 .0365555
586.728 .0365197
587.509 .0364861
588.289 .0364538
589.069 .0364220
589.848 .0363908
590.627 .0363582
591.405 .0363235
592.183 .0362848
592.961 .0362455
593.738 .0362046
594.515 .0361640
595.291 .0361242
596.067 .0360839
596.843 .0360428
597.618 .0360008
598.393 .0359573
599.167 .0359133
599.941 .0358677
600.715 .0358218
601.488 .0357770
602.261 .0357344
603.034 .0356933
603.806 .0356542
604.578 .0356171
605.349 .0355826
606.121 .0355490
606.891 .0355162
607.662 .0354832
608.432 .0354508
609.201 .0354196
609.971 .0353898
610.740 .0353618
611.508 .0353361
612.277 .0353126
613.045 .0352908
613.812 .0352692
614.579 .0352477
615.346 .0352257
616.113 .0352030
616.879 .0351795
617.645 .0351556
618.411 .0351310
619.176 .0351072
619.941 .0350843
620.705 .0350623
621.470 .0350417
622.233 .0350217
622.997 .0350019
623.760 .0349812
624.523 .0349603
625.286 .0349382
626.048 .0349149
626.810 .0348909
627.572 .0348659
628.333 .0348402
629.095 .0348140
629.855 .0347875
630.616 .0347612
631.376 .0347347
632.136 .0347078
632.895 .0346800
633.655 .0346521
634.414 .0346232
635.172 .0345936
635.931 .0345632
636.689 .0345328
637.447 .0345016
638.204 .0344698
638.962 .0344384
639.718 .0344072
640.475 .0343755
641.231 .0343433
641.988 .0343102
642.743 .0342760
643.499 .0342404
644.254 .0342035
645.009 .0341657
645.764 .0341275
646.518 .0340899
647.272 .0340527
648.026 .0340172
648.780 .0339833
649.533 .0339507
650.286 .0339192
651.039 .0338886
651.792 .0338578
652.544 .0338274
653.296 .0337977
654.048 .0337686
654.799 .0337406
655.550 .0337142
656.301 .0336896
657.052 .0336668
657.802 .0336453
658.552 .0336248
659.302 .0336046
660.052 .0335844
660.801 .0335639
661.550 .0335433
662.299 .0335231
663.048 .0335031
663.796 .0334840
664.544 .0334655
665.292 .0334472
666.040 .0334291
666.787 .0334110
667.534 .0333933
668.281 .0333757
669.028 .0333579
669.774 .0333402
670.521 .0333230
671.266 .0333061
672.012 .0332897
672.758 .0332741
673.503 .0332587
674.248 .0332432
674.992 .0332277
675.737 .0332118
676.481 .0331956
677.225 .0331791
677.969 .0331626
678.712 .0331457
679.455 .0331283
680.199 .0331106
680.941 .0330926
681.684 .0330747
682.426 .0330564
683.168 .0330374
683.910 .0330178
684.652 .0329971
685.393 .0329753
686.134 .0329523
686.875 .0329286
687.616 .0329039
688.356 .0328789
689.097 .0328537
689.837 .0328287
690.576 .0328041
691.316 .0327807
692.055 .0327590
692.794 .0327385
693.533 .0327186
694.272 .0326993
695.010 .0326806
695.748 .0326622
696.486 .0326438
697.224 .0326258
697.962 .0326079
698.699 .0325906
699.436 .0325732
700.173 .0325556
700.909 .0325380
701.646 .0325203
702.382 .0325021
703.118 .0324833
703.853 .0324641
704.589 .0324449
705.324 .0324260
706.059 .0324085
706.794 .0323919
707.529 .0323764
708.263 .0323623
708.997 .0323495
709.731 .0323374
710.465 .0323265
711.198 .0323162
711.931 .0323065
712.664 .0322980
713.397 .0322900
714.130 .0322819
714.862 .0322742
715.594 .0322664
716.326 .0322578
717.058 .0322484
717.789 .0322381
718.520 .0322262
719.251 .0322140
719.982 .0322013
720.713 .0321880
721.443 .0321748
722.173 .0321618
722.903 .0321486
723.633 .0321355
724.362 .0321226
725.091 .0321092
725.820 .0320956
726.549 .0320823
727.278 .0320691
728.006 .0320563
728.734 .0320442
729.462 .0320327
730.190 .0320219
730.917 .0320121
731.644 .0320020
732.371 .0319917
733.098 .0319815
733.825 .0319708
734.551 .0319593
735.277 .0319472
736.003 .0319346
736.728 .0319216
737.454 .0319087
738.179 .0318956
738.904 .0318822
739.629 .0318690
740.353 .0318557
741.077 .0318421
741.801 .0318279
742.525 .0318128
743.249 .0317968
743.972 .0317802
744.695 .0317628
745.418 .0317442
746.141 .0317252
746.863 .0317059
747.585 .0316865
748.307 .0316668
749.029 .0316471
749.750 .0316273
750.472 .0316076
751.193 .0315883
751.913 .0315687
752.634 .0315495
753.354 .0315306
754.074 .0315118
754.794 .0314936
755.514 .0314755
756.233 .0314576
756.952 .0314394
757.671 .0314221
758.390 .0314047
759.108 .0313877
759.826 .0313712
760.544 .0313554
761.262 .0313404
761.979 .0313256
762.697 .0313110
763.414 .0312967
764.130 .0312826
764.847 .0312687
765.563 .0312544
766.279 .0312408
766.995 .0312277
767.710 .0312155
768.426 .0312046
769.141 .0311956
769.855 .0311880
770.570 .0311813
771.284 .0311755
771.998 .0311701
772.712 .0311649
773.426 .0311599
774.139 .0311549
774.852 .0311505
775.565 .0311465
776.277 .0311430
776.990 .0311401
777.702 .0311380
778.414 .0311363
779.125 .0311342
779.836 .0311315
780.547 .0311277
781.258 .0311224
781.969 .0311161
782.679 .0311089
783.389 .0311013
784.099 .0310927
784.808 .0310840
785.517 .0310752
786.226 .0310668
786.935 .0310589
787.643 .0310513
788.352 .0310441
789.060 .0310372
789.767 .0310301
790.475 .0310227
791.182 .0310149
791.889 .0310069
792.595 .0309985
793.301 .0309899
794.008 .0309810
794.713 .0309723
795.419 .0309641
796.124 .0309567
796.829 .0309493
797.534 .0309421
798.238 .0309345
798.942 .0309262
799.646 .0309172
800.350 .0309072
801.053 .0308960
801.756 .0308842
802.459 .0308719
803.162 .0308595
803.864 .0308474
804.566 .0308359
805.267 .0308247
805.969 .0308137
806.670 .0308028
807.371 .0307917
808.071 .0307800
808.772 .0307682
809.472 .0307553
810.171 .0307417
810.871 .0307274
811.570 .0307122
812.269 .0306966
812.967 .0306806
813.666 .0306642
814.364 .0306471
815.061 .0306297
815.759 .0306121
816.456 .0305942
817.153 .0305763
817.849 .0305578
818.545 .0305386
819.241 .0305187
819.937 .0304981
820.632 .0304769
821.327 .0304552
822.022 .0304335
822.717 .0304115
823.411 .0303898
824.105 .0303686
824.798 .0303481
825.491 .0303282
826.184 .0303088
826.877 .0302900
827.569 .0302708
828.261 .0302512
828.953 .0302309
829.645 .0302098
830.336 .0301886
831.027 .0301673
831.717 .0301465
832.407 .0301268
833.097 .0301084
833.787 .0300914
834.476 .0300761
835.165 .0300626
835.854 .0300501
836.542 .0300385
837.230 .0300276
837.918 .0300169
838.605 .0300065
839.292 .0299969
839.979 .0299882
840.665 .0299806
841.352 .0299744
842.037 .0299693
842.723 .0299651
843.408 .0299621
844.093 .0299587
844.777 .0299551
845.462 .0299505
846.145 .0299442
846.829 .0299358
847.512 .0299260
848.195 .0299150
848.878 .0299034
849.560 .0298918
850.242 .0298813
850.923 .0298713
851.605 .0298625
852.286 .0298544
852.966 .0298466
853.646 .0298390
854.326 .0298314
855.006 .0298232
855.685 .0298148
856.364 .0298062
857.043 .0297978
857.721 .0297899
858.399 .0297830
859.077 .0297768
859.754 .0297710
860.431 .0297656
861.107 .0297605
861.784 .0297546
862.459 .0297483
863.135 .0297413
863.810 .0297339
864.485 .0297261
865.160 .0297179
865.834 .0297094
866.508 .0297012
867.181 .0296933
867.854 .0296856
868.527 .0296778
869.199 .0296706
869.872 .0296634
870.543 .0296563
871.215 .0296487
871.886 .0296404
872.557 .0296309
873.227 .0296205
873.897 .0296081
874.567 .0295941
875.236 .0295787
875.905 .0295622
876.573 .0295449
877.242 .0295275
877.909 .0295098
878.577 .0294927
879.244 .0294762
879.911 .0294608
880.577 .0294458
881.243 .0294316
881.909 .0294177
882.575 .0294040
883.240 .0293902
883.904 .0293767
884.569 .0293628
885.232 .0293489
885.896 .0293348
886.559 .0293210
887.222 .0293072
887.885 .0292938
888.547 .0292799
889.208 .0292658
889.870 .0292509
890.531 .0292349
891.192 .0292175
891.852 .0291992
892.512 .0291799
893.171 .0291603
893.830 .0291412
894.489 .0291224
895.148 .0291042
895.806 .0290875
896.464 .0290718
897.121 .0290573
897.778 .0290432
898.434 .0290298
899.091 .0290170
899.747 .0290049
900.402 .0289930
901.057 .0289815
901.712 .0289708
902.366 .0289599
903.020 .0289484
903.674 .0289367
904.327 .0289240
904.980 .0289109
905.633 .0288972
906.285 .0288834
906.936 .0288695
907.588 .0288557
908.239 .0288418
908.889 .0288281
909.540 .0288140
910.190 .0287986
910.839 .0287821
911.488 .0287651
912.137 .0287475
912.785 .0287296
913.433 .0287122
914.081 .0286958
914.728 .0286804
915.375 .0286659
916.021 .0286518
916.668 .0286380
917.313 .0286242
917.959 .0286102
918.604 .0285960
919.248 .0285818
919.892 .0285681
920.536 .0285553
921.180 .0285435
921.823 .0285324
922.465 .0285213
923.108 .0285100
923.750 .0284981
924.391 .0284853
925.032 .0284713
925.673 .0284564
926.313 .0284413
926.953 .0284262
927.593 .0284109
928.232 .0283955
928.871 .0283801
929.510 .0283650
930.148 .0283495
930.786 .0283334
931.423 .0283165
932.060 .0282995
932.697 .0282826
933.333 .0282656
933.969 .0282488
934.604 .0282326
935.239 .0282173
935.874 .0282026
936.508 .0281888
937.142 .0281762
937.776 .0281651
938.409 .0281557
939.042 .0281471
939.674 .0281391
940.306 .0281311
940.938 .0281230
941.569 .0281143
942.200 .0281048
942.830 .0280944
943.460 .0280837
944.090 .0280726
944.720 .0280618
945.349 .0280508
945.977 .0280407
946.606 .0280311
947.233 .0280219
947.861 .0280124
948.488 .0280023
949.115 .0279920
949.741 .0279815
950.367 .0279708
950.993 .0279601
951.618 .0279497
952.243 .0279398
952.868 .0279304
953.492 .0279213
954.115 .0279126
954.739 .0279046
955.362 .0278967
955.984 .0278887
956.607 .0278803
957.229 .0278719
957.850 .0278634
958.471 .0278541
959.092 .0278441
959.713 .0278332
960.333 .0278217
960.952 .0278099
961.572 .0277981
962.191 .0277865
962.809 .0277756
963.428 .0277655
964.045 .0277561
964.663 .0277471
965.280 .0277388
965.897 .0277306
966.513 .0277221
967.129 .0277134
967.745 .0277042
968.361 .0276944
968.976 .0276847
969.590 .0276747
970.205 .0276646
970.818 .0276550
971.432 .0276453
972.045 .0276357
972.658 .0276266
973.271 .0276177
973.883 .0276081
974.495 .0275978
975.106 .0275869
975.717 .0275750
976.328 .0275625
976.938 .0275499
977.548 .0275373
978.158 .0275251
978.768 .0275130
979.377 .0275011
979.985 .0274890
980.594 .0274771
981.202 .0274648
981.809 .0274518
982.417 .0274383
983.024 .0274241
983.631 .0274098
984.237 .0273952
984.843 .0273806
985.449 .0273654
986.054 .0273494
986.659 .0273328
987.264 .0273156
987.868 .0272973
988.472 .0272788
989.076 .0272605
989.679 .0272425
990.282 .0272249
990.885 .0272080
991.487 .0271910
992.090 .0271744
992.691 .0271576
993.293 .0271404
993.894 .0271227
994.495 .0271052
995.095 .0270876
995.696 .0270706
996.296 .0270544
996.895 .0270391
997.494 .0270250
998.093 .0270122
998.692 .0269998
999.291 .0269877
999.889 .0269762
1000.487 .0269651
1001.084 .0269536
1001.681 .0269423
1002.278 .0269309
1002.875 .0269199
1003.471 .0269098
1004.067 .0269006
1004.663 .0268929
1005.258 .0268866
1005.854 .0268817
1006.449 .0268775
1007.043 .0268738
1007.638 .0268701
1008.232 .0268655
1008.826 .0268608
1009.419 .0268555
1010.012 .0268492
1010.605 .0268429
1011.198 .0268362
1011.791 .0268297
1012.383 .0268236
1012.975 .0268170
1013.566 .0268102
1014.158 .0268033
1014.749 .0267961
1015.340 .0267886
1015.931 .0267811
1016.521 .0267747
1017.111 .0267687
1017.701 .0267637
1018.291 .0267590
1018.880 .0267545
1019.470 .0267505
1020.059 .0267463
1020.647 .0267421
1021.236 .0267381
1021.824 .0267343
1022.412 .0267312
1023.000 .0267294
1023.588 .0267288
1024.175 .0267291
1024.762 .0267302
1025.349 .0267315
1025.936 .0267325
1026.523 .0267327
1027.109 .0267324
1027.695 .0267314
1028.281 .0267308
1028.867 .0267311
1029.452 .0267323
1030.038 .0267359
1030.623 .0267408
1031.208 .0267473
1031.792 .0267548
1032.377 .0267623
1032.961 .0267692
1033.546 .0267748
1034.130 .0267793
1034.714 .0267822
1035.297 .0267847
1035.881 .0267870
1036.464 .0267891
1037.047 .0267920
1037.630 .0267952
1038.213 .0267982
1038.796 .0268012
1039.378 .0268027
1039.961 .0268023
1040.543 .0268010
1041.125 .0267982
1041.707 .0267938
1042.289 .0267893
1042.871 .0267857
1043.452 .0267828
1044.034 .0267810
1044.615 .0267806
1045.196 .0267810
1045.777 .0267833
1046.358 .0267864
1046.939 .0267898
1047.520 .0267943
1048.101 .0268005
1048.681 .0268070
1049.262 .0268146
1049.842 .0268228
1050.422 .0268302
1051.002 .0268361
1051.582 .0268408
1052.162 .0268439
1052.742 .0268449
1053.322 .0268444
1053.902 .0268429
1054.482 .0268411
1055.061 .0268397
1055.641 .0268377
1056.220 .0268365
1056.800 .0268359
1057.379 .0268360
1057.958 .0268357
1058.538 .0268352
1059.117 .0268356
1059.696 .0268365
1060.275 .0268376
1060.854 .0268394
1061.433 .0268421
1062.012 .0268459
1062.592 .0268506
1063.171 .0268570
1063.750 .0268638
1064.329 .0268710
1064.908 .0268772
1065.487 .0268828
1066.066 .0268863
1066.645 .0268885
1067.224 .0268886
1067.803 .0268871
1068.382 .0268850
1068.961 .0268827
1069.540 .0268807
1070.119 .0268797
1070.698 .0268803
1071.278 .0268827
1071.857 .0268849
1072.436 .0268882
1073.016 .0268900
1073.595 .0268910
1074.175 .0268910
1074.754 .0268906
1075.334 .0268886
1075.913 .0268860
1076.493 .0268831
1077.073 .0268793
1077.653 .0268747
1078.233 .0268702
1078.813 .0268642
1079.393 .0268577
1079.974 .0268509
1080.554 .0268435
1081.135 .0268344
1081.716 .0268265
1082.296 .0268180
1082.877 .0268098
1083.458 .0268016
1084.040 .0267952
1084.621 .0267891
1085.202 .0267859
1085.784 .0267863
1086.366 .0267877
1086.948 .0267909
1087.530 .0267965
1088.112 .0268010
1088.695 .0268050
1089.277 .0268065
1089.860 .0268063
1090.443 .0268040
1091.026 .0268016
1091.610 .0267976
1092.193 .0267926
1092.777 .0267885
1093.361 .0267853
1093.946 .0267796
1094.530 .0267729
1095.115 .0267636
1095.700 .0267519
1096.285 .0267385
1096.871 .0267229
1097.456 .0267051
1098.042 .0266852
1098.628 .0266660
1099.215 .0266466
1099.802 .0266260
1100.389 .0266057
1100.976 .0265864
1101.564 .0265684
1102.152 .0265524
1102.740 .0265378
1103.329 .0265261
1103.917 .0265184
1104.507 .0265132
1105.096 .0265070
1105.686 .0264990
1106.276 .0264904
1106.867 .0264818
1107.457 .0264714
1108.049 .0264638
1108.640 .0264565
1109.232 .0264541
1109.825 .0264588
1110.417 .0264694
1111.010 .0264851
1111.604 .0265032
1112.198 .0265216
1112.792 .0265391
1113.387 .0265525
1113.982 .0265620
1114.577 .0265684
1115.173 .0265756
1115.769 .0265834
1116.366 .0265929
1116.963 .0266072
1117.561 .0266267
1118.159 .0266506
1118.758 .0266767
1119.357 .0267006
1119.957 .0267224
1120.557 .0267425
1121.157 .0267577
1121.758 .0267711
1122.360 .0267875
1122.962 .0268054
1123.564 .0268269
1124.167 .0268542
1124.771 .0268853
1125.375 .0269203
1125.980 .0269566
1126.585 .0269937
1127.191 .0270295
1127.797 .0270685
1128.404 .0271082
1129.012 .0271498
1129.620 .0272007
1130.229 .0272560
1130.838 .0273146
1131.448 .0273748
1132.058 .0274361
1132.669 .0274928
1133.281 .0275455
1133.894 .0275965
1134.507 .0276426
1135.120 .0276910
1135.735 .0277395
1136.350 .0277938
1136.965 .0278545
1137.582 .0279200
1138.199 .0279883
1138.816 .0280525
1139.435 .0281146
1140.054 .0281734
1140.674 .0282365
1141.294 .0283095
1141.916 .0283977
1142.538 .0282895
1143.160 .0284455
1143.784 .0287941
1144.408 .0289769
1145.033 .0292079
