Measurement Sequence started on: 14-45-04-498
Integration time: 36
Scans to Average: 2 
>>>>>Begin Spectral Data<<<<<
433.946 .0409360
434.870 .0497665
435.793 .0482953
436.715 .0499011
437.635 .0485619
438.555 .0483956
439.473 .0484823
440.389 .0482504
441.305 .0480517
442.219 .0478187
443.132 .0476447
444.044 .0474838
444.954 .0473586
445.863 .0472720
446.771 .0471948
447.678 .0471256
448.584 .0470731
449.488 .0470306
450.391 .0469920
451.293 .0469634
452.194 .0469353
453.094 .0469068
453.992 .0468725
454.890 .0468387
455.786 .0468011
456.681 .0467523
457.575 .0467043
458.468 .0466411
459.360 .0465747
460.250 .0465017
461.140 .0464231
462.028 .0463425
462.915 .0462533
463.801 .0461557
464.687 .0460560
465.571 .0459608
466.454 .0458660
467.335 .0457747
468.216 .0456949
469.096 .0456213
469.975 .0455574
470.853 .0455035
471.729 .0454557
472.605 .0454079
473.479 .0453638
474.353 .0453143
475.226 .0452549
476.097 .0451923
476.968 .0451215
477.838 .0450454
478.706 .0449684
479.574 .0448894
480.441 .0448080
481.306 .0447308
482.171 .0446565
483.035 .0445808
483.898 .0445079
484.760 .0444371
485.621 .0443669
486.481 .0442995
487.340 .0442378
488.198 .0441825
489.055 .0441310
489.912 .0440897
490.767 .0440522
491.622 .0440211
492.476 .0439959
493.329 .0439764
494.180 .0439613
495.032 .0439508
495.882 .0439429
496.731 .0439330
497.580 .0439208
498.427 .0439041
499.274 .0438753
500.120 .0438366
500.965 .0437884
501.809 .0437311
502.653 .0436603
503.495 .0435873
504.337 .0435097
505.178 .0434311
506.018 .0433523
506.858 .0432696
507.696 .0431860
508.534 .0431023
509.371 .0430147
510.208 .0429282
511.043 .0428495
511.878 .0427816
512.712 .0427204
513.545 .0426736
514.377 .0426387
515.209 .0426158
516.040 .0426049
516.870 .0426097
517.699 .0426252
518.528 .0426522
519.356 .0426918
520.183 .0427366
521.010 .0427943
521.836 .0428522
522.661 .0429088
523.485 .0429639
524.309 .0430055
525.132 .0430329
525.954 .0430431
526.776 .0430424
527.597 .0430290
528.417 .0430012
529.237 .0429660
530.056 .0429177
530.874 .0428577
531.692 .0427899
532.508 .0427144
533.325 .0426305
534.140 .0425383
534.955 .0424366
535.770 .0423315
536.583 .0422223
537.397 .0421136
538.209 .0420118
539.021 .0419197
539.832 .0418385
540.643 .0417650
541.453 .0417081
542.262 .0416769
543.071 .0416590
543.879 .0416518
544.687 .0416515
545.494 .0416549
546.300 .0416493
547.106 .0416284
547.911 .0415923
548.716 .0415472
549.520 .0414841
550.323 .0414111
551.126 .0413336
551.929 .0412596
552.731 .0411877
553.532 .0411160
554.332 .0410426
555.133 .0409659
555.932 .0408831
556.731 .0407972
557.530 .0407107
558.328 .0406333
559.125 .0405639
559.922 .0405105
560.719 .0404723
561.515 .0404532
562.310 .0404440
563.105 .0404442
563.899 .0404445
564.693 .0404420
565.487 .0404318
566.280 .0404127
567.072 .0403864
567.864 .0403541
568.655 .0403141
569.446 .0402713
570.236 .0402207
571.026 .0401648
571.816 .0401010
572.605 .0400312
573.393 .0399540
574.181 .0398753
574.969 .0397961
575.756 .0397187
576.543 .0396472
577.329 .0395842
578.115 .0395266
578.900 .0394752
579.685 .0394294
580.469 .0393868
581.253 .0393473
582.036 .0393084
582.820 .0392676
583.602 .0392311
584.384 .0391968
585.166 .0391645
585.947 .0391340
586.728 .0391081
587.509 .0390852
588.289 .0390638
589.069 .0390444
589.848 .0390257
590.627 .0390083
591.405 .0389916
592.183 .0389740
592.961 .0389570
593.738 .0389396
594.515 .0389231
595.291 .0389065
596.067 .0388893
596.843 .0388715
597.618 .0388527
598.393 .0388334
599.167 .0388146
599.941 .0387962
600.715 .0387781
601.488 .0387611
602.261 .0387450
603.034 .0387295
603.806 .0387141
604.578 .0386996
605.349 .0386860
606.121 .0386740
606.891 .0386634
607.662 .0386537
608.432 .0386461
609.201 .0386405
609.971 .0386355
610.740 .0386307
611.508 .0386255
612.277 .0386194
613.045 .0386121
613.812 .0386042
614.579 .0385957
615.346 .0385877
616.113 .0385805
616.879 .0385741
617.645 .0385683
618.411 .0385624
619.176 .0385553
619.941 .0385469
620.705 .0385366
621.470 .0385240
622.233 .0385089
622.997 .0384924
623.760 .0384755
624.523 .0384585
625.286 .0384411
626.048 .0384240
626.810 .0384063
627.572 .0383876
628.333 .0383669
629.095 .0383440
629.855 .0383188
630.616 .0382916
631.376 .0382632
632.136 .0382339
632.895 .0382048
633.655 .0381773
634.414 .0381511
635.172 .0381268
635.931 .0381044
636.689 .0380833
637.447 .0380633
638.204 .0380439
638.962 .0380242
639.718 .0380047
640.475 .0379855
641.231 .0379665
641.988 .0379479
642.743 .0379301
643.499 .0379129
644.254 .0378962
645.009 .0378806
645.764 .0378653
646.518 .0378506
647.272 .0378363
648.026 .0378216
648.780 .0378065
649.533 .0377912
650.286 .0377758
651.039 .0377601
651.792 .0377447
652.544 .0377296
653.296 .0377151
654.048 .0377014
654.799 .0376883
655.550 .0376755
656.301 .0376630
657.052 .0376510
657.802 .0376390
658.552 .0376276
659.302 .0376166
660.052 .0376059
660.801 .0375957
661.550 .0375856
662.299 .0375747
663.048 .0375621
663.796 .0375480
664.544 .0375319
665.292 .0375136
666.040 .0374933
666.787 .0374723
667.534 .0374509
668.281 .0374293
669.028 .0374075
669.774 .0373851
670.521 .0373622
671.266 .0373385
672.012 .0373137
672.758 .0372879
673.503 .0372621
674.248 .0372365
674.992 .0372115
675.737 .0371883
676.481 .0371672
677.225 .0371478
677.969 .0371302
678.712 .0371138
679.455 .0370979
680.199 .0370821
680.941 .0370665
681.684 .0370507
682.426 .0370350
683.168 .0370188
683.910 .0370022
684.652 .0369849
685.393 .0369677
686.134 .0369498
686.875 .0369318
687.616 .0369139
688.356 .0368962
689.097 .0368786
689.837 .0368609
690.576 .0368429
691.316 .0368249
692.055 .0368068
692.794 .0367885
693.533 .0367702
694.272 .0367525
695.010 .0367356
695.748 .0367200
696.486 .0367053
697.224 .0366914
697.962 .0366782
698.699 .0366651
699.436 .0366515
700.173 .0366375
700.909 .0366229
701.646 .0366082
702.382 .0365939
703.118 .0365797
703.853 .0365660
704.589 .0365524
705.324 .0365388
706.059 .0365253
706.794 .0365113
707.529 .0364977
708.263 .0364843
708.997 .0364719
709.731 .0364600
710.465 .0364491
711.198 .0364389
711.931 .0364291
712.664 .0364193
713.397 .0364091
714.130 .0363976
714.862 .0363852
715.594 .0363718
716.326 .0363580
717.058 .0363440
717.789 .0363302
718.520 .0363159
719.251 .0363019
719.982 .0362876
720.713 .0362732
721.443 .0362581
722.173 .0362428
722.903 .0362264
723.633 .0362094
724.362 .0361913
725.091 .0361723
725.820 .0361531
726.549 .0361339
727.278 .0361142
728.006 .0360946
728.734 .0360753
729.462 .0360564
730.190 .0360382
730.917 .0360207
731.644 .0360032
732.371 .0359859
733.098 .0359684
733.825 .0359505
734.551 .0359325
735.277 .0359149
736.003 .0358977
736.728 .0358813
737.454 .0358658
738.179 .0358507
738.904 .0358363
739.629 .0358229
740.353 .0358097
741.077 .0357966
741.801 .0357834
742.525 .0357700
743.249 .0357567
743.972 .0357440
744.695 .0357314
745.418 .0357192
746.141 .0357069
746.863 .0356945
747.585 .0356816
748.307 .0356685
749.029 .0356549
749.750 .0356414
750.472 .0356281
751.193 .0356144
751.913 .0356004
752.634 .0355866
753.354 .0355728
754.074 .0355589
754.794 .0355448
755.514 .0355306
756.233 .0355161
756.952 .0355020
757.671 .0354883
758.390 .0354750
759.108 .0354627
759.826 .0354511
760.544 .0354403
761.262 .0354303
761.979 .0354209
762.697 .0354121
763.414 .0354040
764.130 .0353966
764.847 .0353896
765.563 .0353826
766.279 .0353760
766.995 .0353690
767.710 .0353617
768.426 .0353536
769.141 .0353447
769.855 .0353350
770.570 .0353246
771.284 .0353136
771.998 .0353022
772.712 .0352907
773.426 .0352795
774.139 .0352688
774.852 .0352583
775.565 .0352479
776.277 .0352380
776.990 .0352287
777.702 .0352196
778.414 .0352109
779.125 .0352031
779.836 .0351960
780.547 .0351898
781.258 .0351841
781.969 .0351791
782.679 .0351746
783.389 .0351702
784.099 .0351655
784.808 .0351605
785.517 .0351555
786.226 .0351501
786.935 .0351443
787.643 .0351385
788.352 .0351326
789.060 .0351265
789.767 .0351203
790.475 .0351135
791.182 .0351060
791.889 .0350979
792.595 .0350889
793.301 .0350791
794.008 .0350680
794.713 .0350562
795.419 .0350434
796.124 .0350295
796.829 .0350147
797.534 .0349986
798.238 .0349819
798.942 .0349644
799.646 .0349461
800.350 .0349270
801.053 .0349072
801.756 .0348868
802.459 .0348657
803.162 .0348439
803.864 .0348218
804.566 .0347995
805.267 .0347773
805.969 .0347552
806.670 .0347335
807.371 .0347129
808.071 .0346938
808.772 .0346758
809.472 .0346590
810.171 .0346429
810.871 .0346277
811.570 .0346135
812.269 .0345996
812.967 .0345856
813.666 .0345719
814.364 .0345583
815.061 .0345445
815.759 .0345305
816.456 .0345163
817.153 .0345015
817.849 .0344862
818.545 .0344701
819.241 .0344529
819.937 .0344348
820.632 .0344158
821.327 .0343954
822.022 .0343744
822.717 .0343523
823.411 .0343301
824.105 .0343078
824.798 .0342862
825.491 .0342652
826.184 .0342447
826.877 .0342254
827.569 .0342071
828.261 .0341895
828.953 .0341724
829.645 .0341557
830.336 .0341401
831.027 .0341252
831.717 .0341116
832.407 .0340996
833.097 .0340893
833.787 .0340803
834.476 .0340724
835.165 .0340653
835.854 .0340589
836.542 .0340528
837.230 .0340467
837.918 .0340409
838.605 .0340354
839.292 .0340304
839.979 .0340261
840.665 .0340227
841.352 .0340203
842.037 .0340181
842.723 .0340161
843.408 .0340137
844.093 .0340106
844.777 .0340067
845.462 .0340020
846.145 .0339965
846.829 .0339898
847.512 .0339821
848.195 .0339736
848.878 .0339646
849.560 .0339554
850.242 .0339458
850.923 .0339361
851.605 .0339262
852.286 .0339162
852.966 .0339059
853.646 .0338956
854.326 .0338849
855.006 .0338741
855.685 .0338629
856.364 .0338511
857.043 .0338390
857.721 .0338269
858.399 .0338148
859.077 .0338025
859.754 .0337899
860.431 .0337768
861.107 .0337632
861.784 .0337491
862.459 .0337346
863.135 .0337200
863.810 .0337052
864.485 .0336901
865.160 .0336752
865.834 .0336605
866.508 .0336459
867.181 .0336318
867.854 .0336185
868.527 .0336054
869.199 .0335928
869.872 .0335805
870.543 .0335691
871.215 .0335583
871.886 .0335476
872.557 .0335366
873.227 .0335253
873.897 .0335135
874.567 .0335010
875.236 .0334878
875.905 .0334745
876.573 .0334608
877.242 .0334469
877.909 .0334326
878.577 .0334182
879.244 .0334028
879.911 .0333870
880.577 .0333703
881.243 .0333528
881.909 .0333342
882.575 .0333151
883.240 .0332956
883.904 .0332759
884.569 .0332557
885.232 .0332351
885.896 .0332141
886.559 .0331936
887.222 .0331720
887.885 .0331497
888.547 .0331270
889.208 .0331036
889.870 .0330794
890.531 .0330552
891.192 .0330307
891.852 .0330064
892.512 .0329829
893.171 .0329607
893.830 .0329396
894.489 .0329206
895.148 .0329035
895.806 .0328879
896.464 .0328740
897.121 .0328608
897.778 .0328476
898.434 .0328351
899.091 .0328226
899.747 .0328094
900.402 .0327958
901.057 .0327817
901.712 .0327668
902.366 .0327508
903.020 .0327339
903.674 .0327157
904.327 .0326968
904.980 .0326767
905.633 .0326554
906.285 .0326333
906.936 .0326112
907.588 .0325882
908.239 .0325651
908.889 .0325421
909.540 .0325191
910.190 .0324957
910.839 .0324730
911.488 .0324509
912.137 .0324299
912.785 .0324097
913.433 .0323911
914.081 .0323734
914.728 .0323567
915.375 .0323401
916.021 .0323235
916.668 .0323066
917.313 .0322891
917.959 .0322703
918.604 .0322512
919.248 .0322317
919.892 .0322120
920.536 .0321925
921.180 .0321740
921.823 .0321562
922.465 .0321391
923.108 .0321222
923.750 .0321056
924.391 .0320891
925.032 .0320726
925.673 .0320558
926.313 .0320394
926.953 .0320239
927.593 .0320088
928.232 .0319942
928.871 .0319806
929.510 .0319675
930.148 .0319547
930.786 .0319419
931.423 .0319291
932.060 .0319160
932.697 .0319029
933.333 .0318890
933.969 .0318749
934.604 .0318609
935.239 .0318468
935.874 .0318326
936.508 .0318191
937.142 .0318063
937.776 .0317938
938.409 .0317821
939.042 .0317711
939.674 .0317603
940.306 .0317501
940.938 .0317399
941.569 .0317298
942.200 .0317197
942.830 .0317102
943.460 .0317013
944.090 .0316939
944.720 .0316879
945.349 .0316835
945.977 .0316804
946.606 .0316785
947.233 .0316763
947.861 .0316731
948.488 .0316688
949.115 .0316633
949.741 .0316569
950.367 .0316498
950.993 .0316427
951.618 .0316367
952.243 .0316317
952.868 .0316276
953.492 .0316235
954.115 .0316191
954.739 .0316140
955.362 .0316077
955.984 .0315997
956.607 .0315904
957.229 .0315807
957.850 .0315709
958.471 .0315607
959.092 .0315500
959.713 .0315391
960.333 .0315275
960.952 .0315155
961.572 .0315029
962.191 .0314900
962.809 .0314774
963.428 .0314652
964.045 .0314533
964.663 .0314424
965.280 .0314319
965.897 .0314216
966.513 .0314118
967.129 .0314022
967.745 .0313927
968.361 .0313840
968.976 .0313765
969.590 .0313707
970.205 .0313660
970.818 .0313624
971.432 .0313590
972.045 .0313553
972.658 .0313504
973.271 .0313437
973.883 .0313350
974.495 .0313244
975.106 .0313118
975.717 .0312978
976.328 .0312825
976.938 .0312662
977.548 .0312490
978.158 .0312307
978.768 .0312113
979.377 .0311908
979.985 .0311689
980.594 .0311464
981.202 .0311235
981.809 .0311009
982.417 .0310793
983.024 .0310591
983.631 .0310405
984.237 .0310233
984.843 .0310078
985.449 .0309928
986.054 .0309782
986.659 .0309643
987.264 .0309507
987.868 .0309375
988.472 .0309256
989.076 .0309152
989.679 .0309062
990.282 .0308985
990.885 .0308916
991.487 .0308844
992.090 .0308769
992.691 .0308681
993.293 .0308578
993.894 .0308465
994.495 .0308347
995.095 .0308227
995.696 .0308111
996.296 .0308004
996.895 .0307903
997.494 .0307804
998.093 .0307709
998.692 .0307606
999.291 .0307489
999.889 .0307351
1000.487 .0307190
1001.084 .0307001
1001.681 .0306786
1002.278 .0306546
1002.875 .0306285
1003.471 .0306013
1004.067 .0305736
1004.663 .0305462
1005.258 .0305190
1005.854 .0304929
1006.449 .0304675
1007.043 .0304426
1007.638 .0304188
1008.232 .0303960
1008.826 .0303744
1009.419 .0303550
1010.012 .0303378
1010.605 .0303235
1011.198 .0303118
1011.791 .0303028
1012.383 .0302958
1012.975 .0302899
1013.566 .0302844
1014.158 .0302784
1014.749 .0302716
1015.340 .0302651
1015.931 .0302584
1016.521 .0302523
1017.111 .0302470
1017.701 .0302428
1018.291 .0302392
1018.880 .0302359
1019.470 .0302323
1020.059 .0302287
1020.647 .0302244
1021.236 .0302197
1021.824 .0302153
1022.412 .0302122
1023.000 .0302103
1023.588 .0302097
1024.175 .0302102
1024.762 .0302113
1025.349 .0302119
1025.936 .0302120
1026.523 .0302105
1027.109 .0302078
1027.695 .0302042
1028.281 .0301999
1028.867 .0301959
1029.452 .0301927
1030.038 .0301911
1030.623 .0301908
1031.208 .0301924
1031.792 .0301954
1032.377 .0301993
1032.961 .0302039
1033.546 .0302096
1034.130 .0302160
1034.714 .0302226
1035.297 .0302291
1035.881 .0302352
1036.464 .0302410
1037.047 .0302467
1037.630 .0302511
1038.213 .0302551
1038.796 .0302584
1039.378 .0302611
1039.961 .0302626
1040.543 .0302635
1041.125 .0302637
1041.707 .0302624
1042.289 .0302592
1042.871 .0302551
1043.452 .0302500
1044.034 .0302451
1044.615 .0302410
1045.196 .0302397
1045.777 .0302416
1046.358 .0302464
1046.939 .0302537
1047.520 .0302626
1048.101 .0302725
1048.681 .0302810
1049.262 .0302872
1049.842 .0302912
1050.422 .0302932
1051.002 .0302935
1051.582 .0302934
1052.162 .0302937
1052.742 .0302947
1053.322 .0302956
1053.902 .0302956
1054.482 .0302943
1055.061 .0302906
1055.641 .0302844
1056.220 .0302765
1056.800 .0302680
1057.379 .0302606
1057.958 .0302541
1058.538 .0302508
1059.117 .0302506
1059.696 .0302529
1060.275 .0302569
1060.854 .0302618
1061.433 .0302675
1062.012 .0302744
1062.592 .0302823
1063.171 .0302925
1063.750 .0303051
1064.329 .0303208
1064.908 .0303372
1065.487 .0303541
1066.066 .0303699
1066.645 .0303833
1067.224 .0303930
1067.803 .0304000
1068.382 .0304035
1068.961 .0304063
1069.540 .0304075
1070.119 .0304089
1070.698 .0304115
1071.278 .0304145
1071.857 .0304170
1072.436 .0304188
1073.016 .0304187
1073.595 .0304167
1074.175 .0304133
1074.754 .0304105
1075.334 .0304079
1075.913 .0304071
1076.493 .0304084
1077.073 .0304107
1077.653 .0304150
1078.233 .0304206
1078.813 .0304268
1079.393 .0304339
1079.974 .0304426
1080.554 .0304517
1081.135 .0304636
1081.716 .0304781
1082.296 .0304960
1082.877 .0305153
1083.458 .0305359
1084.040 .0305543
1084.621 .0305694
1085.202 .0305792
1085.784 .0305856
1086.366 .0305873
1086.948 .0305879
1087.530 .0305867
1088.112 .0305865
1088.695 .0305861
1089.277 .0305874
1089.860 .0305873
1090.443 .0305851
1091.026 .0305786
1091.610 .0305681
1092.193 .0305523
1092.777 .0305343
1093.361 .0305159
1093.946 .0304989
1094.530 .0304846
1095.115 .0304738
1095.700 .0304647
1096.285 .0304570
1096.871 .0304501
1097.456 .0304431
1098.042 .0304355
1098.628 .0304280
1099.215 .0304214
1099.802 .0304158
1100.389 .0304123
1100.976 .0304108
1101.564 .0304104
1102.152 .0304102
1102.740 .0304099
1103.329 .0304063
1103.917 .0304009
1104.507 .0303926
1105.096 .0303830
1105.686 .0303701
1106.276 .0303555
1106.867 .0303397
1107.457 .0303234
1108.049 .0303054
1108.640 .0302864
1109.232 .0302653
1109.825 .0302453
1110.417 .0302254
1111.010 .0302068
1111.604 .0301890
1112.198 .0301742
1112.792 .0301619
1113.387 .0301512
1113.982 .0301423
1114.577 .0301387
1115.173 .0301397
1115.769 .0301466
1116.366 .0301577
1116.963 .0301716
1117.561 .0301875
1118.159 .0302031
1118.758 .0302177
1119.357 .0302295
1119.957 .0302388
1120.557 .0302480
1121.157 .0302582
1121.758 .0302731
1122.360 .0302938
1122.962 .0303199
1123.564 .0303544
1124.167 .0303924
1124.771 .0304310
1125.375 .0304660
1125.980 .0304985
1126.585 .0305290
1127.191 .0305569
1127.797 .0305844
1128.404 .0306143
1129.012 .0306455
1129.620 .0306789
1130.229 .0307107
1130.838 .0307409
1131.448 .0307659
1132.058 .0307846
1132.669 .0307932
1133.281 .0307961
1133.894 .0307976
1134.507 .0308039
1135.120 .0308166
1135.735 .0308425
1136.350 .0308805
1136.965 .0309281
1137.582 .0309834
1138.199 .0310417
1138.816 .0311047
1139.435 .0311739
1140.054 .0312490
1140.674 .0313420
1141.294 .0314396
1141.916 .0315615
1142.538 .0316411
1143.160 .0318250
1143.784 .0321975
1144.408 .0319879
1145.033 .0324242
