Measurement Sequence started on: 14-45-04-498
Integration time: 36
Scans to Average: 2 
>>>>>Begin Spectral Data<<<<<
433.946 .0549360
434.870 .0464221
435.793 .0456775
436.715 .0420764
437.635 .0425223
438.555 .0440665
439.473 .0436889
440.389 .0437235
441.305 .0438464
442.219 .0440582
443.132 .0442245
444.044 .0443494
444.954 .0444455
445.863 .0445556
446.771 .0446378
447.678 .0447233
448.584 .0447876
449.488 .0448483
450.391 .0448870
451.293 .0448911
452.194 .0448604
453.094 .0448005
453.992 .0447115
454.890 .0446099
455.786 .0445058
456.681 .0444025
457.575 .0443047
458.468 .0442139
459.360 .0441167
460.250 .0440160
461.140 .0439069
462.028 .0437969
462.915 .0436777
463.801 .0435607
464.687 .0434349
465.571 .0433140
466.454 .0432065
467.335 .0431063
468.216 .0430086
469.096 .0429145
469.975 .0428199
470.853 .0427258
471.729 .0426240
472.605 .0425240
473.479 .0424321
474.353 .0423487
475.226 .0422750
476.097 .0422098
476.968 .0421536
477.838 .0421027
478.706 .0420545
479.574 .0420120
480.441 .0419731
481.306 .0419393
482.171 .0419113
483.035 .0418886
483.898 .0418772
484.760 .0418757
485.621 .0418771
486.481 .0418839
487.340 .0418919
488.198 .0418950
489.055 .0418981
489.912 .0418971
490.767 .0418969
491.622 .0418955
492.476 .0418986
493.329 .0419029
494.180 .0419089
495.032 .0419150
495.882 .0419162
496.731 .0419148
497.580 .0419125
498.427 .0418984
499.274 .0418753
500.120 .0418460
500.965 .0418131
501.809 .0417764
502.653 .0417372
503.495 .0416922
504.337 .0416496
505.178 .0415975
506.018 .0415336
506.858 .0414543
507.696 .0413647
508.534 .0412628
509.371 .0411498
510.208 .0410310
511.043 .0409111
511.878 .0407962
512.712 .0406913
513.545 .0405892
514.377 .0404986
515.209 .0404136
516.040 .0403330
516.870 .0402594
517.699 .0401911
518.528 .0401244
519.356 .0400711
520.183 .0400366
521.010 .0400188
521.836 .0400180
522.661 .0400315
523.485 .0400558
524.309 .0400882
525.132 .0401184
525.954 .0401375
526.776 .0401501
527.597 .0401588
528.417 .0401527
529.237 .0401377
530.056 .0401157
530.874 .0400828
531.692 .0400445
532.508 .0399902
533.325 .0399192
534.140 .0398280
534.955 .0397194
535.770 .0395873
536.583 .0394400
537.397 .0392868
538.209 .0391235
539.021 .0389614
539.832 .0387997
540.643 .0386380
541.453 .0384900
542.262 .0383561
543.071 .0382418
543.879 .0381412
544.687 .0380606
545.494 .0379923
546.300 .0379394
547.106 .0379055
547.911 .0378766
548.716 .0378578
549.520 .0378441
550.323 .0378279
551.126 .0378119
551.929 .0378015
552.731 .0377925
553.532 .0377814
554.332 .0377720
555.133 .0377603
555.932 .0377441
556.731 .0377214
557.530 .0376887
558.328 .0376473
559.125 .0376028
559.922 .0375562
560.719 .0375081
561.515 .0374738
562.310 .0374545
563.105 .0374503
563.899 .0374594
564.693 .0374774
565.487 .0374971
566.280 .0375091
567.072 .0375105
567.864 .0374971
568.655 .0374680
569.446 .0374281
570.236 .0373795
571.026 .0373306
571.816 .0372836
572.605 .0372397
573.393 .0372006
574.181 .0371664
574.969 .0371317
575.756 .0370946
576.543 .0370542
577.329 .0370101
578.115 .0369603
578.900 .0369044
579.685 .0368461
580.469 .0367886
581.253 .0367346
582.036 .0366844
582.820 .0366383
583.602 .0365969
584.384 .0365589
585.166 .0365240
585.947 .0364929
586.728 .0364614
587.509 .0364310
588.289 .0364002
589.069 .0363692
589.848 .0363385
590.627 .0363090
591.405 .0362805
592.183 .0362538
592.961 .0362292
593.738 .0362067
594.515 .0361845
595.291 .0361640
596.067 .0361442
596.843 .0361230
597.618 .0361016
598.393 .0360777
599.167 .0360522
599.941 .0360258
600.715 .0359990
601.488 .0359716
602.261 .0359442
603.034 .0359158
603.806 .0358864
604.578 .0358551
605.349 .0358238
606.121 .0357909
606.891 .0357584
607.662 .0357261
608.432 .0356956
609.201 .0356659
609.971 .0356384
610.740 .0356113
611.508 .0355861
612.277 .0355610
613.045 .0355360
613.812 .0355103
614.579 .0354845
615.346 .0354575
616.113 .0354304
616.879 .0354027
617.645 .0353760
618.411 .0353497
619.176 .0353250
619.941 .0353011
620.705 .0352786
621.470 .0352562
622.233 .0352339
622.997 .0352107
623.760 .0351867
624.523 .0351608
625.286 .0351340
626.048 .0351063
626.810 .0350777
627.572 .0350490
628.333 .0350219
629.095 .0349958
629.855 .0349712
630.616 .0349474
631.376 .0349238
632.136 .0348996
632.895 .0348746
633.655 .0348489
634.414 .0348228
635.172 .0347971
635.931 .0347726
636.689 .0347494
637.447 .0347285
638.204 .0347089
638.962 .0346909
639.718 .0346738
640.475 .0346570
641.231 .0346380
641.988 .0346167
642.743 .0345939
643.499 .0345687
644.254 .0345412
645.009 .0345126
645.764 .0344834
646.518 .0344538
647.272 .0344244
648.026 .0343952
648.780 .0343662
649.533 .0343380
650.286 .0343100
651.039 .0342815
651.792 .0342522
652.544 .0342229
653.296 .0341929
654.048 .0341638
654.799 .0341362
655.550 .0341088
656.301 .0340836
657.052 .0340599
657.802 .0340377
658.552 .0340165
659.302 .0339969
660.052 .0339778
660.801 .0339586
661.550 .0339399
662.299 .0339211
663.048 .0339027
663.796 .0338855
664.544 .0338696
665.292 .0338549
666.040 .0338416
666.787 .0338294
667.534 .0338180
668.281 .0338080
669.028 .0337985
669.774 .0337894
670.521 .0337808
671.266 .0337725
672.012 .0337646
672.758 .0337567
673.503 .0337494
674.248 .0337421
674.992 .0337346
675.737 .0337265
676.481 .0337178
677.225 .0337080
677.969 .0336968
678.712 .0336843
679.455 .0336706
680.199 .0336560
680.941 .0336405
681.684 .0336253
682.426 .0336101
683.168 .0335953
683.910 .0335801
684.652 .0335640
685.393 .0335467
686.134 .0335278
686.875 .0335063
687.616 .0334830
688.356 .0334583
689.097 .0334331
689.837 .0334075
690.576 .0333822
691.316 .0333577
692.055 .0333344
692.794 .0333118
693.533 .0332898
694.272 .0332677
695.010 .0332465
695.748 .0332250
696.486 .0332037
697.224 .0331832
697.962 .0331637
698.699 .0331452
699.436 .0331281
700.173 .0331121
700.909 .0330966
701.646 .0330815
702.382 .0330668
703.118 .0330515
703.853 .0330360
704.589 .0330193
705.324 .0330020
706.059 .0329845
706.794 .0329663
707.529 .0329472
708.263 .0329279
708.997 .0329086
709.731 .0328885
710.465 .0328678
711.198 .0328468
711.931 .0328254
712.664 .0328035
713.397 .0327818
714.130 .0327602
714.862 .0327397
715.594 .0327207
716.326 .0327029
717.058 .0326873
717.789 .0326737
718.520 .0326615
719.251 .0326506
719.982 .0326406
720.713 .0326310
721.443 .0326214
722.173 .0326121
722.903 .0326032
723.633 .0325946
724.362 .0325867
725.091 .0325789
725.820 .0325703
726.549 .0325607
727.278 .0325495
728.006 .0325366
728.734 .0325221
729.462 .0325055
730.190 .0324873
730.917 .0324684
731.644 .0324492
732.371 .0324306
733.098 .0324128
733.825 .0323955
734.551 .0323783
735.277 .0323608
736.003 .0323431
736.728 .0323249
737.454 .0323068
738.179 .0322892
738.904 .0322723
739.629 .0322559
740.353 .0322403
741.077 .0322257
741.801 .0322129
742.525 .0322006
743.249 .0321885
743.972 .0321763
744.695 .0321633
745.418 .0321500
746.141 .0321357
746.863 .0321208
747.585 .0321057
748.307 .0320897
749.029 .0320731
749.750 .0320559
750.472 .0320388
751.193 .0320209
751.913 .0320023
752.634 .0319834
753.354 .0319633
754.074 .0319419
754.794 .0319198
755.514 .0318966
756.233 .0318730
756.952 .0318488
757.671 .0318243
758.390 .0317997
759.108 .0317758
759.826 .0317527
760.544 .0317305
761.262 .0317098
761.979 .0316904
762.697 .0316719
763.414 .0316546
764.130 .0316381
764.847 .0316221
765.563 .0316065
766.279 .0315909
766.995 .0315753
767.710 .0315596
768.426 .0315433
769.141 .0315266
769.855 .0315089
770.570 .0314908
771.284 .0314725
771.998 .0314537
772.712 .0314350
773.426 .0314165
774.139 .0313986
774.852 .0313808
775.565 .0313635
776.277 .0313471
776.990 .0313313
777.702 .0313165
778.414 .0313022
779.125 .0312884
779.836 .0312752
780.547 .0312625
781.258 .0312499
781.969 .0312380
782.679 .0312269
783.389 .0312161
784.099 .0312061
784.808 .0311968
785.517 .0311883
786.226 .0311804
786.935 .0311727
787.643 .0311654
788.352 .0311579
789.060 .0311506
789.767 .0311433
790.475 .0311358
791.182 .0311290
791.889 .0311227
792.595 .0311168
793.301 .0311118
794.008 .0311070
794.713 .0311022
795.419 .0310966
796.124 .0310903
796.829 .0310829
797.534 .0310739
798.238 .0310636
798.942 .0310524
799.646 .0310403
800.350 .0310273
801.053 .0310132
801.756 .0309977
802.459 .0309812
803.162 .0309633
803.864 .0309439
804.566 .0309238
805.267 .0309031
805.969 .0308825
806.670 .0308618
807.371 .0308420
808.071 .0308230
808.772 .0308040
809.472 .0307854
810.171 .0307662
810.871 .0307465
811.570 .0307253
812.269 .0307033
812.967 .0306803
813.666 .0306566
814.364 .0306324
815.061 .0306080
815.759 .0305847
816.456 .0305621
817.153 .0305404
817.849 .0305190
818.545 .0304982
819.241 .0304779
819.937 .0304570
820.632 .0304360
821.327 .0304145
822.022 .0303926
822.717 .0303706
823.411 .0303488
824.105 .0303274
824.798 .0303063
825.491 .0302858
826.184 .0302658
826.877 .0302460
827.569 .0302259
828.261 .0302052
828.953 .0301837
829.645 .0301609
830.336 .0301368
831.027 .0301112
831.717 .0300847
832.407 .0300580
833.097 .0300312
833.787 .0300054
834.476 .0299811
835.165 .0299589
835.854 .0299391
836.542 .0299219
837.230 .0299068
837.918 .0298930
838.605 .0298803
839.292 .0298680
839.979 .0298560
840.665 .0298440
841.352 .0298326
842.037 .0298218
842.723 .0298119
843.408 .0298037
844.093 .0297961
844.777 .0297894
845.462 .0297825
846.145 .0297749
846.829 .0297658
847.512 .0297547
848.195 .0297419
848.878 .0297275
849.560 .0297130
850.242 .0296987
850.923 .0296848
851.605 .0296724
852.286 .0296615
852.966 .0296517
853.646 .0296428
854.326 .0296346
855.006 .0296259
855.685 .0296167
856.364 .0296067
857.043 .0295958
857.721 .0295843
858.399 .0295727
859.077 .0295615
859.754 .0295506
860.431 .0295404
861.107 .0295302
861.784 .0295202
862.459 .0295106
863.135 .0295000
863.810 .0294888
864.485 .0294773
865.160 .0294659
865.834 .0294550
866.508 .0294450
867.181 .0294367
867.854 .0294304
868.527 .0294254
869.199 .0294208
869.872 .0294163
870.543 .0294116
871.215 .0294058
871.886 .0293988
872.557 .0293903
873.227 .0293804
873.897 .0293696
874.567 .0293577
875.236 .0293446
875.905 .0293302
876.573 .0293144
877.242 .0292967
877.909 .0292770
878.577 .0292554
879.244 .0292319
879.911 .0292076
880.577 .0291835
881.243 .0291594
881.909 .0291362
882.575 .0291141
883.240 .0290934
883.904 .0290741
884.569 .0290553
885.232 .0290367
885.896 .0290180
886.559 .0290000
887.222 .0289822
887.885 .0289647
888.547 .0289479
889.208 .0289322
889.870 .0289174
890.531 .0289035
891.192 .0288901
891.852 .0288776
892.512 .0288654
893.171 .0288527
893.830 .0288395
894.489 .0288254
895.148 .0288102
895.806 .0287944
896.464 .0287783
897.121 .0287621
897.778 .0287450
898.434 .0287282
899.091 .0287109
899.747 .0286930
900.402 .0286743
901.057 .0286541
901.712 .0286323
902.366 .0286093
903.020 .0285848
903.674 .0285592
904.327 .0285335
904.980 .0285080
905.633 .0284828
906.285 .0284584
906.936 .0284347
907.588 .0284111
908.239 .0283877
908.889 .0283647
909.540 .0283411
910.190 .0283174
910.839 .0282941
911.488 .0282713
912.137 .0282495
912.785 .0282288
913.433 .0282097
914.081 .0281914
914.728 .0281745
915.375 .0281576
916.021 .0281404
916.668 .0281235
917.313 .0281061
917.959 .0280885
918.604 .0280711
919.248 .0280546
919.892 .0280387
920.536 .0280234
921.180 .0280092
921.823 .0279951
922.465 .0279814
923.108 .0279674
923.750 .0279536
924.391 .0279400
925.032 .0279266
925.673 .0279131
926.313 .0279004
926.953 .0278891
927.593 .0278781
928.232 .0278676
928.871 .0278579
929.510 .0278484
930.148 .0278384
930.786 .0278277
931.423 .0278167
932.060 .0278053
932.697 .0277939
933.333 .0277817
933.969 .0277695
934.604 .0277577
935.239 .0277453
935.874 .0277330
936.508 .0277211
937.142 .0277094
937.776 .0276973
938.409 .0276858
939.042 .0276748
939.674 .0276645
940.306 .0276552
940.938 .0276464
941.569 .0276387
942.200 .0276317
942.830 .0276248
943.460 .0276179
944.090 .0276110
944.720 .0276038
945.349 .0275958
945.977 .0275871
946.606 .0275777
947.233 .0275667
947.861 .0275541
948.488 .0275402
949.115 .0275245
949.741 .0275072
950.367 .0274889
950.993 .0274699
951.618 .0274517
952.243 .0274344
952.868 .0274185
953.492 .0274040
954.115 .0273911
954.739 .0273796
955.362 .0273675
955.984 .0273555
956.607 .0273436
957.229 .0273321
957.850 .0273217
958.471 .0273125
959.092 .0273051
959.713 .0272997
960.333 .0272951
960.952 .0272907
961.572 .0272857
962.191 .0272795
962.809 .0272712
963.428 .0272605
964.045 .0272483
964.663 .0272343
965.280 .0272191
965.897 .0272045
966.513 .0271898
967.129 .0271752
967.745 .0271606
968.361 .0271460
968.976 .0271317
969.590 .0271170
970.205 .0271019
970.818 .0270866
971.432 .0270716
972.045 .0270564
972.658 .0270413
973.271 .0270269
973.883 .0270131
974.495 .0269992
975.106 .0269854
975.717 .0269721
976.328 .0269588
976.938 .0269463
977.548 .0269340
978.158 .0269222
978.768 .0269112
979.377 .0269002
979.985 .0268895
980.594 .0268791
981.202 .0268696
981.809 .0268599
982.417 .0268499
983.024 .0268401
983.631 .0268304
984.237 .0268210
984.843 .0268120
985.449 .0268030
986.054 .0267939
986.659 .0267842
987.264 .0267738
987.868 .0267625
988.472 .0267503
989.076 .0267369
989.679 .0267222
990.282 .0267063
990.885 .0266901
991.487 .0266733
992.090 .0266567
992.691 .0266406
993.293 .0266251
993.894 .0266092
994.495 .0265928
995.095 .0265760
995.696 .0265585
996.296 .0265402
996.895 .0265218
997.494 .0265031
998.093 .0264852
998.692 .0264682
999.291 .0264532
999.889 .0264397
1000.487 .0264282
1001.084 .0264174
1001.681 .0264077
1002.278 .0263977
1002.875 .0263878
1003.471 .0263767
1004.067 .0263655
1004.663 .0263543
1005.258 .0263429
1005.854 .0263312
1006.449 .0263207
1007.043 .0263107
1007.638 .0263016
1008.232 .0262926
1008.826 .0262837
1009.419 .0262739
1010.012 .0262645
1010.605 .0262538
1011.198 .0262417
1011.791 .0262278
1012.383 .0262129
1012.975 .0261966
1013.566 .0261803
1014.158 .0261643
1014.749 .0261489
1015.340 .0261355
1015.931 .0261239
1016.521 .0261133
1017.111 .0261051
1017.701 .0260986
1018.291 .0260941
1018.880 .0260906
1019.470 .0260875
1020.059 .0260847
1020.647 .0260832
1021.236 .0260828
1021.824 .0260840
1022.412 .0260871
1023.000 .0260917
1023.588 .0260971
1024.175 .0261032
1024.762 .0261094
1025.349 .0261148
1025.936 .0261192
1026.523 .0261216
1027.109 .0261215
1027.695 .0261196
1028.281 .0261161
1028.867 .0261125
1029.452 .0261102
1030.038 .0261082
1030.623 .0261064
1031.208 .0261042
1031.792 .0261009
1032.377 .0260961
1032.961 .0260899
1033.546 .0260822
1034.130 .0260744
1034.714 .0260668
1035.297 .0260614
1035.881 .0260589
1036.464 .0260612
1037.047 .0260668
1037.630 .0260761
1038.213 .0260872
1038.796 .0260983
1039.378 .0261086
1039.961 .0261193
1040.543 .0261296
1041.125 .0261413
1041.707 .0261537
1042.289 .0261675
1042.871 .0261829
1043.452 .0261998
1044.034 .0262165
1044.615 .0262324
1045.196 .0262474
1045.777 .0262605
1046.358 .0262714
1046.939 .0262819
1047.520 .0262919
1048.101 .0263024
1048.681 .0263143
1049.262 .0263257
1049.842 .0263363
1050.422 .0263443
1051.002 .0263496
1051.582 .0263527
1052.162 .0263545
1052.742 .0263547
1053.322 .0263549
1053.902 .0263563
1054.482 .0263590
1055.061 .0263614
1055.641 .0263655
1056.220 .0263687
1056.800 .0263708
1057.379 .0263707
1057.958 .0263673
1058.538 .0263614
1059.117 .0263561
1059.696 .0263514
1060.275 .0263488
1060.854 .0263488
1061.433 .0263530
1062.012 .0263591
1062.592 .0263684
1063.171 .0263786
1063.750 .0263878
1064.329 .0263956
1064.908 .0264015
1065.487 .0264021
1066.066 .0264007
1066.645 .0263975
1067.224 .0263935
1067.803 .0263897
1068.382 .0263856
1068.961 .0263811
1069.540 .0263771
1070.119 .0263752
1070.698 .0263738
1071.278 .0263741
1071.857 .0263780
1072.436 .0263828
1073.016 .0263907
1073.595 .0264004
1074.175 .0264129
1074.754 .0264275
1075.334 .0264433
1075.913 .0264589
1076.493 .0264721
1077.073 .0264849
1077.653 .0264958
1078.233 .0265066
1078.813 .0265166
1079.393 .0265243
1079.974 .0265290
1080.554 .0265294
1081.135 .0265231
1081.716 .0265092
1082.296 .0264880
1082.877 .0264599
1083.458 .0264267
1084.040 .0263911
1084.621 .0263556
1085.202 .0263263
1085.784 .0263043
1086.366 .0262906
1086.948 .0262813
1087.530 .0262775
1088.112 .0262746
1088.695 .0262718
1089.277 .0262680
1089.860 .0262627
1090.443 .0262577
1091.026 .0262551
1091.610 .0262551
1092.193 .0262605
1092.777 .0262728
1093.361 .0262918
1093.946 .0263107
1094.530 .0263299
1095.115 .0263435
1095.700 .0263509
1096.285 .0263528
1096.871 .0263504
1097.456 .0263451
1098.042 .0263397
1098.628 .0263348
1099.215 .0263309
1099.802 .0263301
1100.389 .0263324
1100.976 .0263332
1101.564 .0263331
1102.152 .0263307
1102.740 .0263240
1103.329 .0263147
1103.917 .0263055
1104.507 .0262920
1105.096 .0262753
1105.686 .0262555
1106.276 .0262297
1106.867 .0261982
1107.457 .0261612
1108.049 .0261232
1108.640 .0260840
1109.232 .0260467
1109.825 .0260108
1110.417 .0259791
1111.010 .0259550
1111.604 .0259349
1112.198 .0259154
1112.792 .0258976
1113.387 .0258804
1113.982 .0258627
1114.577 .0258481
1115.173 .0258430
1115.769 .0258467
1116.366 .0258665
1116.963 .0259022
1117.561 .0259539
1118.159 .0260137
1118.758 .0260805
1119.357 .0261448
1119.957 .0262043
1120.557 .0262562
1121.157 .0262972
1121.758 .0263326
1122.360 .0263698
1122.962 .0264069
1123.564 .0264494
1124.167 .0265017
1124.771 .0265661
1125.375 .0266370
1125.980 .0267139
1126.585 .0267860
1127.191 .0268503
1127.797 .0269052
1128.404 .0269501
1129.012 .0269839
1129.620 .0270190
1130.229 .0270541
1130.838 .0270932
1131.448 .0271389
1132.058 .0271922
1132.669 .0272525
1133.281 .0273138
1133.894 .0273695
1134.507 .0274130
1135.120 .0274379
1135.735 .0274478
1136.350 .0274398
1136.965 .0274243
1137.582 .0274060
1138.199 .0273878
1138.816 .0273704
1139.435 .0273553
1140.054 .0273447
1140.674 .0273357
1141.294 .0273283
1141.916 .0273195
1142.538 .0272734
1143.160 .0272090
1143.784 .0272384
1144.408 .0273176
1145.033 .0272643
