Measurement Sequence started on: 14-45-04-498
Integration time: 36
Scans to Average: 2 
>>>>>Begin Spectral Data<<<<<
433.946 .0599783
434.870 .0544229
435.793 .0516357
436.715 .0513876
437.635 .0504460
438.555 .0504552
439.473 .0496077
440.389 .0489975
441.305 .0485029
442.219 .0480414
443.132 .0476335
444.044 .0472696
444.954 .0469570
445.863 .0466835
446.771 .0464413
447.678 .0462246
448.584 .0460403
449.488 .0458699
450.391 .0457319
451.293 .0456198
452.194 .0455417
453.094 .0454979
453.992 .0454770
454.890 .0454712
455.786 .0454752
456.681 .0454764
457.575 .0454756
458.468 .0454712
459.360 .0454693
460.250 .0454700
461.140 .0454705
462.028 .0454739
462.915 .0454752
463.801 .0454673
464.687 .0454493
465.571 .0454210
466.454 .0453800
467.335 .0453313
468.216 .0452765
469.096 .0452219
469.975 .0451736
470.853 .0451267
471.729 .0450811
472.605 .0450346
473.479 .0449812
474.353 .0449176
475.226 .0448403
476.097 .0447583
476.968 .0446713
477.838 .0445831
478.706 .0444989
479.574 .0444198
480.441 .0443478
481.306 .0442811
482.171 .0442151
483.035 .0441518
483.898 .0440875
484.760 .0440212
485.621 .0439561
486.481 .0438952
487.340 .0438385
488.198 .0437900
489.055 .0437503
489.912 .0437211
490.767 .0436946
491.622 .0436708
492.476 .0436489
493.329 .0436287
494.180 .0436081
495.032 .0435877
495.882 .0435687
496.731 .0435501
497.580 .0435312
498.427 .0435137
499.274 .0434915
500.120 .0434697
500.965 .0434416
501.809 .0434104
502.653 .0433711
503.495 .0433274
504.337 .0432763
505.178 .0432235
506.018 .0431680
506.858 .0431057
507.696 .0430369
508.534 .0429660
509.371 .0428870
510.208 .0428031
511.043 .0427172
511.878 .0426305
512.712 .0425428
513.545 .0424594
514.377 .0423787
515.209 .0423078
516.040 .0422453
516.870 .0422006
517.699 .0421713
518.528 .0421611
519.356 .0421697
520.183 .0421978
521.010 .0422494
521.836 .0423171
522.661 .0423972
523.485 .0424876
524.309 .0425798
525.132 .0426661
525.954 .0427381
526.776 .0427962
527.597 .0428437
528.417 .0428707
529.237 .0428754
530.056 .0428579
530.874 .0428157
531.692 .0427515
532.508 .0426640
533.325 .0425572
534.140 .0424374
534.955 .0423017
535.770 .0421623
536.583 .0420154
537.397 .0418742
538.209 .0417407
539.021 .0416185
539.832 .0415091
540.643 .0414123
541.453 .0413287
542.262 .0412668
543.071 .0412223
543.879 .0411922
544.687 .0411687
545.494 .0411480
546.300 .0411264
547.106 .0410921
547.911 .0410458
548.716 .0409941
549.520 .0409265
550.323 .0408556
551.126 .0407791
551.929 .0407022
552.731 .0406301
553.532 .0405604
554.332 .0404947
555.133 .0404287
555.932 .0403606
556.731 .0402886
557.530 .0402119
558.328 .0401417
559.125 .0400733
559.922 .0400083
560.719 .0399552
561.515 .0399127
562.310 .0398793
563.105 .0398572
563.899 .0398392
564.693 .0398231
565.487 .0398052
566.280 .0397807
567.072 .0397512
567.864 .0397157
568.655 .0396767
569.446 .0396342
570.236 .0395907
571.026 .0395505
571.816 .0395114
572.605 .0394779
573.393 .0394512
574.181 .0394280
574.969 .0394079
575.756 .0393869
576.543 .0393662
577.329 .0393447
578.115 .0393192
578.900 .0392912
579.685 .0392601
580.469 .0392290
581.253 .0391979
582.036 .0391657
582.820 .0391328
583.602 .0391014
584.384 .0390689
585.166 .0390329
585.947 .0389936
586.728 .0389516
587.509 .0389069
588.289 .0388611
589.069 .0388149
589.848 .0387702
590.627 .0387294
591.405 .0386932
592.183 .0386604
592.961 .0386331
593.738 .0386092
594.515 .0385866
595.291 .0385652
596.067 .0385445
596.843 .0385222
597.618 .0384991
598.393 .0384759
599.167 .0384516
599.941 .0384261
600.715 .0384011
601.488 .0383760
602.261 .0383518
603.034 .0383288
603.806 .0383055
604.578 .0382833
605.349 .0382622
606.121 .0382408
606.891 .0382183
607.662 .0381959
608.432 .0381735
609.201 .0381512
609.971 .0381301
610.740 .0381101
611.508 .0380911
612.277 .0380745
613.045 .0380588
613.812 .0380444
614.579 .0380305
615.346 .0380172
616.113 .0380036
616.879 .0379906
617.645 .0379776
618.411 .0379652
619.176 .0379532
619.941 .0379425
620.705 .0379313
621.470 .0379199
622.233 .0379079
622.997 .0378951
623.760 .0378812
624.523 .0378666
625.286 .0378502
626.048 .0378336
626.810 .0378160
627.572 .0377980
628.333 .0377790
629.095 .0377588
629.855 .0377373
630.616 .0377136
631.376 .0376886
632.136 .0376622
632.895 .0376353
633.655 .0376092
634.414 .0375833
635.172 .0375582
635.931 .0375338
636.689 .0375094
637.447 .0374854
638.204 .0374609
638.962 .0374361
639.718 .0374103
640.475 .0373838
641.231 .0373569
641.988 .0373289
642.743 .0373007
643.499 .0372721
644.254 .0372426
645.009 .0372130
645.764 .0371826
646.518 .0371524
647.272 .0371228
648.026 .0370944
648.780 .0370668
649.533 .0370408
650.286 .0370166
651.039 .0369940
651.792 .0369728
652.544 .0369533
653.296 .0369348
654.048 .0369171
654.799 .0369004
655.550 .0368840
656.301 .0368680
657.052 .0368528
657.802 .0368376
658.552 .0368225
659.302 .0368063
660.052 .0367888
660.801 .0367696
661.550 .0367493
662.299 .0367281
663.048 .0367059
663.796 .0366839
664.544 .0366625
665.292 .0366415
666.040 .0366209
666.787 .0366003
667.534 .0365796
668.281 .0365580
669.028 .0365356
669.774 .0365121
670.521 .0364882
671.266 .0364647
672.012 .0364424
672.758 .0364221
673.503 .0364036
674.248 .0363868
674.992 .0363712
675.737 .0363564
676.481 .0363420
677.225 .0363274
677.969 .0363125
678.712 .0362977
679.455 .0362832
680.199 .0362691
680.941 .0362550
681.684 .0362411
682.426 .0362264
683.168 .0362106
683.910 .0361934
684.652 .0361742
685.393 .0361536
686.134 .0361322
686.875 .0361106
687.616 .0360889
688.356 .0360676
689.097 .0360468
689.837 .0360256
690.576 .0360040
691.316 .0359819
692.055 .0359594
692.794 .0359370
693.533 .0359156
694.272 .0358954
695.010 .0358775
695.748 .0358619
696.486 .0358482
697.224 .0358368
697.962 .0358264
698.699 .0358164
699.436 .0358060
700.173 .0357950
700.909 .0357830
701.646 .0357702
702.382 .0357572
703.118 .0357437
703.853 .0357305
704.589 .0357170
705.324 .0357031
706.059 .0356893
706.794 .0356747
707.529 .0356597
708.263 .0356441
708.997 .0356281
709.731 .0356112
710.465 .0355943
711.198 .0355771
711.931 .0355596
712.664 .0355424
713.397 .0355251
714.130 .0355070
714.862 .0354890
715.594 .0354708
716.326 .0354523
717.058 .0354342
717.789 .0354167
718.520 .0353994
719.251 .0353831
719.982 .0353676
720.713 .0353526
721.443 .0353385
722.173 .0353247
722.903 .0353106
723.633 .0352961
724.362 .0352815
725.091 .0352657
725.820 .0352495
726.549 .0352335
727.278 .0352168
728.006 .0352005
728.734 .0351842
729.462 .0351674
730.190 .0351509
730.917 .0351339
731.644 .0351161
732.371 .0350975
733.098 .0350788
733.825 .0350594
734.551 .0350400
735.277 .0350215
736.003 .0350034
736.728 .0349863
737.454 .0349707
738.179 .0349562
738.904 .0349429
739.629 .0349309
740.353 .0349195
741.077 .0349090
741.801 .0348998
742.525 .0348908
743.249 .0348823
743.972 .0348744
744.695 .0348669
745.418 .0348589
746.141 .0348501
746.863 .0348406
747.585 .0348301
748.307 .0348185
749.029 .0348052
749.750 .0347904
750.472 .0347749
751.193 .0347582
751.913 .0347403
752.634 .0347217
753.354 .0347025
754.074 .0346824
754.794 .0346618
755.514 .0346410
756.233 .0346200
756.952 .0345991
757.671 .0345787
758.390 .0345591
759.108 .0345405
759.826 .0345232
760.544 .0345075
761.262 .0344938
761.979 .0344820
762.697 .0344713
763.414 .0344619
764.130 .0344539
764.847 .0344464
765.563 .0344392
766.279 .0344321
766.995 .0344250
767.710 .0344174
768.426 .0344094
769.141 .0344011
769.855 .0343925
770.570 .0343833
771.284 .0343736
771.998 .0343631
772.712 .0343521
773.426 .0343407
774.139 .0343287
774.852 .0343167
775.565 .0343041
776.277 .0342911
776.990 .0342780
777.702 .0342643
778.414 .0342508
779.125 .0342372
779.836 .0342242
780.547 .0342118
781.258 .0341999
781.969 .0341891
782.679 .0341793
783.389 .0341705
784.099 .0341618
784.808 .0341530
785.517 .0341442
786.226 .0341352
786.935 .0341257
787.643 .0341163
788.352 .0341074
789.060 .0340987
789.767 .0340907
790.475 .0340826
791.182 .0340747
791.889 .0340663
792.595 .0340567
793.301 .0340458
794.008 .0340335
794.713 .0340200
795.419 .0340051
796.124 .0339897
796.829 .0339739
797.534 .0339578
798.238 .0339421
798.942 .0339271
799.646 .0339128
800.350 .0338991
801.053 .0338860
801.756 .0338731
802.459 .0338607
803.162 .0338480
803.864 .0338353
804.566 .0338230
805.267 .0338108
805.969 .0337987
806.670 .0337873
807.371 .0337771
808.071 .0337680
808.772 .0337599
809.472 .0337524
810.171 .0337447
810.871 .0337372
811.570 .0337286
812.269 .0337194
812.967 .0337098
813.666 .0336997
814.364 .0336895
815.061 .0336797
815.759 .0336705
816.456 .0336612
817.153 .0336524
817.849 .0336432
818.545 .0336333
819.241 .0336223
819.937 .0336101
820.632 .0335967
821.327 .0335822
822.022 .0335668
822.717 .0335502
823.411 .0335337
824.105 .0335168
824.798 .0334996
825.491 .0334822
826.184 .0334645
826.877 .0334473
827.569 .0334303
828.261 .0334138
828.953 .0333976
829.645 .0333816
830.336 .0333660
831.027 .0333503
831.717 .0333349
832.407 .0333198
833.097 .0333052
833.787 .0332905
834.476 .0332759
835.165 .0332612
835.854 .0332469
836.542 .0332326
837.230 .0332185
837.918 .0332046
838.605 .0331904
839.292 .0331766
839.979 .0331623
840.665 .0331481
841.352 .0331341
842.037 .0331194
842.723 .0331047
843.408 .0330896
844.093 .0330742
844.777 .0330588
845.462 .0330438
846.145 .0330293
846.829 .0330151
847.512 .0330007
848.195 .0329861
848.878 .0329709
849.560 .0329554
850.242 .0329390
850.923 .0329214
851.605 .0329041
852.286 .0328863
852.966 .0328686
853.646 .0328516
854.326 .0328351
855.006 .0328200
855.685 .0328055
856.364 .0327912
857.043 .0327767
857.721 .0327620
858.399 .0327466
859.077 .0327302
859.754 .0327126
860.431 .0326941
861.107 .0326748
861.784 .0326552
862.459 .0326355
863.135 .0326162
863.810 .0325978
864.485 .0325796
865.160 .0325625
865.834 .0325460
866.508 .0325298
867.181 .0325144
867.854 .0324994
868.527 .0324849
869.199 .0324707
869.872 .0324568
870.543 .0324436
871.215 .0324314
871.886 .0324207
872.557 .0324105
873.227 .0324012
873.897 .0323924
874.567 .0323838
875.236 .0323748
875.905 .0323660
876.573 .0323571
877.242 .0323482
877.909 .0323393
878.577 .0323308
879.244 .0323221
879.911 .0323139
880.577 .0323055
881.243 .0322970
881.909 .0322882
882.575 .0322795
883.240 .0322701
883.904 .0322615
884.569 .0322536
885.232 .0322463
885.896 .0322392
886.559 .0322324
887.222 .0322250
887.885 .0322171
888.547 .0322084
889.208 .0321986
889.870 .0321877
890.531 .0321767
891.192 .0321649
891.852 .0321533
892.512 .0321422
893.171 .0321319
893.830 .0321222
894.489 .0321133
895.148 .0321044
895.806 .0320957
896.464 .0320868
897.121 .0320775
897.778 .0320678
898.434 .0320577
899.091 .0320469
899.747 .0320356
900.402 .0320237
901.057 .0320111
901.712 .0319979
902.366 .0319844
903.020 .0319702
903.674 .0319557
904.327 .0319409
904.980 .0319258
905.633 .0319102
906.285 .0318945
906.936 .0318785
907.588 .0318624
908.239 .0318463
908.889 .0318306
909.540 .0318155
910.190 .0318010
910.839 .0317872
911.488 .0317739
912.137 .0317612
912.785 .0317486
913.433 .0317363
914.081 .0317243
914.728 .0317123
915.375 .0317003
916.021 .0316874
916.668 .0316738
917.313 .0316595
917.959 .0316433
918.604 .0316258
919.248 .0316072
919.892 .0315879
920.536 .0315677
921.180 .0315474
921.823 .0315269
922.465 .0315062
923.108 .0314850
923.750 .0314629
924.391 .0314393
925.032 .0314148
925.673 .0313889
926.313 .0313622
926.953 .0313357
927.593 .0313094
928.232 .0312832
928.871 .0312582
929.510 .0312339
930.148 .0312101
930.786 .0311861
931.423 .0311623
932.060 .0311379
932.697 .0311127
933.333 .0310863
933.969 .0310589
934.604 .0310310
935.239 .0310028
935.874 .0309736
936.508 .0309447
937.142 .0309156
937.776 .0308872
938.409 .0308586
939.042 .0308305
939.674 .0308027
940.306 .0307754
940.938 .0307485
941.569 .0307228
942.200 .0306978
942.830 .0306737
943.460 .0306505
944.090 .0306285
944.720 .0306075
945.349 .0305874
945.977 .0305683
946.606 .0305507
947.233 .0305337
947.861 .0305170
948.488 .0304999
949.115 .0304833
949.741 .0304663
950.367 .0304485
950.993 .0304298
951.618 .0304101
952.243 .0303898
952.868 .0303692
953.492 .0303485
954.115 .0303285
954.739 .0303098
955.362 .0302921
955.984 .0302758
956.607 .0302612
957.229 .0302478
957.850 .0302355
958.471 .0302244
959.092 .0302136
959.713 .0302027
960.333 .0301915
960.952 .0301808
961.572 .0301706
962.191 .0301615
962.809 .0301527
963.428 .0301448
964.045 .0301376
964.663 .0301309
965.280 .0301242
965.897 .0301180
966.513 .0301118
967.129 .0301060
967.745 .0301000
968.361 .0300943
968.976 .0300889
969.590 .0300845
970.205 .0300803
970.818 .0300774
971.432 .0300751
972.045 .0300737
972.658 .0300735
973.271 .0300745
973.883 .0300760
974.495 .0300779
975.106 .0300794
975.717 .0300801
976.328 .0300795
976.938 .0300780
977.548 .0300751
978.158 .0300721
978.768 .0300686
979.377 .0300649
979.985 .0300611
980.594 .0300577
981.202 .0300538
981.809 .0300493
982.417 .0300439
983.024 .0300375
983.631 .0300305
984.237 .0300233
984.843 .0300161
985.449 .0300097
986.054 .0300043
986.659 .0300002
987.264 .0299971
987.868 .0299956
988.472 .0299957
989.076 .0299977
989.679 .0300016
990.282 .0300066
990.885 .0300129
991.487 .0300201
992.090 .0300277
992.691 .0300344
993.293 .0300397
993.894 .0300429
994.495 .0300439
995.095 .0300423
995.696 .0300384
996.296 .0300326
996.895 .0300255
997.494 .0300172
998.093 .0300078
998.692 .0299978
999.291 .0299870
999.889 .0299752
1000.487 .0299627
1001.084 .0299497
1001.681 .0299366
1002.278 .0299232
1002.875 .0299109
1003.471 .0299000
1004.067 .0298906
1004.663 .0298827
1005.258 .0298767
1005.854 .0298727
1006.449 .0298700
1007.043 .0298680
1007.638 .0298658
1008.232 .0298632
1008.826 .0298594
1009.419 .0298541
1010.012 .0298476
1010.605 .0298404
1011.198 .0298326
1011.791 .0298245
1012.383 .0298166
1012.975 .0298093
1013.566 .0298022
1014.158 .0297955
1014.749 .0297894
1015.340 .0297831
1015.931 .0297764
1016.521 .0297689
1017.111 .0297614
1017.701 .0297541
1018.291 .0297464
1018.880 .0297385
1019.470 .0297306
1020.059 .0297217
1020.647 .0297124
1021.236 .0297026
1021.824 .0296925
1022.412 .0296831
1023.000 .0296743
1023.588 .0296659
1024.175 .0296580
1024.762 .0296504
1025.349 .0296429
1025.936 .0296351
1026.523 .0296281
1027.109 .0296205
1027.695 .0296128
1028.281 .0296060
1028.867 .0295991
1029.452 .0295926
1030.038 .0295869
1030.623 .0295807
1031.208 .0295737
1031.792 .0295657
1032.377 .0295563
1032.961 .0295449
1033.546 .0295327
1034.130 .0295199
1034.714 .0295066
1035.297 .0294939
1035.881 .0294819
1036.464 .0294701
1037.047 .0294597
1037.630 .0294502
1038.213 .0294410
1038.796 .0294330
1039.378 .0294255
1039.961 .0294190
1040.543 .0294131
1041.125 .0294078
1041.707 .0294027
1042.289 .0293968
1042.871 .0293906
1043.452 .0293833
1044.034 .0293744
1044.615 .0293642
1045.196 .0293520
1045.777 .0293390
1046.358 .0293254
1046.939 .0293113
1047.520 .0292968
1048.101 .0292820
1048.681 .0292670
1049.262 .0292517
1049.842 .0292359
1050.422 .0292207
1051.002 .0292052
1051.582 .0291901
1052.162 .0291756
1052.742 .0291612
1053.322 .0291478
1053.902 .0291364
1054.482 .0291271
1055.061 .0291198
1055.641 .0291133
1056.220 .0291082
1056.800 .0291038
1057.379 .0290999
1057.958 .0290952
1058.538 .0290891
1059.117 .0290827
1059.696 .0290758
1060.275 .0290674
1060.854 .0290588
1061.433 .0290511
1062.012 .0290454
1062.592 .0290413
1063.171 .0290395
1063.750 .0290378
1064.329 .0290364
1064.908 .0290359
1065.487 .0290341
1066.066 .0290304
1066.645 .0290253
1067.224 .0290194
1067.803 .0290125
1068.382 .0290058
1068.961 .0289988
1069.540 .0289922
1070.119 .0289879
1070.698 .0289849
1071.278 .0289812
1071.857 .0289774
1072.436 .0289748
1073.016 .0289733
1073.595 .0289730
1074.175 .0289744
1074.754 .0289768
1075.334 .0289815
1075.913 .0289875
1076.493 .0289937
1077.073 .0289990
1077.653 .0290047
1078.233 .0290103
1078.813 .0290152
1079.393 .0290205
1079.974 .0290259
1080.554 .0290338
1081.135 .0290447
1081.716 .0290578
1082.296 .0290723
1082.877 .0290870
1083.458 .0291014
1084.040 .0291130
1084.621 .0291230
1085.202 .0291288
1085.784 .0291314
1086.366 .0291324
1086.948 .0291319
1087.530 .0291310
1088.112 .0291313
1088.695 .0291337
1089.277 .0291382
1089.860 .0291441
1090.443 .0291490
1091.026 .0291509
1091.610 .0291501
1092.193 .0291434
1092.777 .0291314
1093.361 .0291161
1093.946 .0291003
1094.530 .0290840
1095.115 .0290717
1095.700 .0290639
1096.285 .0290603
1096.871 .0290603
1097.456 .0290633
1098.042 .0290677
1098.628 .0290727
1099.215 .0290760
1099.802 .0290783
1100.389 .0290795
1100.976 .0290819
1101.564 .0290842
1102.152 .0290899
1102.740 .0290981
1103.329 .0291083
1103.917 .0291185
1104.507 .0291293
1105.096 .0291391
1105.686 .0291479
1106.276 .0291548
1106.867 .0291617
1107.457 .0291686
1108.049 .0291748
1108.640 .0291812
1109.232 .0291884
1109.825 .0291964
1110.417 .0292041
1111.010 .0292108
1111.604 .0292168
1112.198 .0292223
1112.792 .0292291
1113.387 .0292376
1113.982 .0292502
1114.577 .0292692
1115.173 .0292947
1115.769 .0293252
1116.366 .0293603
1116.963 .0293995
1117.561 .0294385
1118.159 .0294778
1118.758 .0295158
1119.357 .0295502
1119.957 .0295828
1120.557 .0296164
1121.157 .0296498
1121.758 .0296845
1122.360 .0297225
1122.962 .0297582
1123.564 .0297926
1124.167 .0298249
1124.771 .0298517
1125.375 .0298725
1125.980 .0298906
1126.585 .0299064
1127.191 .0299182
1127.797 .0299318
1128.404 .0299456
1129.012 .0299577
1129.620 .0299736
1130.229 .0299877
1130.838 .0300019
1131.448 .0300163
1132.058 .0300324
1132.669 .0300500
1133.281 .0300734
1133.894 .0301028
1134.507 .0301385
1135.120 .0301790
1135.735 .0302247
1136.350 .0302707
1136.965 .0303183
1137.582 .0303661
1138.199 .0304124
1138.816 .0304618
1139.435 .0305131
1140.054 .0305745
1140.674 .0306395
1141.294 .0306987
1141.916 .0307625
1142.538 .0308385
1143.160 .0311186
1143.784 .0309761
1144.408 .0307442
1145.033 .0309930
