Measurement Sequence started on: 14-45-04-498
Integration time: 36
Scans to Average: 2 
>>>>>Begin Spectral Data<<<<<
433.946 .0564423
434.870 .0519587
435.793 .0459350
436.715 .0458488
437.635 .0443154
438.555 .0455113
439.473 .0447641
440.389 .0443371
441.305 .0441625
442.219 .0440087
443.132 .0438991
444.044 .0437923
444.954 .0436880
445.863 .0436042
446.771 .0435063
447.678 .0434103
448.584 .0433246
449.488 .0432374
450.391 .0431403
451.293 .0430354
452.194 .0429246
453.094 .0428011
453.992 .0426513
454.890 .0424935
455.786 .0423243
456.681 .0421530
457.575 .0419825
458.468 .0418182
459.360 .0416720
460.250 .0415453
461.140 .0414154
462.028 .0412941
462.915 .0411669
463.801 .0410251
464.687 .0408683
465.571 .0407046
466.454 .0405453
467.335 .0403940
468.216 .0402513
469.096 .0401255
469.975 .0400132
470.853 .0399177
471.729 .0398257
472.605 .0397354
473.479 .0396447
474.353 .0395498
475.226 .0394536
476.097 .0393609
476.968 .0392745
477.838 .0391979
478.706 .0391305
479.574 .0390767
480.441 .0390318
481.306 .0389921
482.171 .0389607
483.035 .0389388
483.898 .0389231
484.760 .0389134
485.621 .0389082
486.481 .0389083
487.340 .0389124
488.198 .0389177
489.055 .0389177
489.912 .0389087
490.767 .0388952
491.622 .0388742
492.476 .0388452
493.329 .0388137
494.180 .0387805
495.032 .0387459
495.882 .0387068
496.731 .0386608
497.580 .0386036
498.427 .0385369
499.274 .0384576
500.120 .0383661
500.965 .0382653
501.809 .0381637
502.653 .0380631
503.495 .0379691
504.337 .0378888
505.178 .0378213
506.018 .0377627
506.858 .0377140
507.696 .0376674
508.534 .0376216
509.371 .0375740
510.208 .0375222
511.043 .0374660
511.878 .0374075
512.712 .0373475
513.545 .0372923
514.377 .0372435
515.209 .0372031
516.040 .0371686
516.870 .0371394
517.699 .0371095
518.528 .0370682
519.356 .0370159
520.183 .0369437
521.010 .0368510
521.836 .0367470
522.661 .0366244
523.485 .0364967
524.309 .0363757
525.132 .0362623
525.954 .0361669
526.776 .0360854
527.597 .0360188
528.417 .0359563
529.237 .0358952
530.056 .0358283
530.874 .0357523
531.692 .0356821
532.508 .0356197
533.325 .0355688
534.140 .0355384
534.955 .0355277
535.770 .0355388
536.583 .0355631
537.397 .0355954
538.209 .0356269
539.021 .0356481
539.832 .0356547
540.643 .0356443
541.453 .0356184
542.262 .0355860
543.071 .0355512
543.879 .0355199
544.687 .0354917
545.494 .0354715
546.300 .0354617
547.106 .0354594
547.911 .0354631
548.716 .0354705
549.520 .0354737
550.323 .0354758
551.126 .0354674
551.929 .0354523
552.731 .0354293
553.532 .0354024
554.332 .0353682
555.133 .0353284
555.932 .0352841
556.731 .0352385
557.530 .0351875
558.328 .0351402
559.125 .0350898
559.922 .0350431
560.719 .0349937
561.515 .0349455
562.310 .0348935
563.105 .0348429
563.899 .0347898
564.693 .0347390
565.487 .0346898
566.280 .0346479
567.072 .0346126
567.864 .0345868
568.655 .0345690
569.446 .0345621
570.236 .0345571
571.026 .0345577
571.816 .0345528
572.605 .0345438
573.393 .0345237
574.181 .0344980
574.969 .0344629
575.756 .0344226
576.543 .0343776
577.329 .0343303
578.115 .0342786
578.900 .0342268
579.685 .0341731
580.469 .0341197
581.253 .0340679
582.036 .0340197
582.820 .0339693
583.602 .0339236
584.384 .0338816
585.166 .0338448
585.947 .0338122
586.728 .0337835
587.509 .0337558
588.289 .0337300
589.069 .0337057
589.848 .0336826
590.627 .0336602
591.405 .0336412
592.183 .0336234
592.961 .0336067
593.738 .0335917
594.515 .0335777
595.291 .0335638
596.067 .0335497
596.843 .0335330
597.618 .0335139
598.393 .0334926
599.167 .0334690
599.941 .0334434
600.715 .0334175
601.488 .0333920
602.261 .0333670
603.034 .0333422
603.806 .0333192
604.578 .0332979
605.349 .0332793
606.121 .0332626
606.891 .0332477
607.662 .0332336
608.432 .0332197
609.201 .0332051
609.971 .0331891
610.740 .0331712
611.508 .0331517
612.277 .0331315
613.045 .0331112
613.812 .0330920
614.579 .0330740
615.346 .0330575
616.113 .0330433
616.879 .0330297
617.645 .0330154
618.411 .0329995
619.176 .0329821
619.941 .0329618
620.705 .0329393
621.470 .0329159
622.233 .0328916
622.997 .0328671
623.760 .0328435
624.523 .0328205
625.286 .0327969
626.048 .0327735
626.810 .0327491
627.572 .0327240
628.333 .0326995
629.095 .0326739
629.855 .0326487
630.616 .0326246
631.376 .0326017
632.136 .0325794
632.895 .0325587
633.655 .0325401
634.414 .0325223
635.172 .0325061
635.931 .0324919
636.689 .0324782
637.447 .0324658
638.204 .0324544
638.962 .0324436
639.718 .0324332
640.475 .0324223
641.231 .0324103
641.988 .0323974
642.743 .0323830
643.499 .0323666
644.254 .0323479
645.009 .0323282
645.764 .0323078
646.518 .0322865
647.272 .0322656
648.026 .0322461
648.780 .0322281
649.533 .0322123
650.286 .0321980
651.039 .0321845
651.792 .0321711
652.544 .0321578
653.296 .0321436
654.048 .0321292
654.799 .0321149
655.550 .0321014
656.301 .0320893
657.052 .0320790
657.802 .0320699
658.552 .0320613
659.302 .0320525
660.052 .0320423
660.801 .0320293
661.550 .0320137
662.299 .0319950
663.048 .0319743
663.796 .0319528
664.544 .0319319
665.292 .0319122
666.040 .0318944
666.787 .0318786
667.534 .0318646
668.281 .0318517
669.028 .0318394
669.774 .0318272
670.521 .0318149
671.266 .0318022
672.012 .0317894
672.758 .0317765
673.503 .0317640
674.248 .0317521
674.992 .0317406
675.737 .0317293
676.481 .0317184
677.225 .0317072
677.969 .0316957
678.712 .0316840
679.455 .0316722
680.199 .0316600
680.941 .0316470
681.684 .0316337
682.426 .0316200
683.168 .0316058
683.910 .0315916
684.652 .0315776
685.393 .0315644
686.134 .0315529
686.875 .0315424
687.616 .0315338
688.356 .0315266
689.097 .0315209
689.837 .0315145
690.576 .0315072
691.316 .0314989
692.055 .0314887
692.794 .0314766
693.533 .0314641
694.272 .0314508
695.010 .0314382
695.748 .0314264
696.486 .0314155
697.224 .0314052
697.962 .0313953
698.699 .0313844
699.436 .0313724
700.173 .0313592
700.909 .0313450
701.646 .0313302
702.382 .0313162
703.118 .0313036
703.853 .0312920
704.589 .0312822
705.324 .0312738
706.059 .0312662
706.794 .0312585
707.529 .0312502
708.263 .0312411
708.997 .0312312
709.731 .0312199
710.465 .0312086
711.198 .0311970
711.931 .0311856
712.664 .0311742
713.397 .0311622
714.130 .0311495
714.862 .0311361
715.594 .0311214
716.326 .0311058
717.058 .0310894
717.789 .0310726
718.520 .0310549
719.251 .0310376
719.982 .0310205
720.713 .0310037
721.443 .0309871
722.173 .0309705
722.903 .0309530
723.633 .0309347
724.362 .0309157
725.091 .0308960
725.820 .0308761
726.549 .0308568
727.278 .0308373
728.006 .0308187
728.734 .0308005
729.462 .0307831
730.190 .0307659
730.917 .0307493
731.644 .0307329
732.371 .0307168
733.098 .0307011
733.825 .0306859
734.551 .0306720
735.277 .0306598
736.003 .0306492
736.728 .0306396
737.454 .0306314
738.179 .0306241
738.904 .0306168
739.629 .0306097
740.353 .0306025
741.077 .0305955
741.801 .0305878
742.525 .0305794
743.249 .0305706
743.972 .0305614
744.695 .0305521
745.418 .0305422
746.141 .0305322
746.863 .0305225
747.585 .0305126
748.307 .0305028
749.029 .0304930
749.750 .0304834
750.472 .0304735
751.193 .0304629
751.913 .0304520
752.634 .0304410
753.354 .0304294
754.074 .0304185
754.794 .0304084
755.514 .0303987
756.233 .0303895
756.952 .0303802
757.671 .0303708
758.390 .0303610
759.108 .0303504
759.826 .0303393
760.544 .0303286
761.262 .0303187
761.979 .0303094
762.697 .0303008
763.414 .0302934
764.130 .0302858
764.847 .0302776
765.563 .0302684
766.279 .0302575
766.995 .0302452
767.710 .0302320
768.426 .0302177
769.141 .0302036
769.855 .0301898
770.570 .0301763
771.284 .0301627
771.998 .0301489
772.712 .0301338
773.426 .0301179
774.139 .0301011
774.852 .0300837
775.565 .0300660
776.277 .0300491
776.990 .0300331
777.702 .0300181
778.414 .0300039
779.125 .0299902
779.836 .0299769
780.547 .0299638
781.258 .0299500
781.969 .0299363
782.679 .0299227
783.389 .0299091
784.099 .0298959
784.808 .0298834
785.517 .0298714
786.226 .0298603
786.935 .0298493
787.643 .0298387
788.352 .0298285
789.060 .0298183
789.767 .0298082
790.475 .0297985
791.182 .0297894
791.889 .0297806
792.595 .0297725
793.301 .0297653
794.008 .0297582
794.713 .0297515
795.419 .0297449
796.124 .0297381
796.829 .0297306
797.534 .0297222
798.238 .0297122
798.942 .0297011
799.646 .0296891
800.350 .0296758
801.053 .0296613
801.756 .0296459
802.459 .0296299
803.162 .0296135
803.864 .0295973
804.566 .0295813
805.267 .0295649
805.969 .0295487
806.670 .0295327
807.371 .0295172
808.071 .0295021
808.772 .0294885
809.472 .0294766
810.171 .0294669
810.871 .0294594
811.570 .0294544
812.269 .0294522
812.967 .0294521
813.666 .0294538
814.364 .0294557
815.061 .0294572
815.759 .0294582
816.456 .0294580
817.153 .0294563
817.849 .0294530
818.545 .0294482
819.241 .0294419
819.937 .0294343
820.632 .0294256
821.327 .0294147
822.022 .0294021
822.717 .0293875
823.411 .0293707
824.105 .0293510
824.798 .0293302
825.491 .0293084
826.184 .0292867
826.877 .0292657
827.569 .0292451
828.261 .0292255
828.953 .0292075
829.645 .0291907
830.336 .0291750
831.027 .0291603
831.717 .0291469
832.407 .0291334
833.097 .0291206
833.787 .0291082
834.476 .0290960
835.165 .0290840
835.854 .0290719
836.542 .0290597
837.230 .0290471
837.918 .0290339
838.605 .0290206
839.292 .0290072
839.979 .0289942
840.665 .0289812
841.352 .0289685
842.037 .0289562
842.723 .0289444
843.408 .0289332
844.093 .0289223
844.777 .0289118
845.462 .0289019
846.145 .0288917
846.829 .0288814
847.512 .0288708
848.195 .0288599
848.878 .0288489
849.560 .0288372
850.242 .0288242
850.923 .0288100
851.605 .0287947
852.286 .0287778
852.966 .0287597
853.646 .0287403
854.326 .0287196
855.006 .0286977
855.685 .0286751
856.364 .0286514
857.043 .0286271
857.721 .0286030
858.399 .0285785
859.077 .0285547
859.754 .0285314
860.431 .0285084
861.107 .0284868
861.784 .0284660
862.459 .0284462
863.135 .0284271
863.810 .0284096
864.485 .0283931
865.160 .0283782
865.834 .0283655
866.508 .0283547
867.181 .0283460
867.854 .0283393
868.527 .0283337
869.199 .0283286
869.872 .0283237
870.543 .0283188
871.215 .0283128
871.886 .0283064
872.557 .0282995
873.227 .0282927
873.897 .0282862
874.567 .0282800
875.236 .0282741
875.905 .0282686
876.573 .0282627
877.242 .0282563
877.909 .0282490
878.577 .0282417
879.244 .0282340
879.911 .0282260
880.577 .0282187
881.243 .0282128
881.909 .0282085
882.575 .0282060
883.240 .0282050
883.904 .0282053
884.569 .0282063
885.232 .0282072
885.896 .0282077
886.559 .0282075
887.222 .0282060
887.885 .0282035
888.547 .0282001
889.208 .0281960
889.870 .0281907
890.531 .0281854
891.192 .0281804
891.852 .0281751
892.512 .0281697
893.171 .0281646
893.830 .0281599
894.489 .0281555
895.148 .0281512
895.806 .0281472
896.464 .0281432
897.121 .0281396
897.778 .0281356
898.434 .0281316
899.091 .0281276
899.747 .0281234
900.402 .0281186
901.057 .0281135
901.712 .0281080
902.366 .0281014
903.020 .0280941
903.674 .0280865
904.327 .0280774
904.980 .0280680
905.633 .0280579
906.285 .0280473
906.936 .0280365
907.588 .0280253
908.239 .0280136
908.889 .0280010
909.540 .0279878
910.190 .0279734
910.839 .0279580
911.488 .0279420
912.137 .0279254
912.785 .0279079
913.433 .0278901
914.081 .0278712
914.728 .0278517
915.375 .0278315
916.021 .0278104
916.668 .0277881
917.313 .0277655
917.959 .0277427
918.604 .0277204
919.248 .0276989
919.892 .0276797
920.536 .0276619
921.180 .0276459
921.823 .0276309
922.465 .0276157
923.108 .0276000
923.750 .0275832
924.391 .0275643
925.032 .0275441
925.673 .0275228
926.313 .0275011
926.953 .0274792
927.593 .0274580
928.232 .0274370
928.871 .0274159
929.510 .0273945
930.148 .0273717
930.786 .0273469
931.423 .0273205
932.060 .0272926
932.697 .0272637
933.333 .0272345
933.969 .0272058
934.604 .0271786
935.239 .0271533
935.874 .0271300
936.508 .0271084
937.142 .0270882
937.776 .0270691
938.409 .0270504
939.042 .0270320
939.674 .0270134
940.306 .0269953
940.938 .0269772
941.569 .0269593
942.200 .0269421
942.830 .0269253
943.460 .0269094
944.090 .0268945
944.720 .0268801
945.349 .0268656
945.977 .0268517
946.606 .0268381
947.233 .0268240
947.861 .0268099
948.488 .0267951
949.115 .0267800
949.741 .0267652
950.367 .0267509
950.993 .0267374
951.618 .0267259
952.243 .0267168
952.868 .0267093
953.492 .0267034
954.115 .0266985
954.739 .0266940
955.362 .0266901
955.984 .0266867
956.607 .0266831
957.229 .0266800
957.850 .0266781
958.471 .0266764
959.092 .0266753
959.713 .0266741
960.333 .0266725
960.952 .0266698
961.572 .0266653
962.191 .0266587
962.809 .0266501
963.428 .0266407
964.045 .0266305
964.663 .0266202
965.280 .0266112
965.897 .0266032
966.513 .0265963
967.129 .0265906
967.745 .0265854
968.361 .0265802
968.976 .0265753
969.590 .0265702
970.205 .0265654
970.818 .0265617
971.432 .0265599
972.045 .0265603
972.658 .0265628
973.271 .0265672
973.883 .0265725
974.495 .0265778
975.106 .0265826
975.717 .0265854
976.328 .0265870
976.938 .0265874
977.548 .0265874
978.158 .0265875
978.768 .0265885
979.377 .0265908
979.985 .0265941
980.594 .0265979
981.202 .0266009
981.809 .0266026
982.417 .0266032
983.024 .0266020
983.631 .0266002
984.237 .0265976
984.843 .0265956
985.449 .0265938
986.054 .0265937
986.659 .0265944
987.264 .0265958
987.868 .0265979
988.472 .0265998
989.076 .0266011
989.679 .0266013
990.282 .0266003
990.885 .0265987
991.487 .0265960
992.090 .0265926
992.691 .0265883
993.293 .0265847
993.894 .0265812
994.495 .0265781
995.095 .0265757
995.696 .0265741
996.296 .0265723
996.895 .0265698
997.494 .0265664
998.093 .0265622
998.692 .0265568
999.291 .0265504
999.889 .0265431
1000.487 .0265355
1001.084 .0265274
1001.681 .0265185
1002.278 .0265087
1002.875 .0264986
1003.471 .0264880
1004.067 .0264770
1004.663 .0264661
1005.258 .0264549
1005.854 .0264431
1006.449 .0264308
1007.043 .0264176
1007.638 .0264027
1008.232 .0263866
1008.826 .0263698
1009.419 .0263526
1010.012 .0263358
1010.605 .0263197
1011.198 .0263047
1011.791 .0262913
1012.383 .0262791
1012.975 .0262661
1013.566 .0262516
1014.158 .0262352
1014.749 .0262166
1015.340 .0261968
1015.931 .0261770
1016.521 .0261578
1017.111 .0261414
1017.701 .0261285
1018.291 .0261180
1018.880 .0261095
1019.470 .0261031
1020.059 .0260966
1020.647 .0260899
1021.236 .0260817
1021.824 .0260731
1022.412 .0260635
1023.000 .0260556
1023.588 .0260498
1024.175 .0260465
1024.762 .0260453
1025.349 .0260451
1025.936 .0260446
1026.523 .0260437
1027.109 .0260402
1027.695 .0260344
1028.281 .0260264
1028.867 .0260173
1029.452 .0260066
1030.038 .0259964
1030.623 .0259872
1031.208 .0259801
1031.792 .0259739
1032.377 .0259694
1032.961 .0259640
1033.546 .0259578
1034.130 .0259507
1034.714 .0259432
1035.297 .0259355
1035.881 .0259280
1036.464 .0259207
1037.047 .0259152
1037.630 .0259105
1038.213 .0259071
1038.796 .0259043
1039.378 .0259023
1039.961 .0258992
1040.543 .0258949
1041.125 .0258888
1041.707 .0258826
1042.289 .0258751
1042.871 .0258674
1043.452 .0258596
1044.034 .0258516
1044.615 .0258432
1045.196 .0258349
1045.777 .0258287
1046.358 .0258238
1046.939 .0258195
1047.520 .0258165
1048.101 .0258135
1048.681 .0258113
1049.262 .0258087
1049.842 .0258064
1050.422 .0258049
1051.002 .0258034
1051.582 .0258018
1052.162 .0258021
1052.742 .0258055
1053.322 .0258117
1053.902 .0258202
1054.482 .0258312
1055.061 .0258434
1055.641 .0258545
1056.220 .0258635
1056.800 .0258702
1057.379 .0258753
1057.958 .0258802
1058.538 .0258832
1059.117 .0258878
1059.696 .0258943
1060.275 .0259038
1060.854 .0259155
1061.433 .0259287
1062.012 .0259424
1062.592 .0259547
1063.171 .0259654
1063.750 .0259742
1064.329 .0259809
1064.908 .0259878
1065.487 .0259941
1066.066 .0260012
1066.645 .0260090
1067.224 .0260179
1067.803 .0260251
1068.382 .0260303
1068.961 .0260322
1069.540 .0260296
1070.119 .0260211
1070.698 .0260093
1071.278 .0259937
1071.857 .0259771
1072.436 .0259600
1073.016 .0259432
1073.595 .0259277
1074.175 .0259166
1074.754 .0259080
1075.334 .0259011
1075.913 .0258970
1076.493 .0258971
1077.073 .0258993
1077.653 .0259060
1078.233 .0259171
1078.813 .0259325
1079.393 .0259513
1079.974 .0259733
1080.554 .0259961
1081.135 .0260222
1081.716 .0260500
1082.296 .0260790
1082.877 .0261077
1083.458 .0261353
1084.040 .0261585
1084.621 .0261761
1085.202 .0261892
1085.784 .0261962
1086.366 .0261963
1086.948 .0261915
1087.530 .0261819
1088.112 .0261702
1088.695 .0261575
1089.277 .0261467
1089.860 .0261377
1090.443 .0261310
1091.026 .0261252
1091.610 .0261203
1092.193 .0261173
1092.777 .0261167
1093.361 .0261191
1093.946 .0261235
1094.530 .0261303
1095.115 .0261398
1095.700 .0261496
1096.285 .0261604
1096.871 .0261712
1097.456 .0261817
1098.042 .0261899
1098.628 .0261959
1099.215 .0262000
1099.802 .0262032
1100.389 .0262071
1100.976 .0262130
1101.564 .0262172
1102.152 .0262207
1102.740 .0262212
1103.329 .0262204
1103.917 .0262169
1104.507 .0262122
1105.096 .0262073
1105.686 .0262049
1106.276 .0262042
1106.867 .0262073
1107.457 .0262144
1108.049 .0262268
1108.640 .0262433
1109.232 .0262622
1109.825 .0262823
1110.417 .0263032
1111.010 .0263210
1111.604 .0263375
1112.198 .0263523
1112.792 .0263652
1113.387 .0263748
1113.982 .0263847
1114.577 .0263951
1115.173 .0264058
1115.769 .0264155
1116.366 .0264250
1116.963 .0264348
1117.561 .0264424
1118.159 .0264463
1118.758 .0264443
1119.357 .0264390
1119.957 .0264313
1120.557 .0264236
1121.157 .0264201
1121.758 .0264240
1122.360 .0264371
1122.962 .0264586
1123.564 .0264844
1124.167 .0265149
1124.771 .0265432
1125.375 .0265692
1125.980 .0265949
1126.585 .0266140
1127.191 .0266296
1127.797 .0266472
1128.404 .0266652
1129.012 .0266886
1129.620 .0267148
1130.229 .0267417
1130.838 .0267643
1131.448 .0267822
1132.058 .0267950
1132.669 .0268020
1133.281 .0268098
1133.894 .0268220
1134.507 .0268356
1135.120 .0268587
1135.735 .0268863
1136.350 .0269162
1136.965 .0269550
1137.582 .0269929
1138.199 .0270298
1138.816 .0270638
1139.435 .0270954
1140.054 .0271261
1140.674 .0271504
1141.294 .0271802
1141.916 .0272043
1142.538 .0272512
1143.160 .0272606
1143.784 .0271866
1144.408 .0273775
1145.033 .0272715
