Measurement Sequence started on: 14-45-04-498
Integration time: 36
Scans to Average: 2 
>>>>>Begin Spectral Data<<<<<
433.946 .0476926
434.870 .0469476
435.793 .0413058
436.715 .0404506
437.635 .0390275
438.555 .0398302
439.473 .0390688
440.389 .0385025
441.305 .0381902
442.219 .0379445
443.132 .0377738
444.044 .0376491
444.954 .0375606
445.863 .0375259
446.771 .0375257
447.678 .0375519
448.584 .0375853
449.488 .0376217
450.391 .0376512
451.293 .0376690
452.194 .0376831
453.094 .0376881
453.992 .0376858
454.890 .0376772
455.786 .0376642
456.681 .0376413
457.575 .0376139
458.468 .0375715
459.360 .0375127
460.250 .0374390
461.140 .0373551
462.028 .0372611
462.915 .0371571
463.801 .0370420
464.687 .0369232
465.571 .0368029
466.454 .0366845
467.335 .0365642
468.216 .0364550
469.096 .0363557
469.975 .0362681
470.853 .0361887
471.729 .0361155
472.605 .0360458
473.479 .0359785
474.353 .0359083
475.226 .0358348
476.097 .0357608
476.968 .0356924
477.838 .0356289
478.706 .0355772
479.574 .0355351
480.441 .0355046
481.306 .0354808
482.171 .0354634
483.035 .0354436
483.898 .0354221
484.760 .0353997
485.621 .0353787
486.481 .0353618
487.340 .0353514
488.198 .0353489
489.055 .0353553
489.912 .0353672
490.767 .0353820
491.622 .0353924
492.476 .0353997
493.329 .0354001
494.180 .0353917
495.032 .0353770
495.882 .0353596
496.731 .0353427
497.580 .0353288
498.427 .0353150
499.274 .0352992
500.120 .0352789
500.965 .0352526
501.809 .0352165
502.653 .0351720
503.495 .0351225
504.337 .0350717
505.178 .0350215
506.018 .0349745
506.858 .0349286
507.696 .0348888
508.534 .0348525
509.371 .0348162
510.208 .0347758
511.043 .0347320
511.878 .0346829
512.712 .0346327
513.545 .0345824
514.377 .0345378
515.209 .0345020
516.040 .0344786
516.870 .0344648
517.699 .0344588
518.528 .0344551
519.356 .0344554
520.183 .0344532
521.010 .0344530
521.836 .0344476
522.661 .0344412
523.485 .0344305
524.309 .0344250
525.132 .0344202
525.954 .0344158
526.776 .0344118
527.597 .0344037
528.417 .0343824
529.237 .0343488
530.056 .0342948
530.874 .0342263
531.692 .0341422
532.508 .0340502
533.325 .0339453
534.140 .0338390
534.955 .0337352
535.770 .0336365
536.583 .0335450
537.397 .0334656
538.209 .0333902
539.021 .0333229
539.832 .0332592
540.643 .0331990
541.453 .0331436
542.262 .0330959
543.071 .0330511
543.879 .0330109
544.687 .0329747
545.494 .0329471
546.300 .0329226
547.106 .0329020
547.911 .0328839
548.716 .0328679
549.520 .0328475
550.323 .0328224
551.126 .0327903
551.929 .0327556
552.731 .0327138
553.532 .0326690
554.332 .0326174
555.133 .0325649
555.932 .0325128
556.731 .0324589
557.530 .0324085
558.328 .0323632
559.125 .0323206
559.922 .0322829
560.719 .0322489
561.515 .0322174
562.310 .0321837
563.105 .0321533
563.899 .0321216
564.693 .0320901
565.487 .0320585
566.280 .0320262
567.072 .0319963
567.864 .0319693
568.655 .0319436
569.446 .0319182
570.236 .0318951
571.026 .0318718
571.816 .0318467
572.605 .0318210
573.393 .0317944
574.181 .0317679
574.969 .0317413
575.756 .0317166
576.543 .0316929
577.329 .0316719
578.115 .0316548
578.900 .0316391
579.685 .0316251
580.469 .0316097
581.253 .0315936
582.036 .0315762
582.820 .0315571
583.602 .0315367
584.384 .0315147
585.166 .0314931
585.947 .0314713
586.728 .0314499
587.509 .0314287
588.289 .0314085
589.069 .0313888
589.848 .0313693
590.627 .0313495
591.405 .0313286
592.183 .0313074
592.961 .0312855
593.738 .0312635
594.515 .0312418
595.291 .0312204
596.067 .0312008
596.843 .0311826
597.618 .0311659
598.393 .0311506
599.167 .0311362
599.941 .0311214
600.715 .0311062
601.488 .0310902
602.261 .0310726
603.034 .0310538
603.806 .0310347
604.578 .0310150
605.349 .0309955
606.121 .0309767
606.891 .0309584
607.662 .0309410
608.432 .0309241
609.201 .0309065
609.971 .0308882
610.740 .0308687
611.508 .0308472
612.277 .0308244
613.045 .0308016
613.812 .0307786
614.579 .0307563
615.346 .0307353
616.113 .0307157
616.879 .0306972
617.645 .0306799
618.411 .0306631
619.176 .0306463
619.941 .0306294
620.705 .0306115
621.470 .0305924
622.233 .0305726
622.997 .0305521
623.760 .0305316
624.523 .0305108
625.286 .0304899
626.048 .0304687
626.810 .0304471
627.572 .0304250
628.333 .0304033
629.095 .0303815
629.855 .0303597
630.616 .0303387
631.376 .0303186
632.136 .0302997
632.895 .0302821
633.655 .0302664
634.414 .0302527
635.172 .0302407
635.931 .0302303
636.689 .0302204
637.447 .0302123
638.204 .0302047
638.962 .0301971
639.718 .0301894
640.475 .0301808
641.231 .0301709
641.988 .0301593
642.743 .0301461
643.499 .0301308
644.254 .0301132
645.009 .0300938
645.764 .0300726
646.518 .0300503
647.272 .0300270
648.026 .0300037
648.780 .0299808
649.533 .0299588
650.286 .0299375
651.039 .0299169
651.792 .0298974
652.544 .0298793
653.296 .0298618
654.048 .0298451
654.799 .0298295
655.550 .0298145
656.301 .0298006
657.052 .0297877
657.802 .0297754
658.552 .0297637
659.302 .0297521
660.052 .0297402
660.801 .0297268
661.550 .0297125
662.299 .0296975
663.048 .0296816
663.796 .0296655
664.544 .0296495
665.292 .0296338
666.040 .0296191
666.787 .0296048
667.534 .0295908
668.281 .0295773
669.028 .0295634
669.774 .0295492
670.521 .0295348
671.266 .0295204
672.012 .0295063
672.758 .0294928
673.503 .0294806
674.248 .0294689
674.992 .0294578
675.737 .0294468
676.481 .0294356
677.225 .0294239
677.969 .0294115
678.712 .0293987
679.455 .0293859
680.199 .0293737
680.941 .0293618
681.684 .0293509
682.426 .0293411
683.168 .0293324
683.910 .0293242
684.652 .0293160
685.393 .0293078
686.134 .0292990
686.875 .0292898
687.616 .0292800
688.356 .0292694
689.097 .0292586
689.837 .0292477
690.576 .0292365
691.316 .0292250
692.055 .0292135
692.794 .0292022
693.533 .0291910
694.272 .0291800
695.010 .0291691
695.748 .0291584
696.486 .0291480
697.224 .0291379
697.962 .0291275
698.699 .0291174
699.436 .0291072
700.173 .0290967
700.909 .0290869
701.646 .0290776
702.382 .0290685
703.118 .0290601
703.853 .0290522
704.589 .0290441
705.324 .0290359
706.059 .0290271
706.794 .0290172
707.529 .0290065
708.263 .0289949
708.997 .0289822
709.731 .0289687
710.465 .0289555
711.198 .0289422
711.931 .0289291
712.664 .0289159
713.397 .0289023
714.130 .0288882
714.862 .0288735
715.594 .0288579
716.326 .0288417
717.058 .0288257
717.789 .0288097
718.520 .0287939
719.251 .0287788
719.982 .0287644
720.713 .0287504
721.443 .0287368
722.173 .0287229
722.903 .0287083
723.633 .0286929
724.362 .0286769
725.091 .0286604
725.820 .0286441
726.549 .0286279
727.278 .0286122
728.006 .0285973
728.734 .0285829
729.462 .0285686
730.190 .0285541
730.917 .0285395
731.644 .0285239
732.371 .0285077
733.098 .0284910
733.825 .0284743
734.551 .0284584
735.277 .0284437
736.003 .0284305
736.728 .0284191
737.454 .0284096
738.179 .0284017
738.904 .0283944
739.629 .0283873
740.353 .0283800
741.077 .0283724
741.801 .0283649
742.525 .0283573
743.249 .0283503
743.972 .0283447
744.695 .0283401
745.418 .0283362
746.141 .0283331
746.863 .0283303
747.585 .0283272
748.307 .0283232
749.029 .0283182
749.750 .0283123
750.472 .0283062
751.193 .0283002
751.913 .0282945
752.634 .0282896
753.354 .0282849
754.074 .0282798
754.794 .0282744
755.514 .0282682
756.233 .0282606
756.952 .0282520
757.671 .0282428
758.390 .0282330
759.108 .0282234
759.826 .0282140
760.544 .0282053
761.262 .0281971
761.979 .0281886
762.697 .0281791
763.414 .0281686
764.130 .0281572
764.847 .0281448
765.563 .0281321
766.279 .0281200
766.995 .0281087
767.710 .0280987
768.426 .0280902
769.141 .0280827
769.855 .0280759
770.570 .0280690
771.284 .0280618
771.998 .0280542
772.712 .0280465
773.426 .0280386
774.139 .0280313
774.852 .0280248
775.565 .0280191
776.277 .0280137
776.990 .0280087
777.702 .0280037
778.414 .0279985
779.125 .0279929
779.836 .0279866
780.547 .0279798
781.258 .0279727
781.969 .0279652
782.679 .0279575
783.389 .0279494
784.099 .0279410
784.808 .0279321
785.517 .0279233
786.226 .0279146
786.935 .0279060
787.643 .0278980
788.352 .0278910
789.060 .0278846
789.767 .0278783
790.475 .0278718
791.182 .0278647
791.889 .0278569
792.595 .0278482
793.301 .0278384
794.008 .0278279
794.713 .0278170
795.419 .0278058
796.124 .0277945
796.829 .0277834
797.534 .0277720
798.238 .0277601
798.942 .0277483
799.646 .0277357
800.350 .0277227
801.053 .0277095
801.756 .0276964
802.459 .0276835
803.162 .0276709
803.864 .0276588
804.566 .0276474
805.267 .0276366
805.969 .0276261
806.670 .0276158
807.371 .0276059
808.071 .0275965
808.772 .0275874
809.472 .0275785
810.171 .0275700
810.871 .0275620
811.570 .0275543
812.269 .0275467
812.967 .0275393
813.666 .0275316
814.364 .0275232
815.061 .0275145
815.759 .0275053
816.456 .0274957
817.153 .0274859
817.849 .0274761
818.545 .0274663
819.241 .0274567
819.937 .0274473
820.632 .0274378
821.327 .0274281
822.022 .0274183
822.717 .0274077
823.411 .0273972
824.105 .0273868
824.798 .0273766
825.491 .0273667
826.184 .0273574
826.877 .0273489
827.569 .0273414
828.261 .0273345
828.953 .0273283
829.645 .0273225
830.336 .0273171
831.027 .0273117
831.717 .0273064
832.407 .0273015
833.097 .0272970
833.787 .0272927
834.476 .0272887
835.165 .0272849
835.854 .0272816
836.542 .0272788
837.230 .0272765
837.918 .0272743
838.605 .0272723
839.292 .0272700
839.979 .0272675
840.665 .0272648
841.352 .0272618
842.037 .0272586
842.723 .0272550
843.408 .0272510
844.093 .0272465
844.777 .0272413
845.462 .0272353
846.145 .0272284
846.829 .0272205
847.512 .0272113
848.195 .0272011
848.878 .0271901
849.560 .0271789
850.242 .0271675
850.923 .0271558
851.605 .0271440
852.286 .0271314
852.966 .0271184
853.646 .0271045
854.326 .0270903
855.006 .0270756
855.685 .0270606
856.364 .0270453
857.043 .0270304
857.721 .0270156
858.399 .0270011
859.077 .0269868
859.754 .0269733
860.431 .0269598
861.107 .0269467
861.784 .0269336
862.459 .0269213
863.135 .0269091
863.810 .0268974
864.485 .0268855
865.160 .0268741
865.834 .0268628
866.508 .0268518
867.181 .0268410
867.854 .0268308
868.527 .0268205
869.199 .0268103
869.872 .0267991
870.543 .0267875
871.215 .0267738
871.886 .0267588
872.557 .0267417
873.227 .0267230
873.897 .0267029
874.567 .0266819
875.236 .0266610
875.905 .0266408
876.573 .0266210
877.242 .0266025
877.909 .0265848
878.577 .0265678
879.244 .0265511
879.911 .0265347
880.577 .0265185
881.243 .0265028
881.909 .0264874
882.575 .0264727
883.240 .0264594
883.904 .0264473
884.569 .0264363
885.232 .0264264
885.896 .0264173
886.559 .0264085
887.222 .0264001
887.885 .0263921
888.547 .0263839
889.208 .0263757
889.870 .0263675
890.531 .0263590
891.192 .0263508
891.852 .0263430
892.512 .0263356
893.171 .0263291
893.830 .0263233
894.489 .0263178
895.148 .0263126
895.806 .0263079
896.464 .0263033
897.121 .0262988
897.778 .0262944
898.434 .0262903
899.091 .0262861
899.747 .0262824
900.402 .0262790
901.057 .0262759
901.712 .0262732
902.366 .0262700
903.020 .0262664
903.674 .0262628
904.327 .0262588
904.980 .0262548
905.633 .0262508
906.285 .0262472
906.936 .0262438
907.588 .0262404
908.239 .0262370
908.889 .0262333
909.540 .0262285
910.190 .0262223
910.839 .0262145
911.488 .0262055
912.137 .0261951
912.785 .0261840
913.433 .0261727
914.081 .0261612
914.728 .0261496
915.375 .0261380
916.021 .0261261
916.668 .0261142
917.313 .0261023
917.959 .0260904
918.604 .0260790
919.248 .0260687
919.892 .0260596
920.536 .0260520
921.180 .0260463
921.823 .0260416
922.465 .0260374
923.108 .0260339
923.750 .0260303
924.391 .0260262
925.032 .0260219
925.673 .0260173
926.313 .0260121
926.953 .0260063
927.593 .0259998
928.232 .0259922
928.871 .0259836
929.510 .0259736
930.148 .0259618
930.786 .0259488
931.423 .0259353
932.060 .0259213
932.697 .0259075
933.333 .0258943
933.969 .0258814
934.604 .0258688
935.239 .0258562
935.874 .0258434
936.508 .0258307
937.142 .0258181
937.776 .0258059
938.409 .0257939
939.042 .0257826
939.674 .0257712
940.306 .0257602
940.938 .0257489
941.569 .0257370
942.200 .0257243
942.830 .0257106
943.460 .0256958
944.090 .0256803
944.720 .0256644
945.349 .0256484
945.977 .0256322
946.606 .0256162
947.233 .0255998
947.861 .0255834
948.488 .0255668
949.115 .0255502
949.741 .0255335
950.367 .0255170
950.993 .0255005
951.618 .0254847
952.243 .0254697
952.868 .0254546
953.492 .0254404
954.115 .0254264
954.739 .0254123
955.362 .0253979
955.984 .0253833
956.607 .0253689
957.229 .0253542
957.850 .0253395
958.471 .0253243
959.092 .0253088
959.713 .0252934
960.333 .0252772
960.952 .0252611
961.572 .0252453
962.191 .0252296
962.809 .0252141
963.428 .0251993
964.045 .0251848
964.663 .0251706
965.280 .0251570
965.897 .0251438
966.513 .0251307
967.129 .0251177
967.745 .0251047
968.361 .0250916
968.976 .0250789
969.590 .0250665
970.205 .0250540
970.818 .0250424
971.432 .0250313
972.045 .0250204
972.658 .0250103
973.271 .0250006
973.883 .0249907
974.495 .0249803
975.106 .0249693
975.717 .0249572
976.328 .0249440
976.938 .0249305
977.548 .0249169
978.158 .0249045
978.768 .0248939
979.377 .0248843
979.985 .0248763
980.594 .0248696
981.202 .0248635
981.809 .0248568
982.417 .0248494
983.024 .0248407
983.631 .0248308
984.237 .0248203
984.843 .0248096
985.449 .0247992
986.054 .0247896
986.659 .0247807
987.264 .0247722
987.868 .0247636
988.472 .0247542
989.076 .0247438
989.679 .0247327
990.282 .0247204
990.885 .0247077
991.487 .0246949
992.090 .0246831
992.691 .0246722
993.293 .0246627
993.894 .0246545
994.495 .0246476
995.095 .0246415
995.696 .0246360
996.296 .0246309
996.895 .0246266
997.494 .0246232
998.093 .0246212
998.692 .0246210
999.291 .0246222
999.889 .0246242
1000.487 .0246269
1001.084 .0246294
1001.681 .0246312
1002.278 .0246319
1002.875 .0246316
1003.471 .0246303
1004.067 .0246285
1004.663 .0246266
1005.258 .0246252
1005.854 .0246243
1006.449 .0246243
1007.043 .0246243
1007.638 .0246242
1008.232 .0246241
1008.826 .0246233
1009.419 .0246221
1010.012 .0246216
1010.605 .0246213
1011.198 .0246214
1011.791 .0246219
1012.383 .0246234
1012.975 .0246254
1013.566 .0246279
1014.158 .0246306
1014.749 .0246325
1015.340 .0246341
1015.931 .0246351
1016.521 .0246352
1017.111 .0246354
1017.701 .0246363
1018.291 .0246371
1018.880 .0246383
1019.470 .0246401
1020.059 .0246422
1020.647 .0246445
1021.236 .0246474
1021.824 .0246500
1022.412 .0246521
1023.000 .0246536
1023.588 .0246546
1024.175 .0246554
1024.762 .0246568
1025.349 .0246585
1025.936 .0246611
1026.523 .0246645
1027.109 .0246693
1027.695 .0246748
1028.281 .0246813
1028.867 .0246883
1029.452 .0246951
1030.038 .0247011
1030.623 .0247063
1031.208 .0247107
1031.792 .0247148
1032.377 .0247189
1032.961 .0247233
1033.546 .0247280
1034.130 .0247332
1034.714 .0247381
1035.297 .0247428
1035.881 .0247468
1036.464 .0247504
1037.047 .0247531
1037.630 .0247553
1038.213 .0247575
1038.796 .0247604
1039.378 .0247645
1039.961 .0247700
1040.543 .0247772
1041.125 .0247857
1041.707 .0247948
1042.289 .0248036
1042.871 .0248127
1043.452 .0248224
1044.034 .0248321
1044.615 .0248421
1045.196 .0248524
1045.777 .0248625
1046.358 .0248719
1046.939 .0248796
1047.520 .0248853
1048.101 .0248883
1048.681 .0248887
1049.262 .0248861
1049.842 .0248815
1050.422 .0248762
1051.002 .0248704
1051.582 .0248647
1052.162 .0248601
1052.742 .0248552
1053.322 .0248503
1053.902 .0248461
1054.482 .0248425
1055.061 .0248395
1055.641 .0248379
1056.220 .0248373
1056.800 .0248386
1057.379 .0248409
1057.958 .0248443
1058.538 .0248475
1059.117 .0248513
1059.696 .0248546
1060.275 .0248555
1060.854 .0248553
1061.433 .0248547
1062.012 .0248534
1062.592 .0248532
1063.171 .0248531
1063.750 .0248534
1064.329 .0248539
1064.908 .0248539
1065.487 .0248520
1066.066 .0248482
1066.645 .0248425
1067.224 .0248341
1067.803 .0248238
1068.382 .0248124
1068.961 .0248003
1069.540 .0247893
1070.119 .0247797
1070.698 .0247698
1071.278 .0247594
1071.857 .0247480
1072.436 .0247350
1073.016 .0247203
1073.595 .0247040
1074.175 .0246865
1074.754 .0246692
1075.334 .0246529
1075.913 .0246379
1076.493 .0246241
1077.073 .0246124
1077.653 .0246024
1078.233 .0245932
1078.813 .0245840
1079.393 .0245739
1079.974 .0245632
1080.554 .0245540
1081.135 .0245461
1081.716 .0245398
1082.296 .0245351
1082.877 .0245326
1083.458 .0245304
1084.040 .0245280
1084.621 .0245251
1085.202 .0245220
1085.784 .0245191
1086.366 .0245167
1086.948 .0245148
1087.530 .0245134
1088.112 .0245134
1088.695 .0245135
1089.277 .0245137
1089.860 .0245129
1090.443 .0245095
1091.026 .0245041
1091.610 .0244975
1092.193 .0244897
1092.777 .0244814
1093.361 .0244733
1093.946 .0244653
1094.530 .0244566
1095.115 .0244469
1095.700 .0244355
1096.285 .0244244
1096.871 .0244127
1097.456 .0244017
1098.042 .0243922
1098.628 .0243848
1099.215 .0243788
1099.802 .0243750
1100.389 .0243728
1100.976 .0243713
1101.564 .0243690
1102.152 .0243656
1102.740 .0243605
1103.329 .0243541
1103.917 .0243468
1104.507 .0243386
1105.096 .0243309
1105.686 .0243238
1106.276 .0243159
1106.867 .0243105
1107.457 .0243049
1108.049 .0243010
1108.640 .0242989
1109.232 .0243000
1109.825 .0243041
1110.417 .0243111
1111.010 .0243224
1111.604 .0243369
1112.198 .0243549
1112.792 .0243769
1113.387 .0244016
1113.982 .0244286
1114.577 .0244586
1115.173 .0244902
1115.769 .0245220
1116.366 .0245549
1116.963 .0245849
1117.561 .0246116
1118.159 .0246342
1118.758 .0246532
1119.357 .0246681
1119.957 .0246813
1120.557 .0246943
1121.157 .0247059
1121.758 .0247199
1122.360 .0247356
1122.962 .0247504
1123.564 .0247652
1124.167 .0247817
1124.771 .0247973
1125.375 .0248119
1125.980 .0248280
1126.585 .0248431
1127.191 .0248612
1127.797 .0248837
1128.404 .0249078
1129.012 .0249344
1129.620 .0249621
1130.229 .0249907
1130.838 .0250172
1131.448 .0250403
1132.058 .0250602
1132.669 .0250781
1133.281 .0250973
1133.894 .0251158
1134.507 .0251330
1135.120 .0251551
1135.735 .0251780
1136.350 .0252047
1136.965 .0252335
1137.582 .0252627
1138.199 .0252949
1138.816 .0253316
1139.435 .0253679
1140.054 .0254107
1140.674 .0254548
1141.294 .0255085
1141.916 .0255882
1142.538 .0255303
1143.160 .0257244
1143.784 .0256728
1144.408 .0258986
1145.033 .0265854
