Measurement Sequence started on: 14-45-04-498
Integration time: 36
Scans to Average: 2 
>>>>>Begin Spectral Data<<<<<
433.946 .0591387
434.870 .0563981
435.793 .0541871
436.715 .0543800
437.635 .0518925
438.555 .0519770
439.473 .0511737
440.389 .0505756
441.305 .0501297
442.219 .0497497
443.132 .0494816
444.044 .0492528
444.954 .0490562
445.863 .0488871
446.771 .0487483
447.678 .0486426
448.584 .0485831
449.488 .0485606
450.391 .0485587
451.293 .0485707
452.194 .0485821
453.094 .0485762
453.992 .0485458
454.890 .0484857
455.786 .0484025
456.681 .0483068
457.575 .0482052
458.468 .0481018
459.360 .0480043
460.250 .0479178
461.140 .0478276
462.028 .0477316
462.915 .0476203
463.801 .0474895
464.687 .0473353
465.571 .0471651
466.454 .0469811
467.335 .0467982
468.216 .0466271
469.096 .0464722
469.975 .0463387
470.853 .0462261
471.729 .0461250
472.605 .0460309
473.479 .0459365
474.353 .0458395
475.226 .0457321
476.097 .0456263
476.968 .0455242
477.838 .0454307
478.706 .0453515
479.574 .0452870
480.441 .0452388
481.306 .0452024
482.171 .0451699
483.035 .0451341
483.898 .0450952
484.760 .0450489
485.621 .0449972
486.481 .0449409
487.340 .0448841
488.198 .0448304
489.055 .0447805
489.912 .0447360
490.767 .0446955
491.622 .0446570
492.476 .0446197
493.329 .0445802
494.180 .0445409
495.032 .0444953
495.882 .0444500
496.731 .0444033
497.580 .0443548
498.427 .0443039
499.274 .0442530
500.120 .0442008
500.965 .0441491
501.809 .0440968
502.653 .0440406
503.495 .0439798
504.337 .0439154
505.178 .0438425
506.018 .0437618
506.858 .0436738
507.696 .0435823
508.534 .0434874
509.371 .0433934
510.208 .0433055
511.043 .0432247
511.878 .0431532
512.712 .0430943
513.545 .0430450
514.377 .0430023
515.209 .0429663
516.040 .0429380
516.870 .0429213
517.699 .0429203
518.528 .0429365
519.356 .0429710
520.183 .0430242
521.010 .0430904
521.836 .0431589
522.661 .0432249
523.485 .0432826
524.309 .0433200
525.132 .0433396
525.954 .0433425
526.776 .0433328
527.597 .0433172
528.417 .0432986
529.237 .0432810
530.056 .0432554
530.874 .0432172
531.692 .0431609
532.508 .0430815
533.325 .0429766
534.140 .0428470
534.955 .0427012
535.770 .0425465
536.583 .0423909
537.397 .0422485
538.209 .0421165
539.021 .0419960
539.832 .0418788
540.643 .0417531
541.453 .0416175
542.262 .0414721
543.071 .0413147
543.879 .0411575
544.687 .0410082
545.494 .0408724
546.300 .0407522
547.106 .0406582
547.911 .0405854
548.716 .0405318
549.520 .0404935
550.323 .0404687
551.126 .0404561
551.929 .0404568
552.731 .0404687
553.532 .0404954
554.332 .0405326
555.133 .0405742
555.932 .0406131
556.731 .0406503
557.530 .0406771
558.328 .0406961
559.125 .0407033
559.922 .0407002
560.719 .0406860
561.515 .0406620
562.310 .0406280
563.105 .0405876
563.899 .0405368
564.693 .0404769
565.487 .0404068
566.280 .0403312
567.072 .0402506
567.864 .0401687
568.655 .0400880
569.446 .0400124
570.236 .0399394
571.026 .0398706
571.816 .0398050
572.605 .0397446
573.393 .0396878
574.181 .0396322
574.969 .0395780
575.756 .0395263
576.543 .0394777
577.329 .0394327
578.115 .0393891
578.900 .0393484
579.685 .0393068
580.469 .0392641
581.253 .0392211
582.036 .0391758
582.820 .0391283
583.602 .0390790
584.384 .0390270
585.166 .0389739
585.947 .0389213
586.728 .0388717
587.509 .0388263
588.289 .0387884
589.069 .0387565
589.848 .0387309
590.627 .0387092
591.405 .0386906
592.183 .0386732
592.961 .0386561
593.738 .0386381
594.515 .0386204
595.291 .0386034
596.067 .0385892
596.843 .0385770
597.618 .0385687
598.393 .0385618
599.167 .0385569
599.941 .0385491
600.715 .0385386
601.488 .0385243
602.261 .0385058
603.034 .0384836
603.806 .0384604
604.578 .0384364
605.349 .0384139
606.121 .0383932
606.891 .0383744
607.662 .0383565
608.432 .0383404
609.201 .0383241
609.971 .0383086
610.740 .0382940
611.508 .0382805
612.277 .0382678
613.045 .0382578
613.812 .0382500
614.579 .0382434
615.346 .0382385
616.113 .0382335
616.879 .0382279
617.645 .0382223
618.411 .0382148
619.176 .0382063
619.941 .0381979
620.705 .0381894
621.470 .0381809
622.233 .0381724
622.997 .0381639
623.760 .0381539
624.523 .0381435
625.286 .0381313
626.048 .0381172
626.810 .0381017
627.572 .0380854
628.333 .0380682
629.095 .0380514
629.855 .0380349
630.616 .0380193
631.376 .0380054
632.136 .0379934
632.895 .0379820
633.655 .0379716
634.414 .0379609
635.172 .0379504
635.931 .0379390
636.689 .0379270
637.447 .0379138
638.204 .0378998
638.962 .0378856
639.718 .0378711
640.475 .0378561
641.231 .0378418
641.988 .0378279
642.743 .0378147
643.499 .0378012
644.254 .0377881
645.009 .0377746
645.764 .0377618
646.518 .0377489
647.272 .0377360
648.026 .0377222
648.780 .0377076
649.533 .0376922
650.286 .0376766
651.039 .0376608
651.792 .0376447
652.544 .0376285
653.296 .0376130
654.048 .0375970
654.799 .0375807
655.550 .0375633
656.301 .0375447
657.052 .0375241
657.802 .0375015
658.552 .0374767
659.302 .0374507
660.052 .0374248
660.801 .0373992
661.550 .0373748
662.299 .0373523
663.048 .0373311
663.796 .0373123
664.544 .0372949
665.292 .0372786
666.040 .0372627
666.787 .0372475
667.534 .0372318
668.281 .0372157
669.028 .0371993
669.774 .0371825
670.521 .0371650
671.266 .0371473
672.012 .0371295
672.758 .0371116
673.503 .0370938
674.248 .0370765
674.992 .0370592
675.737 .0370423
676.481 .0370249
677.225 .0370077
677.969 .0369905
678.712 .0369734
679.455 .0369561
680.199 .0369388
680.941 .0369219
681.684 .0369058
682.426 .0368891
683.168 .0368726
683.910 .0368557
684.652 .0368379
685.393 .0368191
686.134 .0367996
686.875 .0367792
687.616 .0367579
688.356 .0367358
689.097 .0367127
689.837 .0366885
690.576 .0366640
691.316 .0366389
692.055 .0366138
692.794 .0365890
693.533 .0365647
694.272 .0365410
695.010 .0365189
695.748 .0364980
696.486 .0364778
697.224 .0364586
697.962 .0364394
698.699 .0364201
699.436 .0364006
700.173 .0363808
700.909 .0363607
701.646 .0363408
702.382 .0363211
703.118 .0363014
703.853 .0362824
704.589 .0362637
705.324 .0362460
706.059 .0362290
706.794 .0362124
707.529 .0361963
708.263 .0361808
708.997 .0361658
709.731 .0361503
710.465 .0361350
711.198 .0361196
711.931 .0361040
712.664 .0360882
713.397 .0360726
714.130 .0360574
714.862 .0360426
715.594 .0360282
716.326 .0360140
717.058 .0360000
717.789 .0359861
718.520 .0359716
719.251 .0359567
719.982 .0359407
720.713 .0359243
721.443 .0359073
722.173 .0358903
722.903 .0358735
723.633 .0358570
724.362 .0358411
725.091 .0358256
725.820 .0358105
726.549 .0357958
727.278 .0357812
728.006 .0357664
728.734 .0357507
729.462 .0357344
730.190 .0357175
730.917 .0357004
731.644 .0356831
732.371 .0356659
733.098 .0356488
733.825 .0356321
734.551 .0356157
735.277 .0355997
736.003 .0355842
736.728 .0355695
737.454 .0355558
738.179 .0355427
738.904 .0355305
739.629 .0355192
740.353 .0355087
741.077 .0354987
741.801 .0354887
742.525 .0354779
743.249 .0354665
743.972 .0354542
744.695 .0354413
745.418 .0354276
746.141 .0354139
746.863 .0353998
747.585 .0353860
748.307 .0353719
749.029 .0353571
749.750 .0353408
750.472 .0353234
751.193 .0353042
751.913 .0352836
752.634 .0352619
753.354 .0352401
754.074 .0352185
754.794 .0351983
755.514 .0351789
756.233 .0351609
756.952 .0351440
757.671 .0351283
758.390 .0351127
759.108 .0350978
759.826 .0350829
760.544 .0350685
761.262 .0350549
761.979 .0350419
762.697 .0350290
763.414 .0350166
764.130 .0350040
764.847 .0349912
765.563 .0349782
766.279 .0349652
766.995 .0349521
767.710 .0349392
768.426 .0349271
769.141 .0349158
769.855 .0349048
770.570 .0348946
771.284 .0348847
771.998 .0348750
772.712 .0348654
773.426 .0348558
774.139 .0348466
774.852 .0348376
775.565 .0348294
776.277 .0348210
776.990 .0348129
777.702 .0348046
778.414 .0347961
779.125 .0347874
779.836 .0347787
780.547 .0347695
781.258 .0347603
781.969 .0347514
782.679 .0347426
783.389 .0347338
784.099 .0347250
784.808 .0347157
785.517 .0347062
786.226 .0346960
786.935 .0346860
787.643 .0346759
788.352 .0346667
789.060 .0346580
789.767 .0346499
790.475 .0346416
791.182 .0346326
791.889 .0346228
792.595 .0346116
793.301 .0345987
794.008 .0345840
794.713 .0345678
795.419 .0345508
796.124 .0345335
796.829 .0345164
797.534 .0344998
798.238 .0344837
798.942 .0344676
799.646 .0344513
800.350 .0344341
801.053 .0344158
801.756 .0343967
802.459 .0343766
803.162 .0343558
803.864 .0343347
804.566 .0343139
805.267 .0342933
805.969 .0342736
806.670 .0342546
807.371 .0342359
808.071 .0342178
808.772 .0341995
809.472 .0341804
810.171 .0341614
810.871 .0341424
811.570 .0341235
812.269 .0341050
812.967 .0340875
813.666 .0340706
814.364 .0340546
815.061 .0340392
815.759 .0340246
816.456 .0340099
817.153 .0339954
817.849 .0339802
818.545 .0339646
819.241 .0339486
819.937 .0339322
820.632 .0339152
821.327 .0338980
822.022 .0338800
822.717 .0338616
823.411 .0338426
824.105 .0338239
824.798 .0338053
825.491 .0337868
826.184 .0337684
826.877 .0337500
827.569 .0337317
828.261 .0337132
828.953 .0336943
829.645 .0336751
830.336 .0336553
831.027 .0336356
831.717 .0336159
832.407 .0335971
833.097 .0335794
833.787 .0335625
834.476 .0335466
835.165 .0335315
835.854 .0335170
836.542 .0335035
837.230 .0334904
837.918 .0334787
838.605 .0334682
839.292 .0334592
839.979 .0334518
840.665 .0334467
841.352 .0334436
842.037 .0334418
842.723 .0334406
843.408 .0334397
844.093 .0334380
844.777 .0334357
845.462 .0334322
846.145 .0334275
846.829 .0334216
847.512 .0334144
848.195 .0334057
848.878 .0333959
849.560 .0333845
850.242 .0333713
850.923 .0333563
851.605 .0333396
852.286 .0333210
852.966 .0333008
853.646 .0332802
854.326 .0332594
855.006 .0332383
855.685 .0332173
856.364 .0331962
857.043 .0331751
857.721 .0331540
858.399 .0331325
859.077 .0331102
859.754 .0330869
860.431 .0330634
861.107 .0330390
861.784 .0330142
862.459 .0329899
863.135 .0329658
863.810 .0329423
864.485 .0329200
865.160 .0328983
865.834 .0328776
866.508 .0328587
867.181 .0328411
867.854 .0328242
868.527 .0328083
869.199 .0327927
869.872 .0327776
870.543 .0327628
871.215 .0327481
871.886 .0327329
872.557 .0327182
873.227 .0327038
873.897 .0326891
874.567 .0326747
875.236 .0326600
875.905 .0326449
876.573 .0326292
877.242 .0326122
877.909 .0325936
878.577 .0325739
879.244 .0325528
879.911 .0325305
880.577 .0325074
881.243 .0324841
881.909 .0324608
882.575 .0324382
883.240 .0324161
883.904 .0323945
884.569 .0323731
885.232 .0323517
885.896 .0323295
886.559 .0323069
887.222 .0322835
887.885 .0322598
888.547 .0322366
889.208 .0322138
889.870 .0321920
890.531 .0321718
891.192 .0321526
891.852 .0321348
892.512 .0321181
893.171 .0321019
893.830 .0320867
894.489 .0320721
895.148 .0320580
895.806 .0320449
896.464 .0320337
897.121 .0320237
897.778 .0320151
898.434 .0320073
899.091 .0320001
899.747 .0319927
900.402 .0319855
901.057 .0319776
901.712 .0319691
902.366 .0319606
903.020 .0319516
903.674 .0319419
904.327 .0319329
904.980 .0319234
905.633 .0319144
906.285 .0319056
906.936 .0318965
907.588 .0318868
908.239 .0318772
908.889 .0318677
909.540 .0318578
910.190 .0318478
910.839 .0318372
911.488 .0318263
912.137 .0318152
912.785 .0318038
913.433 .0317921
914.081 .0317808
914.728 .0317702
915.375 .0317591
916.021 .0317483
916.668 .0317371
917.313 .0317252
917.959 .0317128
918.604 .0316991
919.248 .0316846
919.892 .0316696
920.536 .0316547
921.180 .0316398
921.823 .0316258
922.465 .0316123
923.108 .0315990
923.750 .0315859
924.391 .0315731
925.032 .0315600
925.673 .0315464
926.313 .0315336
926.953 .0315205
927.593 .0315074
928.232 .0314950
928.871 .0314821
929.510 .0314692
930.148 .0314560
930.786 .0314424
931.423 .0314279
932.060 .0314132
932.697 .0313980
933.333 .0313818
933.969 .0313654
934.604 .0313484
935.239 .0313304
935.874 .0313120
936.508 .0312936
937.142 .0312747
937.776 .0312566
938.409 .0312393
939.042 .0312222
939.674 .0312057
940.306 .0311893
940.938 .0311726
941.569 .0311555
942.200 .0311381
942.830 .0311202
943.460 .0311020
944.090 .0310840
944.720 .0310661
945.349 .0310484
945.977 .0310312
946.606 .0310135
947.233 .0309951
947.861 .0309753
948.488 .0309537
949.115 .0309307
949.741 .0309073
950.367 .0308837
950.993 .0308607
951.618 .0308385
952.243 .0308172
952.868 .0307965
953.492 .0307761
954.115 .0307550
954.739 .0307333
955.362 .0307112
955.984 .0306880
956.607 .0306639
957.229 .0306402
957.850 .0306163
958.471 .0305928
959.092 .0305691
959.713 .0305450
960.333 .0305199
960.952 .0304942
961.572 .0304682
962.191 .0304422
962.809 .0304165
963.428 .0303916
964.045 .0303673
964.663 .0303444
965.280 .0303224
965.897 .0303010
966.513 .0302809
967.129 .0302616
967.745 .0302428
968.361 .0302250
968.976 .0302082
969.590 .0301925
970.205 .0301779
970.818 .0301646
971.432 .0301524
972.045 .0301406
972.658 .0301290
973.271 .0301171
973.883 .0301048
974.495 .0300916
975.106 .0300775
975.717 .0300631
976.328 .0300483
976.938 .0300330
977.548 .0300179
978.158 .0300033
978.768 .0299892
979.377 .0299756
979.985 .0299616
980.594 .0299475
981.202 .0299331
981.809 .0299176
982.417 .0299019
983.024 .0298864
983.631 .0298713
984.237 .0298569
984.843 .0298439
985.449 .0298321
986.054 .0298213
986.659 .0298120
987.264 .0298039
987.868 .0297969
988.472 .0297912
989.076 .0297864
989.679 .0297827
990.282 .0297808
990.885 .0297799
991.487 .0297801
992.090 .0297814
992.691 .0297834
993.293 .0297857
993.894 .0297882
994.495 .0297909
995.095 .0297931
995.696 .0297950
996.296 .0297963
996.895 .0297965
997.494 .0297960
998.093 .0297954
998.692 .0297946
999.291 .0297940
999.889 .0297939
1000.487 .0297941
1001.084 .0297946
1001.681 .0297951
1002.278 .0297952
1002.875 .0297947
1003.471 .0297939
1004.067 .0297928
1004.663 .0297913
1005.258 .0297903
1005.854 .0297902
1006.449 .0297909
1007.043 .0297928
1007.638 .0297960
1008.232 .0298002
1008.826 .0298052
1009.419 .0298111
1010.012 .0298174
1010.605 .0298242
1011.198 .0298315
1011.791 .0298388
1012.383 .0298461
1012.975 .0298532
1013.566 .0298598
1014.158 .0298655
1014.749 .0298712
1015.340 .0298762
1015.931 .0298802
1016.521 .0298841
1017.111 .0298875
1017.701 .0298898
1018.291 .0298911
1018.880 .0298915
1019.470 .0298907
1020.059 .0298886
1020.647 .0298854
1021.236 .0298816
1021.824 .0298779
1022.412 .0298759
1023.000 .0298750
1023.588 .0298761
1024.175 .0298798
1024.762 .0298845
1025.349 .0298901
1025.936 .0298962
1026.523 .0299017
1027.109 .0299061
1027.695 .0299100
1028.281 .0299137
1028.867 .0299170
1029.452 .0299219
1030.038 .0299286
1030.623 .0299366
1031.208 .0299459
1031.792 .0299557
1032.377 .0299644
1032.961 .0299719
1033.546 .0299776
1034.130 .0299811
1034.714 .0299837
1035.297 .0299862
1035.881 .0299884
1036.464 .0299911
1037.047 .0299950
1037.630 .0299983
1038.213 .0300012
1038.796 .0300030
1039.378 .0300026
1039.961 .0299994
1040.543 .0299942
1041.125 .0299862
1041.707 .0299764
1042.289 .0299648
1042.871 .0299528
1043.452 .0299395
1044.034 .0299256
1044.615 .0299102
1045.196 .0298945
1045.777 .0298789
1046.358 .0298633
1046.939 .0298468
1047.520 .0298311
1048.101 .0298146
1048.681 .0297981
1049.262 .0297802
1049.842 .0297621
1050.422 .0297437
1051.002 .0297254
1051.582 .0297064
1052.162 .0296876
1052.742 .0296681
1053.322 .0296488
1053.902 .0296288
1054.482 .0296092
1055.061 .0295887
1055.641 .0295682
1056.220 .0295482
1056.800 .0295296
1057.379 .0295131
1057.958 .0294997
1058.538 .0294886
1059.117 .0294801
1059.696 .0294730
1060.275 .0294667
1060.854 .0294596
1061.433 .0294527
1062.012 .0294457
1062.592 .0294394
1063.171 .0294351
1063.750 .0294330
1064.329 .0294326
1064.908 .0294339
1065.487 .0294353
1066.066 .0294353
1066.645 .0294325
1067.224 .0294264
1067.803 .0294152
1068.382 .0294009
1068.961 .0293845
1069.540 .0293666
1070.119 .0293482
1070.698 .0293317
1071.278 .0293148
1071.857 .0292963
1072.436 .0292763
1073.016 .0292534
1073.595 .0292278
1074.175 .0292010
1074.754 .0291735
1075.334 .0291464
1075.913 .0291215
1076.493 .0291001
1077.073 .0290804
1077.653 .0290632
1078.233 .0290466
1078.813 .0290276
1079.393 .0290073
1079.974 .0289865
1080.554 .0289644
1081.135 .0289439
1081.716 .0289292
1082.296 .0289206
1082.877 .0289178
1083.458 .0289209
1084.040 .0289285
1084.621 .0289381
1085.202 .0289485
1085.784 .0289590
1086.366 .0289690
1086.948 .0289801
1087.530 .0289924
1088.112 .0290053
1088.695 .0290202
1089.277 .0290370
1089.860 .0290524
1090.443 .0290656
1091.026 .0290778
1091.610 .0290870
1092.193 .0290920
1092.777 .0290949
1093.361 .0290987
1093.946 .0291012
1094.530 .0291044
1095.115 .0291068
1095.700 .0291062
1096.285 .0291040
1096.871 .0290993
1097.456 .0290923
1098.042 .0290858
1098.628 .0290831
1099.215 .0290830
1099.802 .0290886
1100.389 .0291015
1100.976 .0291180
1101.564 .0291369
1102.152 .0291549
1102.740 .0291686
1103.329 .0291751
1103.917 .0291761
1104.507 .0291720
1105.096 .0291643
1105.686 .0291579
1106.276 .0291525
1106.867 .0291497
1107.457 .0291501
1108.049 .0291518
1108.640 .0291539
1109.232 .0291546
1109.825 .0291523
1110.417 .0291479
1111.010 .0291432
1111.604 .0291409
1112.198 .0291442
1112.792 .0291552
1113.387 .0291744
1113.982 .0292007
1114.577 .0292342
1115.173 .0292732
1115.769 .0293146
1116.366 .0293552
1116.963 .0293942
1117.561 .0294318
1118.159 .0294662
1118.758 .0294965
1119.357 .0295232
1119.957 .0295474
1120.557 .0295677
1121.157 .0295833
1121.758 .0295951
1122.360 .0296055
1122.962 .0296156
1123.564 .0296232
1124.167 .0296305
1124.771 .0296351
1125.375 .0296393
1125.980 .0296418
1126.585 .0296482
1127.191 .0296556
1127.797 .0296659
1128.404 .0296798
1129.012 .0296980
1129.620 .0297219
1130.229 .0297526
1130.838 .0297861
1131.448 .0298223
1132.058 .0298588
1132.669 .0298960
1133.281 .0299315
1133.894 .0299715
1134.507 .0300169
1135.120 .0300686
1135.735 .0301239
1136.350 .0301851
1136.965 .0302445
1137.582 .0303060
1138.199 .0303675
1138.816 .0304252
1139.435 .0304789
1140.054 .0305369
1140.674 .0305951
1141.294 .0306435
1141.916 .0307006
1142.538 .0307472
1143.160 .0309918
1143.784 .0309440
1144.408 .0306265
1145.033 .0310253
