Measurement Sequence started on: 14-45-04-498
Integration time: 36
Scans to Average: 2 
>>>>>Begin Spectral Data<<<<<
433.946 .0542599
434.870 .0566547
435.793 .0467564
436.715 .0468077
437.635 .0430764
438.555 .0446581
439.473 .0435078
440.389 .0425610
441.305 .0420463
442.219 .0415933
443.132 .0412826
444.044 .0409919
444.954 .0407669
445.863 .0405992
446.771 .0404771
447.678 .0403831
448.584 .0403400
449.488 .0403201
450.391 .0402980
451.293 .0402820
452.194 .0402759
453.094 .0402591
453.992 .0402408
454.890 .0402206
455.786 .0402143
456.681 .0402205
457.575 .0402429
458.468 .0402612
459.360 .0402850
460.250 .0403048
461.140 .0403112
462.028 .0403103
462.915 .0403010
463.801 .0402676
464.687 .0402152
465.571 .0401491
466.454 .0400674
467.335 .0399696
468.216 .0398624
469.096 .0397449
469.975 .0396206
470.853 .0394882
471.729 .0393457
472.605 .0391970
473.479 .0390479
474.353 .0388932
475.226 .0387335
476.097 .0385743
476.968 .0384174
477.838 .0382627
478.706 .0381203
479.574 .0379874
480.441 .0378675
481.306 .0377600
482.171 .0376625
483.035 .0375733
483.898 .0374938
484.760 .0374200
485.621 .0373529
486.481 .0372933
487.340 .0372400
488.198 .0371922
489.055 .0371507
489.912 .0371128
490.767 .0370767
491.622 .0370426
492.476 .0370109
493.329 .0369749
494.180 .0369420
495.032 .0369077
495.882 .0368730
496.731 .0368421
497.580 .0368145
498.427 .0367884
499.274 .0367630
500.120 .0367350
500.965 .0367039
501.809 .0366714
502.653 .0366381
503.495 .0366042
504.337 .0365755
505.178 .0365486
506.018 .0365216
506.858 .0364906
507.696 .0364610
508.534 .0364257
509.371 .0363870
510.208 .0363453
511.043 .0362990
511.878 .0362513
512.712 .0361999
513.545 .0361487
514.377 .0361006
515.209 .0360501
516.040 .0360004
516.870 .0359472
517.699 .0358933
518.528 .0358329
519.356 .0357693
520.183 .0357001
521.010 .0356279
521.836 .0355547
522.661 .0354841
523.485 .0354176
524.309 .0353608
525.132 .0353140
525.954 .0352731
526.776 .0352388
527.597 .0352106
528.417 .0351805
529.237 .0351536
530.056 .0351157
530.874 .0350722
531.692 .0350202
532.508 .0349612
533.325 .0348942
534.140 .0348206
534.955 .0347439
535.770 .0346654
536.583 .0345845
537.397 .0345127
538.209 .0344476
539.021 .0343973
539.832 .0343516
540.643 .0343102
541.453 .0342669
542.262 .0342236
543.071 .0341772
543.879 .0341358
544.687 .0340976
545.494 .0340667
546.300 .0340468
547.106 .0340389
547.911 .0340410
548.716 .0340573
549.520 .0340778
550.323 .0340981
551.126 .0341078
551.929 .0341032
552.731 .0340807
553.532 .0340437
554.332 .0339970
555.133 .0339438
555.932 .0338923
556.731 .0338453
557.530 .0338017
558.328 .0337715
559.125 .0337579
559.922 .0337543
560.719 .0337618
561.515 .0337814
562.310 .0338077
563.105 .0338399
563.899 .0338747
564.693 .0339146
565.487 .0339515
566.280 .0339789
567.072 .0339924
567.864 .0339877
568.655 .0339679
569.446 .0339351
570.236 .0338882
571.026 .0338351
571.816 .0337759
572.605 .0337102
573.393 .0336434
574.181 .0335800
574.969 .0335158
575.756 .0334497
576.543 .0333829
577.329 .0333173
578.115 .0332502
578.900 .0331894
579.685 .0331360
580.469 .0330932
581.253 .0330620
582.036 .0330377
582.820 .0330187
583.602 .0330064
584.384 .0329948
585.166 .0329804
585.947 .0329622
586.728 .0329410
587.509 .0329140
588.289 .0328845
589.069 .0328553
589.848 .0328285
590.627 .0328042
591.405 .0327829
592.183 .0327630
592.961 .0327446
593.738 .0327262
594.515 .0327086
595.291 .0326907
596.067 .0326727
596.843 .0326543
597.618 .0326353
598.393 .0326174
599.167 .0326010
599.941 .0325855
600.715 .0325710
601.488 .0325578
602.261 .0325453
603.034 .0325322
603.806 .0325192
604.578 .0325058
605.349 .0324917
606.121 .0324771
606.891 .0324615
607.662 .0324448
608.432 .0324285
609.201 .0324122
609.971 .0323965
610.740 .0323831
611.508 .0323707
612.277 .0323592
613.045 .0323475
613.812 .0323350
614.579 .0323206
615.346 .0323046
616.113 .0322868
616.879 .0322672
617.645 .0322467
618.411 .0322260
619.176 .0322047
619.941 .0321851
620.705 .0321655
621.470 .0321463
622.233 .0321266
622.997 .0321059
623.760 .0320834
624.523 .0320599
625.286 .0320358
626.048 .0320115
626.810 .0319880
627.572 .0319658
628.333 .0319439
629.095 .0319243
629.855 .0319060
630.616 .0318886
631.376 .0318718
632.136 .0318550
632.895 .0318364
633.655 .0318165
634.414 .0317952
635.172 .0317726
635.931 .0317494
636.689 .0317263
637.447 .0317026
638.204 .0316786
638.962 .0316557
639.718 .0316338
640.475 .0316119
641.231 .0315910
641.988 .0315698
642.743 .0315486
643.499 .0315280
644.254 .0315078
645.009 .0314895
645.764 .0314741
646.518 .0314619
647.272 .0314516
648.026 .0314438
648.780 .0314376
649.533 .0314323
650.286 .0314274
651.039 .0314230
651.792 .0314184
652.544 .0314142
653.296 .0314105
654.048 .0314077
654.799 .0314051
655.550 .0314023
656.301 .0313983
657.052 .0313937
657.802 .0313868
658.552 .0313777
659.302 .0313664
660.052 .0313541
660.801 .0313409
661.550 .0313268
662.299 .0313117
663.048 .0312960
663.796 .0312795
664.544 .0312616
665.292 .0312420
666.040 .0312220
666.787 .0312017
667.534 .0311812
668.281 .0311607
669.028 .0311410
669.774 .0311217
670.521 .0311036
671.266 .0310860
672.012 .0310699
672.758 .0310541
673.503 .0310390
674.248 .0310247
674.992 .0310110
675.737 .0309987
676.481 .0309876
677.225 .0309774
677.969 .0309678
678.712 .0309585
679.455 .0309493
680.199 .0309393
680.941 .0309303
681.684 .0309214
682.426 .0309127
683.168 .0309041
683.910 .0308960
684.652 .0308877
685.393 .0308802
686.134 .0308734
686.875 .0308670
687.616 .0308621
688.356 .0308576
689.097 .0308534
689.837 .0308493
690.576 .0308449
691.316 .0308394
692.055 .0308320
692.794 .0308232
693.533 .0308124
694.272 .0308007
695.010 .0307888
695.748 .0307770
696.486 .0307661
697.224 .0307560
697.962 .0307461
698.699 .0307354
699.436 .0307239
700.173 .0307104
700.909 .0306952
701.646 .0306784
702.382 .0306607
703.118 .0306433
703.853 .0306269
704.589 .0306121
705.324 .0305998
706.059 .0305898
706.794 .0305805
707.529 .0305715
708.263 .0305614
708.997 .0305493
709.731 .0305347
710.465 .0305179
711.198 .0305000
711.931 .0304818
712.664 .0304640
713.397 .0304467
714.130 .0304303
714.862 .0304147
715.594 .0303985
716.326 .0303819
717.058 .0303649
717.789 .0303473
718.520 .0303289
719.251 .0303110
719.982 .0302941
720.713 .0302792
721.443 .0302658
722.173 .0302543
722.903 .0302443
723.633 .0302347
724.362 .0302248
725.091 .0302143
725.820 .0302036
726.549 .0301925
727.278 .0301808
728.006 .0301692
728.734 .0301577
729.462 .0301463
730.190 .0301346
730.917 .0301224
731.644 .0301091
732.371 .0300943
733.098 .0300782
733.825 .0300609
734.551 .0300435
735.277 .0300261
736.003 .0300095
736.728 .0299942
737.454 .0299804
738.179 .0299679
738.904 .0299572
739.629 .0299475
740.353 .0299389
741.077 .0299313
741.801 .0299248
742.525 .0299190
743.249 .0299141
743.972 .0299104
744.695 .0299078
745.418 .0299052
746.141 .0299029
746.863 .0298997
747.585 .0298963
748.307 .0298909
749.029 .0298833
749.750 .0298733
750.472 .0298608
751.193 .0298455
751.913 .0298277
752.634 .0298081
753.354 .0297869
754.074 .0297642
754.794 .0297412
755.514 .0297181
756.233 .0296953
756.952 .0296726
757.671 .0296520
758.390 .0296325
759.108 .0296150
759.826 .0295989
760.544 .0295851
761.262 .0295736
761.979 .0295634
762.697 .0295541
763.414 .0295453
764.130 .0295382
764.847 .0295317
765.563 .0295248
766.279 .0295188
766.995 .0295129
767.710 .0295066
768.426 .0294998
769.141 .0294923
769.855 .0294835
770.570 .0294732
771.284 .0294613
771.998 .0294477
772.712 .0294339
773.426 .0294202
774.139 .0294067
774.852 .0293943
775.565 .0293827
776.277 .0293711
776.990 .0293594
777.702 .0293478
778.414 .0293350
779.125 .0293208
779.836 .0293055
780.547 .0292892
781.258 .0292722
781.969 .0292554
782.679 .0292387
783.389 .0292229
784.099 .0292078
784.808 .0291923
785.517 .0291768
786.226 .0291615
786.935 .0291463
787.643 .0291312
788.352 .0291170
789.060 .0291039
789.767 .0290919
790.475 .0290812
791.182 .0290716
791.889 .0290626
792.595 .0290540
793.301 .0290450
794.008 .0290348
794.713 .0290241
795.419 .0290126
796.124 .0290003
796.829 .0289878
797.534 .0289751
798.238 .0289625
798.942 .0289497
799.646 .0289376
800.350 .0289256
801.053 .0289143
801.756 .0289031
802.459 .0288915
803.162 .0288800
803.864 .0288681
804.566 .0288557
805.267 .0288429
805.969 .0288301
806.670 .0288178
807.371 .0288067
808.071 .0287976
808.772 .0287907
809.472 .0287860
810.171 .0287831
810.871 .0287810
811.570 .0287786
812.269 .0287752
812.967 .0287696
813.666 .0287624
814.364 .0287537
815.061 .0287441
815.759 .0287348
816.456 .0287267
817.153 .0287204
817.849 .0287155
818.545 .0287116
819.241 .0287079
819.937 .0287037
820.632 .0286981
821.327 .0286899
822.022 .0286796
822.717 .0286678
823.411 .0286544
824.105 .0286398
824.798 .0286245
825.491 .0286084
826.184 .0285918
826.877 .0285746
827.569 .0285563
828.261 .0285372
828.953 .0285177
829.645 .0284975
830.336 .0284768
831.027 .0284558
831.717 .0284346
832.407 .0284134
833.097 .0283921
833.787 .0283705
834.476 .0283485
835.165 .0283269
835.854 .0283061
836.542 .0282869
837.230 .0282694
837.918 .0282541
838.605 .0282410
839.292 .0282303
839.979 .0282209
840.665 .0282123
841.352 .0282042
842.037 .0281959
842.723 .0281867
843.408 .0281763
844.093 .0281650
844.777 .0281535
845.462 .0281418
846.145 .0281303
846.829 .0281185
847.512 .0281073
848.195 .0280959
848.878 .0280842
849.560 .0280716
850.242 .0280583
850.923 .0280434
851.605 .0280271
852.286 .0280098
852.966 .0279912
853.646 .0279720
854.326 .0279530
855.006 .0279341
855.685 .0279158
856.364 .0278984
857.043 .0278821
857.721 .0278666
858.399 .0278525
859.077 .0278389
859.754 .0278252
860.431 .0278125
861.107 .0277999
861.784 .0277872
862.459 .0277748
863.135 .0277628
863.810 .0277510
864.485 .0277397
865.160 .0277284
865.834 .0277174
866.508 .0277069
867.181 .0276968
867.854 .0276864
868.527 .0276761
869.199 .0276663
869.872 .0276570
870.543 .0276484
871.215 .0276412
871.886 .0276343
872.557 .0276286
873.227 .0276232
873.897 .0276180
874.567 .0276127
875.236 .0276071
875.905 .0276010
876.573 .0275948
877.242 .0275882
877.909 .0275811
878.577 .0275742
879.244 .0275679
879.911 .0275621
880.577 .0275564
881.243 .0275504
881.909 .0275442
882.575 .0275376
883.240 .0275304
883.904 .0275220
884.569 .0275134
885.232 .0275045
885.896 .0274953
886.559 .0274867
887.222 .0274789
887.885 .0274726
888.547 .0274674
889.208 .0274632
889.870 .0274597
890.531 .0274564
891.192 .0274528
891.852 .0274490
892.512 .0274446
893.171 .0274397
893.830 .0274343
894.489 .0274290
895.148 .0274238
895.806 .0274186
896.464 .0274129
897.121 .0274069
897.778 .0273999
898.434 .0273921
899.091 .0273821
899.747 .0273707
900.402 .0273578
901.057 .0273431
901.712 .0273267
902.366 .0273091
903.020 .0272901
903.674 .0272707
904.327 .0272506
904.980 .0272303
905.633 .0272095
906.285 .0271899
906.936 .0271709
907.588 .0271532
908.239 .0271365
908.889 .0271211
909.540 .0271061
910.190 .0270917
910.839 .0270770
911.488 .0270623
912.137 .0270467
912.785 .0270312
913.433 .0270151
914.081 .0269991
914.728 .0269832
915.375 .0269677
916.021 .0269524
916.668 .0269378
917.313 .0269227
917.959 .0269070
918.604 .0268905
919.248 .0268741
919.892 .0268566
920.536 .0268384
921.180 .0268202
921.823 .0268022
922.465 .0267843
923.108 .0267666
923.750 .0267487
924.391 .0267310
925.032 .0267136
925.673 .0266962
926.313 .0266785
926.953 .0266610
927.593 .0266430
928.232 .0266243
928.871 .0266047
929.510 .0265844
930.148 .0265630
930.786 .0265409
931.423 .0265189
932.060 .0264967
932.697 .0264744
933.333 .0264526
933.969 .0264314
934.604 .0264111
935.239 .0263911
935.874 .0263711
936.508 .0263516
937.142 .0263327
937.776 .0263143
938.409 .0262963
939.042 .0262794
939.674 .0262637
940.306 .0262488
940.938 .0262349
941.569 .0262216
942.200 .0262092
942.830 .0261977
943.460 .0261867
944.090 .0261762
944.720 .0261660
945.349 .0261560
945.977 .0261463
946.606 .0261371
947.233 .0261280
947.861 .0261184
948.488 .0261080
949.115 .0260970
949.741 .0260849
950.367 .0260722
950.993 .0260594
951.618 .0260466
952.243 .0260346
952.868 .0260228
953.492 .0260113
954.115 .0260005
954.739 .0259900
955.362 .0259803
955.984 .0259704
956.607 .0259609
957.229 .0259515
957.850 .0259424
958.471 .0259339
959.092 .0259260
959.713 .0259184
960.333 .0259114
960.952 .0259051
961.572 .0258995
962.191 .0258946
962.809 .0258903
963.428 .0258866
964.045 .0258831
964.663 .0258798
965.280 .0258760
965.897 .0258715
966.513 .0258673
967.129 .0258628
967.745 .0258585
968.361 .0258550
968.976 .0258518
969.590 .0258497
970.205 .0258488
970.818 .0258491
971.432 .0258497
972.045 .0258505
972.658 .0258513
973.271 .0258519
973.883 .0258517
974.495 .0258506
975.106 .0258485
975.717 .0258463
976.328 .0258439
976.938 .0258408
977.548 .0258375
978.158 .0258339
978.768 .0258297
979.377 .0258254
979.985 .0258199
980.594 .0258141
981.202 .0258081
981.809 .0258021
982.417 .0257959
983.024 .0257902
983.631 .0257852
984.237 .0257810
984.843 .0257779
985.449 .0257752
986.054 .0257724
986.659 .0257706
987.264 .0257693
987.868 .0257686
988.472 .0257681
989.076 .0257679
989.679 .0257674
990.282 .0257667
990.885 .0257646
991.487 .0257608
992.090 .0257555
992.691 .0257486
993.293 .0257400
993.894 .0257305
994.495 .0257206
995.095 .0257114
995.696 .0257025
996.296 .0256940
996.895 .0256852
997.494 .0256765
998.093 .0256670
998.692 .0256569
999.291 .0256459
999.889 .0256342
1000.487 .0256220
1001.084 .0256101
1001.681 .0255983
1002.278 .0255867
1002.875 .0255760
1003.471 .0255653
1004.067 .0255541
1004.663 .0255432
1005.258 .0255315
1005.854 .0255199
1006.449 .0255080
1007.043 .0254962
1007.638 .0254844
1008.232 .0254731
1008.826 .0254624
1009.419 .0254527
1010.012 .0254442
1010.605 .0254368
1011.198 .0254300
1011.791 .0254243
1012.383 .0254190
1012.975 .0254139
1013.566 .0254084
1014.158 .0254020
1014.749 .0253939
1015.340 .0253846
1015.931 .0253733
1016.521 .0253616
1017.111 .0253503
1017.701 .0253397
1018.291 .0253303
1018.880 .0253221
1019.470 .0253148
1020.059 .0253079
1020.647 .0253012
1021.236 .0252948
1021.824 .0252872
1022.412 .0252794
1023.000 .0252710
1023.588 .0252633
1024.175 .0252575
1024.762 .0252536
1025.349 .0252521
1025.936 .0252533
1026.523 .0252552
1027.109 .0252566
1027.695 .0252564
1028.281 .0252538
1028.867 .0252484
1029.452 .0252400
1030.038 .0252288
1030.623 .0252163
1031.208 .0252032
1031.792 .0251909
1032.377 .0251798
1032.961 .0251708
1033.546 .0251624
1034.130 .0251551
1034.714 .0251481
1035.297 .0251407
1035.881 .0251326
1036.464 .0251248
1037.047 .0251172
1037.630 .0251102
1038.213 .0251050
1038.796 .0251014
1039.378 .0250999
1039.961 .0251010
1040.543 .0251030
1041.125 .0251060
1041.707 .0251096
1042.289 .0251129
1042.871 .0251152
1043.452 .0251180
1044.034 .0251201
1044.615 .0251203
1045.196 .0251209
1045.777 .0251212
1046.358 .0251211
1046.939 .0251208
1047.520 .0251211
1048.101 .0251221
1048.681 .0251244
1049.262 .0251276
1049.842 .0251303
1050.422 .0251338
1051.002 .0251366
1051.582 .0251370
1052.162 .0251364
1052.742 .0251349
1053.322 .0251328
1053.902 .0251314
1054.482 .0251332
1055.061 .0251367
1055.641 .0251442
1056.220 .0251541
1056.800 .0251650
1057.379 .0251762
1057.958 .0251860
1058.538 .0251936
1059.117 .0251988
1059.696 .0252024
1060.275 .0252047
1060.854 .0252061
1061.433 .0252096
1062.012 .0252121
1062.592 .0252154
1063.171 .0252177
1063.750 .0252180
1064.329 .0252149
1064.908 .0252085
1065.487 .0251979
1066.066 .0251858
1066.645 .0251741
1067.224 .0251632
1067.803 .0251536
1068.382 .0251464
1068.961 .0251426
1069.540 .0251404
1070.119 .0251388
1070.698 .0251399
1071.278 .0251431
1071.857 .0251506
1072.436 .0251616
1073.016 .0251775
1073.595 .0251979
1074.175 .0252216
1074.754 .0252465
1075.334 .0252689
1075.913 .0252883
1076.493 .0253043
1077.073 .0253153
1077.653 .0253232
1078.233 .0253305
1078.813 .0253369
1079.393 .0253450
1079.974 .0253562
1080.554 .0253671
1081.135 .0253760
1081.716 .0253816
1082.296 .0253818
1082.877 .0253752
1083.458 .0253637
1084.040 .0253486
1084.621 .0253306
1085.202 .0253132
1085.784 .0252978
1086.366 .0252839
1086.948 .0252732
1087.530 .0252646
1088.112 .0252556
1088.695 .0252466
1089.277 .0252368
1089.860 .0252248
1090.443 .0252111
1091.026 .0251968
1091.610 .0251824
1092.193 .0251682
1092.777 .0251564
1093.361 .0251456
1093.946 .0251366
1094.530 .0251310
1095.115 .0251289
1095.700 .0251283
1096.285 .0251314
1096.871 .0251360
1097.456 .0251410
1098.042 .0251441
1098.628 .0251451
1099.215 .0251415
1099.802 .0251335
1100.389 .0251221
1100.976 .0251073
1101.564 .0250911
1102.152 .0250762
1102.740 .0250630
1103.329 .0250536
1103.917 .0250479
1104.507 .0250457
1105.096 .0250446
1105.686 .0250468
1106.276 .0250513
1106.867 .0250590
1107.457 .0250703
1108.049 .0250863
1108.640 .0251073
1109.232 .0251322
1109.825 .0251617
1110.417 .0251927
1111.010 .0252258
1111.604 .0252590
1112.198 .0252917
1112.792 .0253215
1113.387 .0253496
1113.982 .0253748
1114.577 .0253965
1115.173 .0254162
1115.769 .0254317
1116.366 .0254413
1116.963 .0254457
1117.561 .0254462
1118.159 .0254443
1118.758 .0254421
1119.357 .0254441
1119.957 .0254494
1120.557 .0254622
1121.157 .0254815
1121.758 .0255046
1122.360 .0255290
1122.962 .0255527
1123.564 .0255698
1124.167 .0255825
1124.771 .0255911
1125.375 .0255962
1125.980 .0256024
1126.585 .0256120
1127.191 .0256286
1127.797 .0256531
1128.404 .0256843
1129.012 .0257211
1129.620 .0257574
1130.229 .0257951
1130.838 .0258288
1131.448 .0258584
1132.058 .0258867
1132.669 .0259116
1133.281 .0259373
1133.894 .0259668
1134.507 .0259988
1135.120 .0260369
1135.735 .0260797
1136.350 .0261268
1136.965 .0261751
1137.582 .0262222
1138.199 .0262676
1138.816 .0263149
1139.435 .0263620
1140.054 .0264085
1140.674 .0264636
1141.294 .0265232
1141.916 .0266132
1142.538 .0265957
1143.160 .0266296
1143.784 .0269737
1144.408 .0268997
1145.033 .0276486
