Measurement Sequence started on: 14-45-04-498
Integration time: 36
Scans to Average: 2 
>>>>>Begin Spectral Data<<<<<
433.946 .0535922
434.870 .0438920
435.793 .0420282
436.715 .0413182
437.635 .0402387
438.555 .0417286
439.473 .0411724
440.389 .0410230
441.305 .0409499
442.219 .0408904
443.132 .0408526
444.044 .0407885
444.954 .0407378
445.863 .0407011
446.771 .0406663
447.678 .0406185
448.584 .0405488
449.488 .0404652
450.391 .0403622
451.293 .0402558
452.194 .0401529
453.094 .0400587
453.992 .0399785
454.890 .0399233
455.786 .0398912
456.681 .0398744
457.575 .0398633
458.468 .0398478
459.360 .0398222
460.250 .0397830
461.140 .0397310
462.028 .0396771
462.915 .0396178
463.801 .0395556
464.687 .0394829
465.571 .0394123
466.454 .0393386
467.335 .0392604
468.216 .0391763
469.096 .0390920
469.975 .0390038
470.853 .0389123
471.729 .0388192
472.605 .0387276
473.479 .0386389
474.353 .0385545
475.226 .0384729
476.097 .0383932
476.968 .0383151
477.838 .0382401
478.706 .0381694
479.574 .0381121
480.441 .0380624
481.306 .0380237
482.171 .0379980
483.035 .0379838
483.898 .0379718
484.760 .0379612
485.621 .0379488
486.481 .0379296
487.340 .0379022
488.198 .0378687
489.055 .0378298
489.912 .0377917
490.767 .0377602
491.622 .0377351
492.476 .0377156
493.329 .0377053
494.180 .0376947
495.032 .0376833
495.882 .0376665
496.731 .0376411
497.580 .0376037
498.427 .0375584
499.274 .0375060
500.120 .0374509
500.965 .0374000
501.809 .0373573
502.653 .0373200
503.495 .0372937
504.337 .0372726
505.178 .0372480
506.018 .0372154
506.858 .0371702
507.696 .0371086
508.534 .0370303
509.371 .0369365
510.208 .0368352
511.043 .0367361
511.878 .0366416
512.712 .0365579
513.545 .0364921
514.377 .0364443
515.209 .0364109
516.040 .0363930
516.870 .0363834
517.699 .0363759
518.528 .0363723
519.356 .0363714
520.183 .0363754
521.010 .0363984
521.836 .0364351
522.661 .0364894
523.485 .0365661
524.309 .0366517
525.132 .0367301
525.954 .0367957
526.776 .0368412
527.597 .0368516
528.417 .0368212
529.237 .0367580
530.056 .0366618
530.874 .0365485
531.692 .0364261
532.508 .0362973
533.325 .0361765
534.140 .0360617
534.955 .0359485
535.770 .0358324
536.583 .0357194
537.397 .0356092
538.209 .0355049
539.021 .0354089
539.832 .0353264
540.643 .0352615
541.453 .0352187
542.262 .0352024
543.071 .0352003
543.879 .0352050
544.687 .0352140
545.494 .0352171
546.300 .0352141
547.106 .0351963
547.911 .0351749
548.716 .0351488
549.520 .0351222
550.323 .0350944
551.126 .0350632
551.929 .0350373
552.731 .0350131
553.532 .0349925
554.332 .0349742
555.133 .0349585
555.932 .0349439
556.731 .0349276
557.530 .0349103
558.328 .0348895
559.125 .0348635
559.922 .0348315
560.719 .0348004
561.515 .0347703
562.310 .0347381
563.105 .0347086
563.899 .0346838
564.693 .0346579
565.487 .0346246
566.280 .0345866
567.072 .0345400
567.864 .0344903
568.655 .0344356
569.446 .0343739
570.236 .0343114
571.026 .0342491
571.816 .0341882
572.605 .0341230
573.393 .0340592
574.181 .0339938
574.969 .0339213
575.756 .0338476
576.543 .0337712
577.329 .0336943
578.115 .0336184
578.900 .0335423
579.685 .0334673
580.469 .0333945
581.253 .0333255
582.036 .0332584
582.820 .0331982
583.602 .0331445
584.384 .0330968
585.166 .0330554
585.947 .0330214
586.728 .0329931
587.509 .0329691
588.289 .0329501
589.069 .0329347
589.848 .0329211
590.627 .0329089
591.405 .0328979
592.183 .0328891
592.961 .0328823
593.738 .0328766
594.515 .0328711
595.291 .0328652
596.067 .0328577
596.843 .0328469
597.618 .0328322
598.393 .0328160
599.167 .0327988
599.941 .0327807
600.715 .0327638
601.488 .0327473
602.261 .0327316
603.034 .0327168
603.806 .0327025
604.578 .0326884
605.349 .0326742
606.121 .0326597
606.891 .0326450
607.662 .0326291
608.432 .0326130
609.201 .0325956
609.971 .0325773
610.740 .0325579
611.508 .0325362
612.277 .0325125
613.045 .0324876
613.812 .0324616
614.579 .0324357
615.346 .0324091
616.113 .0323820
616.879 .0323537
617.645 .0323232
618.411 .0322907
619.176 .0322551
619.941 .0322168
620.705 .0321764
621.470 .0321345
622.233 .0320930
622.997 .0320526
623.760 .0320142
624.523 .0319785
625.286 .0319446
626.048 .0319122
626.810 .0318795
627.572 .0318463
628.333 .0318126
629.095 .0317784
629.855 .0317445
630.616 .0317117
631.376 .0316814
632.136 .0316546
632.895 .0316306
633.655 .0316103
634.414 .0315926
635.172 .0315770
635.931 .0315632
636.689 .0315499
637.447 .0315373
638.204 .0315255
638.962 .0315140
639.718 .0315036
640.475 .0314937
641.231 .0314846
641.988 .0314757
642.743 .0314660
643.499 .0314552
644.254 .0314419
645.009 .0314266
645.764 .0314096
646.518 .0313906
647.272 .0313716
648.026 .0313524
648.780 .0313346
649.533 .0313189
650.286 .0313044
651.039 .0312911
651.792 .0312781
652.544 .0312643
653.296 .0312492
654.048 .0312321
654.799 .0312145
655.550 .0311963
656.301 .0311785
657.052 .0311621
657.802 .0311466
658.552 .0311339
659.302 .0311233
660.052 .0311132
660.801 .0311033
661.550 .0310920
662.299 .0310785
663.048 .0310619
663.796 .0310428
664.544 .0310211
665.292 .0309976
666.040 .0309733
666.787 .0309490
667.534 .0309247
668.281 .0309015
669.028 .0308784
669.774 .0308553
670.521 .0308320
671.266 .0308072
672.012 .0307814
672.758 .0307552
673.503 .0307281
674.248 .0307011
674.992 .0306742
675.737 .0306482
676.481 .0306223
677.225 .0305978
677.969 .0305739
678.712 .0305511
679.455 .0305299
680.199 .0305094
680.941 .0304896
681.684 .0304713
682.426 .0304530
683.168 .0304346
683.910 .0304167
684.652 .0303985
685.393 .0303798
686.134 .0303615
686.875 .0303430
687.616 .0303252
688.356 .0303082
689.097 .0302925
689.837 .0302773
690.576 .0302635
691.316 .0302504
692.055 .0302373
692.794 .0302256
693.533 .0302145
694.272 .0302040
695.010 .0301952
695.748 .0301874
696.486 .0301804
697.224 .0301741
697.962 .0301676
698.699 .0301610
699.436 .0301541
700.173 .0301463
700.909 .0301375
701.646 .0301283
702.382 .0301194
703.118 .0301107
703.853 .0301031
704.589 .0300965
705.324 .0300911
706.059 .0300877
706.794 .0300853
707.529 .0300843
708.263 .0300852
708.997 .0300877
709.731 .0300912
710.465 .0300964
711.198 .0301023
711.931 .0301089
712.664 .0301158
713.397 .0301232
714.130 .0301299
714.862 .0301363
715.594 .0301418
716.326 .0301459
717.058 .0301487
717.789 .0301492
718.520 .0301463
719.251 .0301413
719.982 .0301331
720.713 .0301221
721.443 .0301079
722.173 .0300919
722.903 .0300741
723.633 .0300554
724.362 .0300359
725.091 .0300164
725.820 .0299969
726.549 .0299777
727.278 .0299581
728.006 .0299386
728.734 .0299192
729.462 .0299002
730.190 .0298815
730.917 .0298635
731.644 .0298463
732.371 .0298306
733.098 .0298159
733.825 .0298033
734.551 .0297917
735.277 .0297812
736.003 .0297709
736.728 .0297605
737.454 .0297492
738.179 .0297374
738.904 .0297248
739.629 .0297115
740.353 .0296983
741.077 .0296849
741.801 .0296709
742.525 .0296572
743.249 .0296439
743.972 .0296303
744.695 .0296167
745.418 .0296029
746.141 .0295884
746.863 .0295739
747.585 .0295591
748.307 .0295441
749.029 .0295298
749.750 .0295160
750.472 .0295025
751.193 .0294893
751.913 .0294770
752.634 .0294644
753.354 .0294523
754.074 .0294405
754.794 .0294282
755.514 .0294150
756.233 .0294009
756.952 .0293855
757.671 .0293697
758.390 .0293534
759.108 .0293366
759.826 .0293201
760.544 .0293047
761.262 .0292901
761.979 .0292773
762.697 .0292666
763.414 .0292581
764.130 .0292515
764.847 .0292471
765.563 .0292441
766.279 .0292429
766.995 .0292433
767.710 .0292453
768.426 .0292482
769.141 .0292528
769.855 .0292577
770.570 .0292628
771.284 .0292685
771.998 .0292746
772.712 .0292807
773.426 .0292874
774.139 .0292945
774.852 .0293020
775.565 .0293097
776.277 .0293176
776.990 .0293246
777.702 .0293309
778.414 .0293363
779.125 .0293407
779.836 .0293442
780.547 .0293481
781.258 .0293518
781.969 .0293565
782.679 .0293627
783.389 .0293699
784.099 .0293778
784.808 .0293862
785.517 .0293943
786.226 .0294010
786.935 .0294062
787.643 .0294099
788.352 .0294121
789.060 .0294134
789.767 .0294139
790.475 .0294133
791.182 .0294124
791.889 .0294109
792.595 .0294084
793.301 .0294051
794.008 .0294001
794.713 .0293936
795.419 .0293859
796.124 .0293767
796.829 .0293670
797.534 .0293567
798.238 .0293464
798.942 .0293361
799.646 .0293260
800.350 .0293156
801.053 .0293047
801.756 .0292940
802.459 .0292829
803.162 .0292714
803.864 .0292600
804.566 .0292484
805.267 .0292366
805.969 .0292249
806.670 .0292131
807.371 .0292013
808.071 .0291899
808.772 .0291785
809.472 .0291664
810.171 .0291540
810.871 .0291407
811.570 .0291264
812.269 .0291114
812.967 .0290954
813.666 .0290786
814.364 .0290613
815.061 .0290440
815.759 .0290266
816.456 .0290099
817.153 .0289937
817.849 .0289775
818.545 .0289608
819.241 .0289427
819.937 .0289224
820.632 .0289000
821.327 .0288757
822.022 .0288503
822.717 .0288243
823.411 .0287985
824.105 .0287735
824.798 .0287499
825.491 .0287273
826.184 .0287056
826.877 .0286837
827.569 .0286612
828.261 .0286377
828.953 .0286131
829.645 .0285879
830.336 .0285638
831.027 .0285413
831.717 .0285212
832.407 .0285041
833.097 .0284898
833.787 .0284773
834.476 .0284663
835.165 .0284561
835.854 .0284466
836.542 .0284376
837.230 .0284287
837.918 .0284197
838.605 .0284118
839.292 .0284052
839.979 .0283997
840.665 .0283957
841.352 .0283931
842.037 .0283909
842.723 .0283891
843.408 .0283873
844.093 .0283852
844.777 .0283834
845.462 .0283823
846.145 .0283811
846.829 .0283799
847.512 .0283789
848.195 .0283773
848.878 .0283754
849.560 .0283736
850.242 .0283709
850.923 .0283678
851.605 .0283647
852.286 .0283614
852.966 .0283588
853.646 .0283563
854.326 .0283542
855.006 .0283525
855.685 .0283510
856.364 .0283486
857.043 .0283452
857.721 .0283415
858.399 .0283377
859.077 .0283339
859.754 .0283306
860.431 .0283281
861.107 .0283268
861.784 .0283265
862.459 .0283269
863.135 .0283279
863.810 .0283292
864.485 .0283303
865.160 .0283317
865.834 .0283331
866.508 .0283349
867.181 .0283371
867.854 .0283400
868.527 .0283434
869.199 .0283469
869.872 .0283495
870.543 .0283511
871.215 .0283515
871.886 .0283501
872.557 .0283471
873.227 .0283432
873.897 .0283383
874.567 .0283333
875.236 .0283276
875.905 .0283219
876.573 .0283159
877.242 .0283094
877.909 .0283019
878.577 .0282930
879.244 .0282831
879.911 .0282723
880.577 .0282609
881.243 .0282500
881.909 .0282398
882.575 .0282308
883.240 .0282233
883.904 .0282171
884.569 .0282109
885.232 .0282049
885.896 .0281985
886.559 .0281916
887.222 .0281836
887.885 .0281752
888.547 .0281664
889.208 .0281575
889.870 .0281489
890.531 .0281402
891.192 .0281314
891.852 .0281230
892.512 .0281138
893.171 .0281039
893.830 .0280932
894.489 .0280821
895.148 .0280705
895.806 .0280596
896.464 .0280490
897.121 .0280389
897.778 .0280293
898.434 .0280207
899.091 .0280120
899.747 .0280034
900.402 .0279946
901.057 .0279857
901.712 .0279766
902.366 .0279672
903.020 .0279572
903.674 .0279471
904.327 .0279363
904.980 .0279245
905.633 .0279111
906.285 .0278973
906.936 .0278824
907.588 .0278672
908.239 .0278514
908.889 .0278358
909.540 .0278197
910.190 .0278030
910.839 .0277856
911.488 .0277677
912.137 .0277489
912.785 .0277298
913.433 .0277105
914.081 .0276914
914.728 .0276726
915.375 .0276547
916.021 .0276367
916.668 .0276191
917.313 .0276007
917.959 .0275817
918.604 .0275619
919.248 .0275409
919.892 .0275184
920.536 .0274944
921.180 .0274697
921.823 .0274446
922.465 .0274187
923.108 .0273924
923.750 .0273658
924.391 .0273394
925.032 .0273128
925.673 .0272861
926.313 .0272593
926.953 .0272332
927.593 .0272069
928.232 .0271807
928.871 .0271545
929.510 .0271284
930.148 .0271027
930.786 .0270770
931.423 .0270514
932.060 .0270257
932.697 .0270003
933.333 .0269752
933.969 .0269503
934.604 .0269261
935.239 .0269019
935.874 .0268780
936.508 .0268546
937.142 .0268318
937.776 .0268097
938.409 .0267888
939.042 .0267683
939.674 .0267482
940.306 .0267284
940.938 .0267090
941.569 .0266902
942.200 .0266729
942.830 .0266564
943.460 .0266410
944.090 .0266267
944.720 .0266135
945.349 .0266005
945.977 .0265884
946.606 .0265766
947.233 .0265650
947.861 .0265536
948.488 .0265425
949.115 .0265321
949.741 .0265231
950.367 .0265157
950.993 .0265093
951.618 .0265036
952.243 .0264985
952.868 .0264929
953.492 .0264867
954.115 .0264801
954.739 .0264727
955.362 .0264652
955.984 .0264584
956.607 .0264519
957.229 .0264460
957.850 .0264410
958.471 .0264375
959.092 .0264347
959.713 .0264321
960.333 .0264298
960.952 .0264277
961.572 .0264269
962.191 .0264266
962.809 .0264268
963.428 .0264285
964.045 .0264311
964.663 .0264337
965.280 .0264366
965.897 .0264394
966.513 .0264424
967.129 .0264454
967.745 .0264487
968.361 .0264520
968.976 .0264555
969.590 .0264589
970.205 .0264621
970.818 .0264650
971.432 .0264679
972.045 .0264696
972.658 .0264716
973.271 .0264738
973.883 .0264762
974.495 .0264792
975.106 .0264832
975.717 .0264884
976.328 .0264941
976.938 .0264995
977.548 .0265052
978.158 .0265105
978.768 .0265153
979.377 .0265185
979.985 .0265206
980.594 .0265217
981.202 .0265219
981.809 .0265205
982.417 .0265187
983.024 .0265166
983.631 .0265143
984.237 .0265112
984.843 .0265071
985.449 .0265024
986.054 .0264963
986.659 .0264893
987.264 .0264816
987.868 .0264731
988.472 .0264653
989.076 .0264583
989.679 .0264533
990.282 .0264499
990.885 .0264485
991.487 .0264483
992.090 .0264497
992.691 .0264526
993.293 .0264563
993.894 .0264612
994.495 .0264674
995.095 .0264747
995.696 .0264827
996.296 .0264908
996.895 .0264990
997.494 .0265073
998.093 .0265159
998.692 .0265241
999.291 .0265328
999.889 .0265415
1000.487 .0265506
1001.084 .0265601
1001.681 .0265683
1002.278 .0265744
1002.875 .0265777
1003.471 .0265779
1004.067 .0265744
1004.663 .0265682
1005.258 .0265603
1005.854 .0265511
1006.449 .0265421
1007.043 .0265335
1007.638 .0265245
1008.232 .0265153
1008.826 .0265051
1009.419 .0264931
1010.012 .0264791
1010.605 .0264631
1011.198 .0264458
1011.791 .0264282
1012.383 .0264120
1012.975 .0263979
1013.566 .0263856
1014.158 .0263762
1014.749 .0263692
1015.340 .0263639
1015.931 .0263601
1016.521 .0263573
1017.111 .0263554
1017.701 .0263537
1018.291 .0263525
1018.880 .0263519
1019.470 .0263517
1020.059 .0263523
1020.647 .0263536
1021.236 .0263550
1021.824 .0263571
1022.412 .0263586
1023.000 .0263592
1023.588 .0263586
1024.175 .0263557
1024.762 .0263501
1025.349 .0263418
1025.936 .0263323
1026.523 .0263222
1027.109 .0263122
1027.695 .0263039
1028.281 .0262967
1028.867 .0262902
1029.452 .0262838
1030.038 .0262765
1030.623 .0262678
1031.208 .0262568
1031.792 .0262434
1032.377 .0262285
1032.961 .0262132
1033.546 .0261989
1034.130 .0261867
1034.714 .0261768
1035.297 .0261694
1035.881 .0261623
1036.464 .0261541
1037.047 .0261438
1037.630 .0261303
1038.213 .0261134
1038.796 .0260945
1039.378 .0260746
1039.961 .0260547
1040.543 .0260356
1041.125 .0260185
1041.707 .0260027
1042.289 .0259880
1042.871 .0259735
1043.452 .0259575
1044.034 .0259407
1044.615 .0259231
1045.196 .0259045
1045.777 .0258861
1046.358 .0258683
1046.939 .0258509
1047.520 .0258343
1048.101 .0258181
1048.681 .0258014
1049.262 .0257853
1049.842 .0257705
1050.422 .0257561
1051.002 .0257440
1051.582 .0257343
1052.162 .0257269
1052.742 .0257214
1053.322 .0257185
1053.902 .0257164
1054.482 .0257145
1055.061 .0257132
1055.641 .0257117
1056.220 .0257097
1056.800 .0257086
1057.379 .0257076
1057.958 .0257081
1058.538 .0257103
1059.117 .0257136
1059.696 .0257159
1060.275 .0257182
1060.854 .0257189
1061.433 .0257169
1062.012 .0257120
1062.592 .0257053
1063.171 .0256969
1063.750 .0256877
1064.329 .0256791
1064.908 .0256711
1065.487 .0256634
1066.066 .0256580
1066.645 .0256513
1067.224 .0256443
1067.803 .0256362
1068.382 .0256260
1068.961 .0256145
1069.540 .0256018
1070.119 .0255893
1070.698 .0255761
1071.278 .0255643
1071.857 .0255544
1072.436 .0255441
1073.016 .0255335
1073.595 .0255211
1074.175 .0255077
1074.754 .0254930
1075.334 .0254780
1075.913 .0254625
1076.493 .0254502
1077.073 .0254409
1077.653 .0254335
1078.233 .0254288
1078.813 .0254252
1079.393 .0254235
1079.974 .0254199
1080.554 .0254140
1081.135 .0254058
1081.716 .0253957
1082.296 .0253865
1082.877 .0253775
1083.458 .0253711
1084.040 .0253672
1084.621 .0253645
1085.202 .0253626
1085.784 .0253607
1086.366 .0253579
1086.948 .0253540
1087.530 .0253511
1088.112 .0253482
1088.695 .0253468
1089.277 .0253479
1089.860 .0253539
1090.443 .0253639
1091.026 .0253762
1091.610 .0253922
1092.193 .0254082
1092.777 .0254251
1093.361 .0254428
1093.946 .0254594
1094.530 .0254778
1095.115 .0254978
1095.700 .0255204
1096.285 .0255453
1096.871 .0255716
1097.456 .0255975
1098.042 .0256218
1098.628 .0256447
1099.215 .0256645
1099.802 .0256792
1100.389 .0256937
1100.976 .0257084
1101.564 .0257240
1102.152 .0257422
1102.740 .0257644
1103.329 .0257879
1103.917 .0258123
1104.507 .0258329
1105.096 .0258489
1105.686 .0258607
1106.276 .0258700
1106.867 .0258772
1107.457 .0258847
1108.049 .0258949
1108.640 .0259059
1109.232 .0259195
1109.825 .0259399
1110.417 .0259621
1111.010 .0259870
1111.604 .0260113
1112.198 .0260365
1112.792 .0260605
1113.387 .0260849
1113.982 .0261099
1114.577 .0261363
1115.173 .0261656
1115.769 .0261935
1116.366 .0262189
1116.963 .0262446
1117.561 .0262703
1118.159 .0262931
1118.758 .0263144
1119.357 .0263330
1119.957 .0263474
1120.557 .0263572
1121.157 .0263656
1121.758 .0263732
1122.360 .0263808
1122.962 .0263892
1123.564 .0263986
1124.167 .0264122
1124.771 .0264345
1125.375 .0264608
1125.980 .0264942
1126.585 .0265309
1127.191 .0265709
1127.797 .0266092
1128.404 .0266507
1129.012 .0266950
1129.620 .0267419
1130.229 .0267925
1130.838 .0268448
1131.448 .0268958
1132.058 .0269430
1132.669 .0269840
1133.281 .0270155
1133.894 .0270386
1134.507 .0270554
1135.120 .0270645
1135.735 .0270754
1136.350 .0270923
1136.965 .0271174
1137.582 .0271492
1138.199 .0271857
1138.816 .0272255
1139.435 .0272707
1140.054 .0273249
1140.674 .0273896
1141.294 .0274533
1141.916 .0275334
1142.538 .0275699
1143.160 .0277910
1143.784 .0280324
1144.408 .0277425
1145.033 .0280538
