Measurement Sequence started on: 14-45-04-498
Integration time: 36
Scans to Average: 2 
>>>>>Begin Spectral Data<<<<<
433.946 .0503498
434.870 .0541137
435.793 .0549630
436.715 .0577199
437.635 .0566430
438.555 .0566330
439.473 .0569271
440.389 .0569505
441.305 .0568440
442.219 .0566053
443.132 .0563581
444.044 .0560776
444.954 .0558013
445.863 .0555487
446.771 .0553085
447.678 .0550527
448.584 .0548022
449.488 .0545497
450.391 .0542901
451.293 .0540252
452.194 .0537677
453.094 .0535234
453.992 .0532901
454.890 .0530750
455.786 .0528843
456.681 .0527074
457.575 .0525461
458.468 .0523887
459.360 .0522324
460.250 .0520799
461.140 .0519309
462.028 .0517832
462.915 .0516351
463.801 .0514770
464.687 .0513058
465.571 .0511292
466.454 .0509563
467.335 .0507801
468.216 .0506089
469.096 .0504454
469.975 .0502917
470.853 .0501461
471.729 .0500085
472.605 .0498727
473.479 .0497368
474.353 .0496005
475.226 .0494577
476.097 .0493061
476.968 .0491552
477.838 .0490070
478.706 .0488676
479.574 .0487403
480.441 .0486252
481.306 .0485229
482.171 .0484327
483.035 .0483435
483.898 .0482525
484.760 .0481576
485.621 .0480577
486.481 .0479504
487.340 .0478416
488.198 .0477380
489.055 .0476399
489.912 .0475537
490.767 .0474825
491.622 .0474251
492.476 .0473771
493.329 .0473357
494.180 .0472974
495.032 .0472607
495.882 .0472208
496.731 .0471809
497.580 .0471464
498.427 .0471218
499.274 .0470998
500.120 .0470821
500.965 .0470712
501.809 .0470649
502.653 .0470530
503.495 .0470370
504.337 .0470133
505.178 .0469773
506.018 .0469283
506.858 .0468698
507.696 .0468013
508.534 .0467257
509.371 .0466388
510.208 .0465397
511.043 .0464259
511.878 .0463039
512.712 .0461735
513.545 .0460465
514.377 .0459287
515.209 .0458190
516.040 .0457266
516.870 .0456576
517.699 .0456037
518.528 .0455606
519.356 .0455342
520.183 .0455161
521.010 .0455038
521.836 .0454993
522.661 .0455025
523.485 .0455173
524.309 .0455458
525.132 .0455824
525.954 .0456199
526.776 .0456568
527.597 .0456886
528.417 .0457038
529.237 .0457086
530.056 .0456915
530.874 .0456504
531.692 .0455896
532.508 .0455067
533.325 .0454045
534.140 .0452852
534.955 .0451563
535.770 .0450193
536.583 .0448788
537.397 .0447422
538.209 .0446163
539.021 .0445092
539.832 .0444152
540.643 .0443264
541.453 .0442507
542.262 .0441835
543.071 .0441181
543.879 .0440513
544.687 .0439885
545.494 .0439291
546.300 .0438765
547.106 .0438239
547.911 .0437793
548.716 .0437488
549.520 .0437215
550.323 .0436904
551.126 .0436529
551.929 .0436108
552.731 .0435587
553.532 .0434903
554.332 .0434085
555.133 .0433177
555.932 .0432214
556.731 .0431194
557.530 .0430194
558.328 .0429208
559.125 .0428261
559.922 .0427357
560.719 .0426492
561.515 .0425609
562.310 .0424711
563.105 .0423819
563.899 .0422955
564.693 .0422172
565.487 .0421414
566.280 .0420710
567.072 .0420165
567.864 .0419683
568.655 .0419216
569.446 .0418803
570.236 .0418441
571.026 .0418075
571.816 .0417721
572.605 .0417359
573.393 .0416986
574.181 .0416612
574.969 .0416230
575.756 .0415785
576.543 .0415290
577.329 .0414776
578.115 .0414175
578.900 .0413554
579.685 .0412925
580.469 .0412284
581.253 .0411666
582.036 .0411071
582.820 .0410490
583.602 .0409912
584.384 .0409368
585.166 .0408811
585.947 .0408223
586.728 .0407623
587.509 .0407014
588.289 .0406388
589.069 .0405768
589.848 .0405180
590.627 .0404625
591.405 .0404123
592.183 .0403664
592.961 .0403259
593.738 .0402914
594.515 .0402603
595.291 .0402309
596.067 .0401999
596.843 .0401670
597.618 .0401304
598.393 .0400909
599.167 .0400512
599.941 .0400111
600.715 .0399724
601.488 .0399364
602.261 .0399035
603.034 .0398740
603.806 .0398457
604.578 .0398184
605.349 .0397895
606.121 .0397578
606.891 .0397218
607.662 .0396822
608.432 .0396419
609.201 .0396026
609.971 .0395648
610.740 .0395304
611.508 .0394990
612.277 .0394701
613.045 .0394434
613.812 .0394171
614.579 .0393897
615.346 .0393602
616.113 .0393281
616.879 .0392929
617.645 .0392551
618.411 .0392168
619.176 .0391784
619.941 .0391411
620.705 .0391059
621.470 .0390719
622.233 .0390400
622.997 .0390093
623.760 .0389795
624.523 .0389500
625.286 .0389202
626.048 .0388896
626.810 .0388582
627.572 .0388266
628.333 .0387954
629.095 .0387634
629.855 .0387319
630.616 .0387003
631.376 .0386687
632.136 .0386368
632.895 .0386051
633.655 .0385740
634.414 .0385433
635.172 .0385117
635.931 .0384802
636.689 .0384478
637.447 .0384153
638.204 .0383825
638.962 .0383500
639.718 .0383192
640.475 .0382907
641.231 .0382642
641.988 .0382399
642.743 .0382180
643.499 .0381980
644.254 .0381783
645.009 .0381584
645.764 .0381380
646.518 .0381165
647.272 .0380942
648.026 .0380706
648.780 .0380464
649.533 .0380220
650.286 .0379966
651.039 .0379703
651.792 .0379425
652.544 .0379126
653.296 .0378802
654.048 .0378457
654.799 .0378103
655.550 .0377733
656.301 .0377360
657.052 .0376988
657.802 .0376623
658.552 .0376276
659.302 .0375938
660.052 .0375618
660.801 .0375318
661.550 .0375039
662.299 .0374774
663.048 .0374523
663.796 .0374301
664.544 .0374094
665.292 .0373889
666.040 .0373684
666.787 .0373471
667.534 .0373240
668.281 .0372998
669.028 .0372745
669.774 .0372488
670.521 .0372235
671.266 .0371984
672.012 .0371744
672.758 .0371521
673.503 .0371317
674.248 .0371115
674.992 .0370916
675.737 .0370722
676.481 .0370509
677.225 .0370287
677.969 .0370065
678.712 .0369844
679.455 .0369640
680.199 .0369452
680.941 .0369280
681.684 .0369126
682.426 .0368985
683.168 .0368838
683.910 .0368678
684.652 .0368492
685.393 .0368266
686.134 .0368004
686.875 .0367722
687.616 .0367421
688.356 .0367117
689.097 .0366825
689.837 .0366545
690.576 .0366280
691.316 .0366035
692.055 .0365800
692.794 .0365583
693.533 .0365376
694.272 .0365175
695.010 .0364982
695.748 .0364800
696.486 .0364623
697.224 .0364454
697.962 .0364294
698.699 .0364134
699.436 .0363976
700.173 .0363824
700.909 .0363674
701.646 .0363531
702.382 .0363394
703.118 .0363264
703.853 .0363138
704.589 .0363008
705.324 .0362865
706.059 .0362715
706.794 .0362550
707.529 .0362363
708.263 .0362162
708.997 .0361957
709.731 .0361751
710.465 .0361552
711.198 .0361363
711.931 .0361181
712.664 .0361006
713.397 .0360823
714.130 .0360623
714.862 .0360408
715.594 .0360169
716.326 .0359909
717.058 .0359631
717.789 .0359350
718.520 .0359071
719.251 .0358803
719.982 .0358552
720.713 .0358312
721.443 .0358082
722.173 .0357850
722.903 .0357612
723.633 .0357368
724.362 .0357114
725.091 .0356851
725.820 .0356585
726.549 .0356325
727.278 .0356071
728.006 .0355831
728.734 .0355599
729.462 .0355379
730.190 .0355166
730.917 .0354954
731.644 .0354739
732.371 .0354526
733.098 .0354319
733.825 .0354115
734.551 .0353925
735.277 .0353744
736.003 .0353573
736.728 .0353418
737.454 .0353277
738.179 .0353151
738.904 .0353039
739.629 .0352940
740.353 .0352851
741.077 .0352777
741.801 .0352710
742.525 .0352646
743.249 .0352582
743.972 .0352517
744.695 .0352443
745.418 .0352360
746.141 .0352269
746.863 .0352174
747.585 .0352075
748.307 .0351967
749.029 .0351846
749.750 .0351714
750.472 .0351565
751.193 .0351396
751.913 .0351203
752.634 .0350992
753.354 .0350764
754.074 .0350527
754.794 .0350281
755.514 .0350037
756.233 .0349797
756.952 .0349564
757.671 .0349347
758.390 .0349148
759.108 .0348961
759.826 .0348792
760.544 .0348634
761.262 .0348492
761.979 .0348357
762.697 .0348232
763.414 .0348109
764.130 .0347994
764.847 .0347881
765.563 .0347765
766.279 .0347647
766.995 .0347533
767.710 .0347413
768.426 .0347289
769.141 .0347159
769.855 .0347018
770.570 .0346865
771.284 .0346705
771.998 .0346539
772.712 .0346376
773.426 .0346208
774.139 .0346042
774.852 .0345875
775.565 .0345716
776.277 .0345561
776.990 .0345411
777.702 .0345269
778.414 .0345123
779.125 .0344974
779.836 .0344821
780.547 .0344660
781.258 .0344498
781.969 .0344334
782.679 .0344165
783.389 .0343987
784.099 .0343801
784.808 .0343605
785.517 .0343411
786.226 .0343215
786.935 .0343022
787.643 .0342829
788.352 .0342648
789.060 .0342476
789.767 .0342314
790.475 .0342165
791.182 .0342027
791.889 .0341899
792.595 .0341773
793.301 .0341635
794.008 .0341495
794.713 .0341352
795.419 .0341216
796.124 .0341091
796.829 .0340982
797.534 .0340892
798.238 .0340820
798.942 .0340761
799.646 .0340712
800.350 .0340657
801.053 .0340588
801.756 .0340495
802.459 .0340380
803.162 .0340244
803.864 .0340089
804.566 .0339936
805.267 .0339794
805.969 .0339661
806.670 .0339538
807.371 .0339423
808.071 .0339315
808.772 .0339206
809.472 .0339084
810.171 .0338946
810.871 .0338799
811.570 .0338645
812.269 .0338483
812.967 .0338327
813.666 .0338192
814.364 .0338081
815.061 .0337998
815.759 .0337947
816.456 .0337918
817.153 .0337904
817.849 .0337895
818.545 .0337881
819.241 .0337850
819.937 .0337798
820.632 .0337724
821.327 .0337625
822.022 .0337511
822.717 .0337384
823.411 .0337250
824.105 .0337117
824.798 .0336988
825.491 .0336855
826.184 .0336713
826.877 .0336558
827.569 .0336390
828.261 .0336201
828.953 .0335992
829.645 .0335765
830.336 .0335520
831.027 .0335261
831.717 .0334994
832.407 .0334721
833.097 .0334449
833.787 .0334185
834.476 .0333933
835.165 .0333687
835.854 .0333455
836.542 .0333233
837.230 .0333020
837.918 .0332815
838.605 .0332614
839.292 .0332410
839.979 .0332210
840.665 .0332017
841.352 .0331830
842.037 .0331658
842.723 .0331511
843.408 .0331382
844.093 .0331272
844.777 .0331179
845.462 .0331097
846.145 .0331017
846.829 .0330935
847.512 .0330854
848.195 .0330761
848.878 .0330662
849.560 .0330550
850.242 .0330430
850.923 .0330304
851.605 .0330171
852.286 .0330031
852.966 .0329892
853.646 .0329753
854.326 .0329614
855.006 .0329473
855.685 .0329333
856.364 .0329191
857.043 .0329040
857.721 .0328872
858.399 .0328694
859.077 .0328496
859.754 .0328287
860.431 .0328068
861.107 .0327855
861.784 .0327647
862.459 .0327445
863.135 .0327253
863.810 .0327064
864.485 .0326876
865.160 .0326687
865.834 .0326488
866.508 .0326285
867.181 .0326079
867.854 .0325872
868.527 .0325670
869.199 .0325485
869.872 .0325317
870.543 .0325173
871.215 .0325047
871.886 .0324939
872.557 .0324842
873.227 .0324750
873.897 .0324663
874.567 .0324581
875.236 .0324501
875.905 .0324421
876.573 .0324348
877.242 .0324282
877.909 .0324220
878.577 .0324166
879.244 .0324109
879.911 .0324046
880.577 .0323975
881.243 .0323880
881.909 .0323757
882.575 .0323613
883.240 .0323440
883.904 .0323243
884.569 .0323039
885.232 .0322824
885.896 .0322605
886.559 .0322396
887.222 .0322200
887.885 .0322013
888.547 .0321843
889.208 .0321684
889.870 .0321532
890.531 .0321392
891.192 .0321257
891.852 .0321121
892.512 .0320995
893.171 .0320876
893.830 .0320764
894.489 .0320660
895.148 .0320568
895.806 .0320481
896.464 .0320414
897.121 .0320362
897.778 .0320316
898.434 .0320283
899.091 .0320253
899.747 .0320221
900.402 .0320182
901.057 .0320133
901.712 .0320075
902.366 .0320007
903.020 .0319940
903.674 .0319869
904.327 .0319802
904.980 .0319741
905.633 .0319685
906.285 .0319638
906.936 .0319592
907.588 .0319537
908.239 .0319467
908.889 .0319384
909.540 .0319277
910.190 .0319148
910.839 .0318999
911.488 .0318836
912.137 .0318668
912.785 .0318499
913.433 .0318333
914.081 .0318174
914.728 .0318028
915.375 .0317894
916.021 .0317759
916.668 .0317627
917.313 .0317489
917.959 .0317348
918.604 .0317200
919.248 .0317052
919.892 .0316898
920.536 .0316746
921.180 .0316599
921.823 .0316461
922.465 .0316327
923.108 .0316197
923.750 .0316068
924.391 .0315941
925.032 .0315813
925.673 .0315673
926.313 .0315524
926.953 .0315370
927.593 .0315211
928.232 .0315042
928.871 .0314860
929.510 .0314674
930.148 .0314477
930.786 .0314270
931.423 .0314052
932.060 .0313828
932.697 .0313598
933.333 .0313359
933.969 .0313110
934.604 .0312856
935.239 .0312593
935.874 .0312321
936.508 .0312044
937.142 .0311765
937.776 .0311484
938.409 .0311198
939.042 .0310912
939.674 .0310635
940.306 .0310362
940.938 .0310099
941.569 .0309845
942.200 .0309607
942.830 .0309381
943.460 .0309165
944.090 .0308958
944.720 .0308750
945.349 .0308539
945.977 .0308327
946.606 .0308110
947.233 .0307902
947.861 .0307703
948.488 .0307523
949.115 .0307368
949.741 .0307238
950.367 .0307126
950.993 .0307024
951.618 .0306928
952.243 .0306829
952.868 .0306722
953.492 .0306604
954.115 .0306474
954.739 .0306344
955.362 .0306223
955.984 .0306113
956.607 .0306014
957.229 .0305931
957.850 .0305854
958.471 .0305778
959.092 .0305687
959.713 .0305572
960.333 .0305440
960.952 .0305282
961.572 .0305106
962.191 .0304923
962.809 .0304750
963.428 .0304592
964.045 .0304448
964.663 .0304326
965.280 .0304216
965.897 .0304115
966.513 .0304016
967.129 .0303912
967.745 .0303806
968.361 .0303696
968.976 .0303580
969.590 .0303471
970.205 .0303375
970.818 .0303294
971.432 .0303231
972.045 .0303187
972.658 .0303154
973.271 .0303125
973.883 .0303086
974.495 .0303030
975.106 .0302947
975.717 .0302834
976.328 .0302691
976.938 .0302521
977.548 .0302338
978.158 .0302145
978.768 .0301951
979.377 .0301758
979.985 .0301564
980.594 .0301372
981.202 .0301180
981.809 .0300983
982.417 .0300783
983.024 .0300585
983.631 .0300398
984.237 .0300225
984.843 .0300066
985.449 .0299926
986.054 .0299809
986.659 .0299712
987.264 .0299636
987.868 .0299575
988.472 .0299525
989.076 .0299487
989.679 .0299458
990.282 .0299439
990.885 .0299429
991.487 .0299431
992.090 .0299446
992.691 .0299475
993.293 .0299515
993.894 .0299556
994.495 .0299593
995.095 .0299634
995.696 .0299675
996.296 .0299709
996.895 .0299742
997.494 .0299783
998.093 .0299831
998.692 .0299882
999.291 .0299934
999.889 .0299981
1000.487 .0300019
1001.084 .0300042
1001.681 .0300030
1002.278 .0299983
1002.875 .0299908
1003.471 .0299806
1004.067 .0299686
1004.663 .0299570
1005.258 .0299456
1005.854 .0299354
1006.449 .0299266
1007.043 .0299195
1007.638 .0299122
1008.232 .0299044
1008.826 .0298962
1009.419 .0298868
1010.012 .0298765
1010.605 .0298656
1011.198 .0298553
1011.791 .0298467
1012.383 .0298400
1012.975 .0298346
1013.566 .0298300
1014.158 .0298261
1014.749 .0298221
1015.340 .0298178
1015.931 .0298124
1016.521 .0298064
1017.111 .0297996
1017.701 .0297927
1018.291 .0297864
1018.880 .0297809
1019.470 .0297770
1020.059 .0297751
1020.647 .0297751
1021.236 .0297753
1021.824 .0297756
1022.412 .0297763
1023.000 .0297758
1023.588 .0297734
1024.175 .0297694
1024.762 .0297642
1025.349 .0297576
1025.936 .0297507
1026.523 .0297436
1027.109 .0297377
1027.695 .0297327
1028.281 .0297284
1028.867 .0297253
1029.452 .0297236
1030.038 .0297226
1030.623 .0297210
1031.208 .0297205
1031.792 .0297210
1032.377 .0297216
1032.961 .0297236
1033.546 .0297275
1034.130 .0297335
1034.714 .0297405
1035.297 .0297492
1035.881 .0297586
1036.464 .0297690
1037.047 .0297790
1037.630 .0297878
1038.213 .0297951
1038.796 .0298012
1039.378 .0298045
1039.961 .0298046
1040.543 .0298022
1041.125 .0297960
1041.707 .0297859
1042.289 .0297737
1042.871 .0297604
1043.452 .0297473
1044.034 .0297353
1044.615 .0297261
1045.196 .0297200
1045.777 .0297168
1046.358 .0297159
1046.939 .0297157
1047.520 .0297159
1048.101 .0297149
1048.681 .0297118
1049.262 .0297078
1049.842 .0297042
1050.422 .0297007
1051.002 .0296984
1051.582 .0296976
1052.162 .0296981
1052.742 .0296982
1053.322 .0296981
1053.902 .0296963
1054.482 .0296917
1055.061 .0296825
1055.641 .0296693
1056.220 .0296521
1056.800 .0296322
1057.379 .0296098
1057.958 .0295861
1058.538 .0295620
1059.117 .0295391
1059.696 .0295169
1060.275 .0294986
1060.854 .0294835
1061.433 .0294728
1062.012 .0294639
1062.592 .0294569
1063.171 .0294498
1063.750 .0294402
1064.329 .0294278
1064.908 .0294131
1065.487 .0293950
1066.066 .0293753
1066.645 .0293552
1067.224 .0293382
1067.803 .0293262
1068.382 .0293191
1068.961 .0293168
1069.540 .0293192
1070.119 .0293240
1070.698 .0293303
1071.278 .0293377
1071.857 .0293469
1072.436 .0293582
1073.016 .0293697
1073.595 .0293836
1074.175 .0293983
1074.754 .0294150
1075.334 .0294321
1075.913 .0294495
1076.493 .0294661
1077.073 .0294807
1077.653 .0294912
1078.233 .0294987
1078.813 .0295018
1079.393 .0295008
1079.974 .0294948
1080.554 .0294856
1081.135 .0294705
1081.716 .0294522
1082.296 .0294308
1082.877 .0294103
1083.458 .0293896
1084.040 .0293715
1084.621 .0293566
1085.202 .0293478
1085.784 .0293434
1086.366 .0293447
1086.948 .0293498
1087.530 .0293593
1088.112 .0293718
1088.695 .0293857
1089.277 .0293994
1089.860 .0294160
1090.443 .0294316
1091.026 .0294457
1091.610 .0294574
1092.193 .0294668
1092.777 .0294713
1093.361 .0294730
1093.946 .0294709
1094.530 .0294617
1095.115 .0294480
1095.700 .0294302
1096.285 .0294093
1096.871 .0293872
1097.456 .0293645
1098.042 .0293418
1098.628 .0293198
1099.215 .0292996
1099.802 .0292808
1100.389 .0292665
1100.976 .0292587
1101.564 .0292560
1102.152 .0292606
1102.740 .0292702
1103.329 .0292865
1103.917 .0293071
1104.507 .0293316
1105.096 .0293569
1105.686 .0293821
1106.276 .0294023
1106.867 .0294203
1107.457 .0294368
1108.049 .0294489
1108.640 .0294578
1109.232 .0294657
1109.825 .0294690
1110.417 .0294699
1111.010 .0294710
1111.604 .0294741
1112.198 .0294782
1112.792 .0294872
1113.387 .0294967
1113.982 .0295097
1114.577 .0295293
1115.173 .0295525
1115.769 .0295774
1116.366 .0296065
1116.963 .0296359
1117.561 .0296626
1118.159 .0296918
1118.758 .0297209
1119.357 .0297497
1119.957 .0297780
1120.557 .0298034
1121.157 .0298249
1121.758 .0298408
1122.360 .0298520
1122.962 .0298605
1123.564 .0298663
1124.167 .0298737
1124.771 .0298790
1125.375 .0298906
1125.980 .0299107
1126.585 .0299405
1127.191 .0299762
1127.797 .0300242
1128.404 .0300833
1129.012 .0301513
1129.620 .0302259
1130.229 .0303069
1130.838 .0303924
1131.448 .0304779
1132.058 .0305586
1132.669 .0306330
1133.281 .0307015
1133.894 .0307678
1134.507 .0308253
1135.120 .0308852
1135.735 .0309462
1136.350 .0310043
1136.965 .0310601
1137.582 .0311143
1138.199 .0311578
1138.816 .0311939
1139.435 .0312226
1140.054 .0312525
1140.674 .0312774
1141.294 .0313149
1141.916 .0313406
1142.538 .0313161
1143.160 .0315682
1143.784 .0314177
1144.408 .0317491
1145.033 .0312932
