Measurement Sequence started on: 14-45-04-498
Integration time: 36
Scans to Average: 2 
>>>>>Begin Spectral Data<<<<<
433.946 .0591387
434.870 .0567173
435.793 .0514997
436.715 .0510393
437.635 .0501193
438.555 .0503075
439.473 .0495173
440.389 .0489741
441.305 .0486826
442.219 .0484514
443.132 .0482982
444.044 .0481937
444.954 .0481207
445.863 .0480742
446.771 .0480296
447.678 .0479940
448.584 .0479600
449.488 .0479052
450.391 .0478304
451.293 .0477363
452.194 .0476290
453.094 .0474925
453.992 .0473417
454.890 .0471779
455.786 .0470071
456.681 .0468357
457.575 .0466692
458.468 .0465096
459.360 .0463633
460.250 .0462264
461.140 .0460943
462.028 .0459716
462.915 .0458529
463.801 .0457337
464.687 .0456199
465.571 .0455086
466.454 .0453977
467.335 .0452898
468.216 .0451891
469.096 .0450979
469.975 .0450161
470.853 .0449436
471.729 .0448771
472.605 .0448129
473.479 .0447491
474.353 .0446762
475.226 .0445997
476.097 .0445208
476.968 .0444389
477.838 .0443521
478.706 .0442645
479.574 .0441776
480.441 .0440912
481.306 .0440090
482.171 .0439283
483.035 .0438496
483.898 .0437736
484.760 .0437009
485.621 .0436318
486.481 .0435644
487.340 .0435012
488.198 .0434355
489.055 .0433702
489.912 .0432994
490.767 .0432219
491.622 .0431397
492.476 .0430584
493.329 .0429806
494.180 .0429051
495.032 .0428374
495.882 .0427775
496.731 .0427231
497.580 .0426746
498.427 .0426249
499.274 .0425685
500.120 .0425060
500.965 .0424383
501.809 .0423669
502.653 .0422990
503.495 .0422401
504.337 .0421888
505.178 .0421462
506.018 .0421123
506.858 .0420794
507.696 .0420466
508.534 .0420142
509.371 .0419782
510.208 .0419414
511.043 .0419060
511.878 .0418715
512.712 .0418431
513.545 .0418255
514.377 .0418115
515.209 .0418004
516.040 .0417900
516.870 .0417776
517.699 .0417605
518.528 .0417388
519.356 .0417158
520.183 .0416886
521.010 .0416652
521.836 .0416453
522.661 .0416295
523.485 .0416192
524.309 .0416124
525.132 .0416110
525.954 .0416110
526.776 .0416114
527.597 .0416115
528.417 .0416009
529.237 .0415885
530.056 .0415660
530.874 .0415341
531.692 .0414940
532.508 .0414552
533.325 .0414180
534.140 .0413867
534.955 .0413609
535.770 .0413366
536.583 .0413137
537.397 .0412961
538.209 .0412654
539.021 .0412195
539.832 .0411550
540.643 .0410694
541.453 .0409592
542.262 .0408382
543.071 .0407072
543.879 .0405735
544.687 .0404436
545.494 .0403181
546.300 .0402002
547.106 .0400928
547.911 .0399896
548.716 .0398892
549.520 .0397876
550.323 .0396836
551.126 .0395698
551.929 .0394568
552.731 .0393454
553.532 .0392365
554.332 .0391348
555.133 .0390444
555.932 .0389689
556.731 .0389066
557.530 .0388558
558.328 .0388177
559.125 .0387874
559.922 .0387646
560.719 .0387432
561.515 .0387262
562.310 .0387086
563.105 .0386892
563.899 .0386691
564.693 .0386500
565.487 .0386298
566.280 .0386093
567.072 .0385878
567.864 .0385638
568.655 .0385342
569.446 .0385005
570.236 .0384608
571.026 .0384171
571.816 .0383702
572.605 .0383187
573.393 .0382660
574.181 .0382169
574.969 .0381676
575.756 .0381210
576.543 .0380775
577.329 .0380347
578.115 .0379917
578.900 .0379467
579.685 .0378999
580.469 .0378537
581.253 .0378113
582.036 .0377738
582.820 .0377405
583.602 .0377134
584.384 .0376922
585.166 .0376726
585.947 .0376546
586.728 .0376334
587.509 .0376088
588.289 .0375815
589.069 .0375502
589.848 .0375177
590.627 .0374865
591.405 .0374581
592.183 .0374338
592.961 .0374125
593.738 .0373945
594.515 .0373770
595.291 .0373582
596.067 .0373379
596.843 .0373155
597.618 .0372911
598.393 .0372652
599.167 .0372388
599.941 .0372140
600.715 .0371911
601.488 .0371712
602.261 .0371550
603.034 .0371416
603.806 .0371314
604.578 .0371227
605.349 .0371154
606.121 .0371093
606.891 .0371036
607.662 .0370967
608.432 .0370895
609.201 .0370815
609.971 .0370722
610.740 .0370615
611.508 .0370499
612.277 .0370379
613.045 .0370257
613.812 .0370137
614.579 .0370019
615.346 .0369913
616.113 .0369815
616.879 .0369718
617.645 .0369630
618.411 .0369548
619.176 .0369461
619.941 .0369370
620.705 .0369275
621.470 .0369179
622.233 .0369079
622.997 .0368979
623.760 .0368880
624.523 .0368790
625.286 .0368692
626.048 .0368585
626.810 .0368456
627.572 .0368310
628.333 .0368129
629.095 .0367927
629.855 .0367704
630.616 .0367476
631.376 .0367249
632.136 .0367040
632.895 .0366852
633.655 .0366697
634.414 .0366565
635.172 .0366454
635.931 .0366347
636.689 .0366236
637.447 .0366109
638.204 .0365970
638.962 .0365812
639.718 .0365650
640.475 .0365481
641.231 .0365315
641.988 .0365150
642.743 .0364984
643.499 .0364808
644.254 .0364617
645.009 .0364406
645.764 .0364167
646.518 .0363905
647.272 .0363624
648.026 .0363334
648.780 .0363050
649.533 .0362786
650.286 .0362553
651.039 .0362345
651.792 .0362174
652.544 .0362032
653.296 .0361910
654.048 .0361807
654.799 .0361707
655.550 .0361609
656.301 .0361499
657.052 .0361376
657.802 .0361241
658.552 .0361098
659.302 .0360953
660.052 .0360805
660.801 .0360656
661.550 .0360509
662.299 .0360360
663.048 .0360204
663.796 .0360049
664.544 .0359890
665.292 .0359725
666.040 .0359554
666.787 .0359377
667.534 .0359199
668.281 .0359013
669.028 .0358826
669.774 .0358636
670.521 .0358441
671.266 .0358241
672.012 .0358035
672.758 .0357827
673.503 .0357620
674.248 .0357418
674.992 .0357219
675.737 .0357025
676.481 .0356838
677.225 .0356649
677.969 .0356457
678.712 .0356259
679.455 .0356054
680.199 .0355836
680.941 .0355615
681.684 .0355392
682.426 .0355168
683.168 .0354953
683.910 .0354748
684.652 .0354552
685.393 .0354370
686.134 .0354195
686.875 .0354017
687.616 .0353840
688.356 .0353660
689.097 .0353470
689.837 .0353270
690.576 .0353065
691.316 .0352859
692.055 .0352657
692.794 .0352466
693.533 .0352291
694.272 .0352136
695.010 .0352005
695.748 .0351888
696.486 .0351782
697.224 .0351679
697.962 .0351572
698.699 .0351451
699.436 .0351318
700.173 .0351172
700.909 .0351012
701.646 .0350841
702.382 .0350670
703.118 .0350498
703.853 .0350329
704.589 .0350164
705.324 .0350008
706.059 .0349853
706.794 .0349696
707.529 .0349531
708.263 .0349360
708.997 .0349183
709.731 .0348995
710.465 .0348799
711.198 .0348603
711.931 .0348406
712.664 .0348209
713.397 .0348015
714.130 .0347828
714.862 .0347646
715.594 .0347467
716.326 .0347291
717.058 .0347115
717.789 .0346938
718.520 .0346751
719.251 .0346558
719.982 .0346359
720.713 .0346157
721.443 .0345950
722.173 .0345744
722.903 .0345544
723.633 .0345347
724.362 .0345157
725.091 .0344972
725.820 .0344794
726.549 .0344621
727.278 .0344447
728.006 .0344271
728.734 .0344090
729.462 .0343905
730.190 .0343720
730.917 .0343541
731.644 .0343368
732.371 .0343205
733.098 .0343053
733.825 .0342915
734.551 .0342791
735.277 .0342672
736.003 .0342563
736.728 .0342453
737.454 .0342347
738.179 .0342244
738.904 .0342142
739.629 .0342047
740.353 .0341962
741.077 .0341888
741.801 .0341820
742.525 .0341752
743.249 .0341684
743.972 .0341610
744.695 .0341532
745.418 .0341445
746.141 .0341346
746.863 .0341242
747.585 .0341132
748.307 .0341013
749.029 .0340893
749.750 .0340769
750.472 .0340641
751.193 .0340511
751.913 .0340377
752.634 .0340241
753.354 .0340102
754.074 .0339971
754.794 .0339840
755.514 .0339708
756.233 .0339578
756.952 .0339443
757.671 .0339306
758.390 .0339168
759.108 .0339028
759.826 .0338896
760.544 .0338774
761.262 .0338664
761.979 .0338564
762.697 .0338473
763.414 .0338387
764.130 .0338297
764.847 .0338203
765.563 .0338107
766.279 .0338005
766.995 .0337902
767.710 .0337796
768.426 .0337692
769.141 .0337587
769.855 .0337480
770.570 .0337369
771.284 .0337249
771.998 .0337121
772.712 .0336988
773.426 .0336849
774.139 .0336706
774.852 .0336563
775.565 .0336422
776.277 .0336285
776.990 .0336154
777.702 .0336019
778.414 .0335881
779.125 .0335741
779.836 .0335600
780.547 .0335455
781.258 .0335317
781.969 .0335191
782.679 .0335075
783.389 .0334973
784.099 .0334879
784.808 .0334789
785.517 .0334703
786.226 .0334615
786.935 .0334516
787.643 .0334406
788.352 .0334291
789.060 .0334166
789.767 .0334040
790.475 .0333912
791.182 .0333784
791.889 .0333656
792.595 .0333526
793.301 .0333387
794.008 .0333243
794.713 .0333095
795.419 .0332944
796.124 .0332787
796.829 .0332627
797.534 .0332465
798.238 .0332302
798.942 .0332142
799.646 .0331982
800.350 .0331820
801.053 .0331655
801.756 .0331479
802.459 .0331295
803.162 .0331102
803.864 .0330899
804.566 .0330693
805.267 .0330483
805.969 .0330266
806.670 .0330049
807.371 .0329836
808.071 .0329630
808.772 .0329436
809.472 .0329248
810.171 .0329073
810.871 .0328910
811.570 .0328764
812.269 .0328631
812.967 .0328512
813.666 .0328407
814.364 .0328318
815.061 .0328244
815.759 .0328185
816.456 .0328141
817.153 .0328111
817.849 .0328089
818.545 .0328072
819.241 .0328050
819.937 .0328021
820.632 .0327977
821.327 .0327914
822.022 .0327827
822.717 .0327720
823.411 .0327594
824.105 .0327455
824.798 .0327308
825.491 .0327153
826.184 .0326989
826.877 .0326820
827.569 .0326642
828.261 .0326454
828.953 .0326251
829.645 .0326031
830.336 .0325802
831.027 .0325563
831.717 .0325321
832.407 .0325084
833.097 .0324864
833.787 .0324660
834.476 .0324475
835.165 .0324308
835.854 .0324162
836.542 .0324031
837.230 .0323910
837.918 .0323797
838.605 .0323689
839.292 .0323588
839.979 .0323492
840.665 .0323404
841.352 .0323332
842.037 .0323269
842.723 .0323213
843.408 .0323158
844.093 .0323097
844.777 .0323024
845.462 .0322936
846.145 .0322831
846.829 .0322711
847.512 .0322579
848.195 .0322443
848.878 .0322302
849.560 .0322160
850.242 .0322016
850.923 .0321867
851.605 .0321711
852.286 .0321544
852.966 .0321363
853.646 .0321170
854.326 .0320969
855.006 .0320767
855.685 .0320565
856.364 .0320363
857.043 .0320161
857.721 .0319962
858.399 .0319753
859.077 .0319530
859.754 .0319291
860.431 .0319037
861.107 .0318769
861.784 .0318487
862.459 .0318198
863.135 .0317906
863.810 .0317625
864.485 .0317353
865.160 .0317090
865.834 .0316845
866.508 .0316615
867.181 .0316399
867.854 .0316195
868.527 .0316008
869.199 .0315832
869.872 .0315670
870.543 .0315525
871.215 .0315389
871.886 .0315266
872.557 .0315154
873.227 .0315050
873.897 .0314952
874.567 .0314858
875.236 .0314760
875.905 .0314658
876.573 .0314553
877.242 .0314436
877.909 .0314308
878.577 .0314179
879.244 .0314046
879.911 .0313907
880.577 .0313768
881.243 .0313626
881.909 .0313478
882.575 .0313329
883.240 .0313173
883.904 .0313017
884.569 .0312865
885.232 .0312714
885.896 .0312567
886.559 .0312431
887.222 .0312306
887.885 .0312189
888.547 .0312078
889.208 .0311969
889.870 .0311857
890.531 .0311745
891.192 .0311632
891.852 .0311518
892.512 .0311411
893.171 .0311307
893.830 .0311209
894.489 .0311121
895.148 .0311037
895.806 .0310963
896.464 .0310902
897.121 .0310852
897.778 .0310811
898.434 .0310775
899.091 .0310745
899.747 .0310719
900.402 .0310698
901.057 .0310673
901.712 .0310645
902.366 .0310609
903.020 .0310566
903.674 .0310516
904.327 .0310469
904.980 .0310419
905.633 .0310373
906.285 .0310329
906.936 .0310279
907.588 .0310220
908.239 .0310150
908.889 .0310067
909.540 .0309972
910.190 .0309863
910.839 .0309741
911.488 .0309610
912.137 .0309479
912.785 .0309346
913.433 .0309217
914.081 .0309089
914.728 .0308961
915.375 .0308824
916.021 .0308679
916.668 .0308523
917.313 .0308353
917.959 .0308172
918.604 .0307980
919.248 .0307777
919.892 .0307568
920.536 .0307356
921.180 .0307149
921.823 .0306950
922.465 .0306757
923.108 .0306567
923.750 .0306379
924.391 .0306192
925.032 .0306005
925.673 .0305814
926.313 .0305624
926.953 .0305435
927.593 .0305244
928.232 .0305056
928.871 .0304865
929.510 .0304676
930.148 .0304487
930.786 .0304294
931.423 .0304095
932.060 .0303888
932.697 .0303670
933.333 .0303438
933.969 .0303190
934.604 .0302930
935.239 .0302657
935.874 .0302377
936.508 .0302089
937.142 .0301804
937.776 .0301521
938.409 .0301244
939.042 .0300970
939.674 .0300704
940.306 .0300442
940.938 .0300182
941.569 .0299928
942.200 .0299682
942.830 .0299445
943.460 .0299225
944.090 .0299014
944.720 .0298821
945.349 .0298641
945.977 .0298472
946.606 .0298311
947.233 .0298155
947.861 .0297999
948.488 .0297835
949.115 .0297662
949.741 .0297483
950.367 .0297294
950.993 .0297099
951.618 .0296898
952.243 .0296696
952.868 .0296492
953.492 .0296286
954.115 .0296076
954.739 .0295867
955.362 .0295656
955.984 .0295440
956.607 .0295220
957.229 .0295004
957.850 .0294788
958.471 .0294573
959.092 .0294365
959.713 .0294169
960.333 .0293983
960.952 .0293816
961.572 .0293662
962.191 .0293522
962.809 .0293388
963.428 .0293255
964.045 .0293121
964.663 .0292986
965.280 .0292849
965.897 .0292708
966.513 .0292576
967.129 .0292454
967.745 .0292341
968.361 .0292245
968.976 .0292167
969.590 .0292099
970.205 .0292031
970.818 .0291962
971.432 .0291888
972.045 .0291811
972.658 .0291730
973.271 .0291644
973.883 .0291556
974.495 .0291470
975.106 .0291384
975.717 .0291302
976.328 .0291228
976.938 .0291159
977.548 .0291096
978.158 .0291038
978.768 .0290983
979.377 .0290930
979.985 .0290878
980.594 .0290835
981.202 .0290794
981.809 .0290756
982.417 .0290722
983.024 .0290702
983.631 .0290698
984.237 .0290707
984.843 .0290727
985.449 .0290756
986.054 .0290785
986.659 .0290812
987.264 .0290830
987.868 .0290842
988.472 .0290847
989.076 .0290850
989.679 .0290857
990.282 .0290874
990.885 .0290899
991.487 .0290939
992.090 .0290988
992.691 .0291041
993.293 .0291091
993.894 .0291141
994.495 .0291189
995.095 .0291240
995.696 .0291291
996.296 .0291345
996.895 .0291404
997.494 .0291472
998.093 .0291537
998.692 .0291602
999.291 .0291667
999.889 .0291717
1000.487 .0291754
1001.084 .0291771
1001.681 .0291768
1002.278 .0291742
1002.875 .0291701
1003.471 .0291640
1004.067 .0291565
1004.663 .0291482
1005.258 .0291390
1005.854 .0291292
1006.449 .0291197
1007.043 .0291099
1007.638 .0291004
1008.232 .0290914
1008.826 .0290832
1009.419 .0290754
1010.012 .0290688
1010.605 .0290629
1011.198 .0290581
1011.791 .0290541
1012.383 .0290510
1012.975 .0290484
1013.566 .0290466
1014.158 .0290454
1014.749 .0290444
1015.340 .0290437
1015.931 .0290428
1016.521 .0290418
1017.111 .0290401
1017.701 .0290379
1018.291 .0290350
1018.880 .0290311
1019.470 .0290265
1020.059 .0290211
1020.647 .0290156
1021.236 .0290100
1021.824 .0290050
1022.412 .0290012
1023.000 .0289978
1023.588 .0289952
1024.175 .0289926
1024.762 .0289893
1025.349 .0289853
1025.936 .0289808
1026.523 .0289750
1027.109 .0289685
1027.695 .0289616
1028.281 .0289540
1028.867 .0289457
1029.452 .0289369
1030.038 .0289275
1030.623 .0289168
1031.208 .0289056
1031.792 .0288935
1032.377 .0288809
1032.961 .0288691
1033.546 .0288576
1034.130 .0288470
1034.714 .0288380
1035.297 .0288299
1035.881 .0288230
1036.464 .0288163
1037.047 .0288111
1037.630 .0288057
1038.213 .0288014
1038.796 .0287973
1039.378 .0287940
1039.961 .0287909
1040.543 .0287887
1041.125 .0287866
1041.707 .0287843
1042.289 .0287810
1042.871 .0287768
1043.452 .0287714
1044.034 .0287650
1044.615 .0287565
1045.196 .0287472
1045.777 .0287365
1046.358 .0287259
1046.939 .0287138
1047.520 .0287017
1048.101 .0286896
1048.681 .0286776
1049.262 .0286650
1049.842 .0286519
1050.422 .0286383
1051.002 .0286244
1051.582 .0286091
1052.162 .0285930
1052.742 .0285753
1053.322 .0285569
1053.902 .0285376
1054.482 .0285189
1055.061 .0285007
1055.641 .0284840
1056.220 .0284676
1056.800 .0284526
1057.379 .0284389
1057.958 .0284263
1058.538 .0284146
1059.117 .0284047
1059.696 .0283971
1060.275 .0283912
1060.854 .0283866
1061.433 .0283847
1062.012 .0283846
1062.592 .0283873
1063.171 .0283916
1063.750 .0283969
1064.329 .0284029
1064.908 .0284092
1065.487 .0284140
1066.066 .0284175
1066.645 .0284202
1067.224 .0284212
1067.803 .0284183
1068.382 .0284136
1068.961 .0284072
1069.540 .0283990
1070.119 .0283897
1070.698 .0283796
1071.278 .0283696
1071.857 .0283600
1072.436 .0283502
1073.016 .0283408
1073.595 .0283335
1074.175 .0283292
1074.754 .0283260
1075.334 .0283247
1075.913 .0283263
1076.493 .0283296
1077.073 .0283336
1077.653 .0283385
1078.233 .0283448
1078.813 .0283506
1079.393 .0283546
1079.974 .0283561
1080.554 .0283568
1081.135 .0283541
1081.716 .0283491
1082.296 .0283419
1082.877 .0283335
1083.458 .0283236
1084.040 .0283122
1084.621 .0283005
1085.202 .0282912
1085.784 .0282832
1086.366 .0282775
1086.948 .0282727
1087.530 .0282720
1088.112 .0282714
1088.695 .0282713
1089.277 .0282722
1089.860 .0282736
1090.443 .0282744
1091.026 .0282768
1091.610 .0282814
1092.193 .0282901
1092.777 .0283007
1093.361 .0283157
1093.946 .0283320
1094.530 .0283500
1095.115 .0283647
1095.700 .0283757
1096.285 .0283818
1096.871 .0283861
1097.456 .0283860
1098.042 .0283840
1098.628 .0283820
1099.215 .0283822
1099.802 .0283829
1100.389 .0283859
1100.976 .0283880
1101.564 .0283890
1102.152 .0283868
1102.740 .0283817
1103.329 .0283703
1103.917 .0283569
1104.507 .0283411
1105.096 .0283269
1105.686 .0283161
1106.276 .0283107
1106.867 .0283110
1107.457 .0283178
1108.049 .0283301
1108.640 .0283447
1109.232 .0283600
1109.825 .0283768
1110.417 .0283906
1111.010 .0284041
1111.604 .0284137
1112.198 .0284210
1112.792 .0284285
1113.387 .0284358
1113.982 .0284446
1114.577 .0284556
1115.173 .0284692
1115.769 .0284840
1116.366 .0285011
1116.963 .0285190
1117.561 .0285369
1118.159 .0285549
1118.758 .0285739
1119.357 .0285919
1119.957 .0286112
1120.557 .0286342
1121.157 .0286621
1121.758 .0286969
1122.360 .0287392
1122.962 .0287848
1123.564 .0288382
1124.167 .0288933
1124.771 .0289510
1125.375 .0290066
1125.980 .0290627
1126.585 .0291162
1127.191 .0291640
1127.797 .0292093
1128.404 .0292528
1129.012 .0292937
1129.620 .0293364
1130.229 .0293775
1130.838 .0294171
1131.448 .0294527
1132.058 .0294867
1132.669 .0295166
1133.281 .0295463
1133.894 .0295726
1134.507 .0295945
1135.120 .0296169
1135.735 .0296387
1136.350 .0296593
1136.965 .0296805
1137.582 .0297061
1138.199 .0297331
1138.816 .0297586
1139.435 .0297880
1140.054 .0298218
1140.674 .0298593
1141.294 .0299126
1141.916 .0299825
1142.538 .0299942
1143.160 .0300967
1143.784 .0300614
1144.408 .0304643
1145.033 .0307302
