Measurement Sequence started on: 14-45-04-498
Integration time: 36
Scans to Average: 2 
>>>>>Begin Spectral Data<<<<<
433.946 .0486719
434.870 .0509115
435.793 .0472476
436.715 .0468679
437.635 .0464176
438.555 .0465720
439.473 .0460987
440.389 .0455928
441.305 .0452122
442.219 .0448526
443.132 .0445378
444.044 .0442632
444.954 .0440532
445.863 .0439123
446.771 .0438055
447.678 .0436970
448.584 .0435936
449.488 .0434860
450.391 .0433625
451.293 .0432291
452.194 .0430942
453.094 .0429545
453.992 .0428099
454.890 .0426658
455.786 .0425281
456.681 .0423821
457.575 .0422313
458.468 .0420704
459.360 .0418984
460.250 .0417224
461.140 .0415394
462.028 .0413555
462.915 .0411749
463.801 .0409992
464.687 .0408243
465.571 .0406591
466.454 .0405120
467.335 .0403772
468.216 .0402561
469.096 .0401458
469.975 .0400524
470.853 .0399688
471.729 .0399002
472.605 .0398436
473.479 .0397969
474.353 .0397614
475.226 .0397305
476.097 .0397021
476.968 .0396751
477.838 .0396450
478.706 .0396114
479.574 .0395732
480.441 .0395367
481.306 .0394985
482.171 .0394654
483.035 .0394360
483.898 .0394120
484.760 .0393892
485.621 .0393670
486.481 .0393417
487.340 .0393152
488.198 .0392879
489.055 .0392556
489.912 .0392222
490.767 .0391915
491.622 .0391613
492.476 .0391406
493.329 .0391220
494.180 .0391063
495.032 .0390880
495.882 .0390646
496.731 .0390339
497.580 .0389964
498.427 .0389516
499.274 .0388960
500.120 .0388348
500.965 .0387681
501.809 .0386922
502.653 .0386143
503.495 .0385371
504.337 .0384583
505.178 .0383797
506.018 .0383032
506.858 .0382237
507.696 .0381466
508.534 .0380716
509.371 .0379964
510.208 .0379252
511.043 .0378574
511.878 .0377984
512.712 .0377470
513.545 .0377080
514.377 .0376768
515.209 .0376504
516.040 .0376311
516.870 .0376104
517.699 .0375868
518.528 .0375571
519.356 .0375231
520.183 .0374835
521.010 .0374337
521.836 .0373814
522.661 .0373259
523.485 .0372695
524.309 .0372062
525.132 .0371342
525.954 .0370518
526.776 .0369623
527.597 .0368710
528.417 .0367788
529.237 .0366944
530.056 .0366223
530.874 .0365567
531.692 .0365011
532.508 .0364546
533.325 .0364136
534.140 .0363711
534.955 .0363250
535.770 .0362739
536.583 .0362219
537.397 .0361764
538.209 .0361452
539.021 .0361270
539.832 .0361245
540.643 .0361289
541.453 .0361344
542.262 .0361371
543.071 .0361301
543.879 .0361090
544.687 .0360779
545.494 .0360378
546.300 .0359924
547.106 .0359448
547.911 .0359088
548.716 .0358859
549.520 .0358717
550.323 .0358627
551.126 .0358553
551.929 .0358472
552.731 .0358329
553.532 .0358092
554.332 .0357793
555.133 .0357457
555.932 .0357125
556.731 .0356796
557.530 .0356526
558.328 .0356350
559.125 .0356220
559.922 .0356151
560.719 .0356042
561.515 .0355859
562.310 .0355592
563.105 .0355284
563.899 .0354924
564.693 .0354540
565.487 .0354177
566.280 .0353858
567.072 .0353605
567.864 .0353441
568.655 .0353270
569.446 .0353118
570.236 .0352950
571.026 .0352693
571.816 .0352331
572.605 .0351909
573.393 .0351443
574.181 .0350984
574.969 .0350565
575.756 .0350198
576.543 .0349867
577.329 .0349614
578.115 .0349399
578.900 .0349204
579.685 .0349034
580.469 .0348859
581.253 .0348679
582.036 .0348509
582.820 .0348322
583.602 .0348118
584.384 .0347894
585.166 .0347642
585.947 .0347347
586.728 .0347003
587.509 .0346620
588.289 .0346212
589.069 .0345805
589.848 .0345407
590.627 .0345014
591.405 .0344648
592.183 .0344307
592.961 .0343980
593.738 .0343667
594.515 .0343359
595.291 .0343063
596.067 .0342787
596.843 .0342538
597.618 .0342320
598.393 .0342139
599.167 .0342003
599.941 .0341903
600.715 .0341837
601.488 .0341791
602.261 .0341750
603.034 .0341707
603.806 .0341665
604.578 .0341605
605.349 .0341526
606.121 .0341434
606.891 .0341334
607.662 .0341223
608.432 .0341102
609.201 .0340973
609.971 .0340837
610.740 .0340699
611.508 .0340552
612.277 .0340391
613.045 .0340223
613.812 .0340047
614.579 .0339863
615.346 .0339676
616.113 .0339492
616.879 .0339308
617.645 .0339136
618.411 .0338975
619.176 .0338820
619.941 .0338666
620.705 .0338510
621.470 .0338348
622.233 .0338174
622.997 .0337987
623.760 .0337788
624.523 .0337583
625.286 .0337377
626.048 .0337165
626.810 .0336947
627.572 .0336720
628.333 .0336493
629.095 .0336261
629.855 .0336019
630.616 .0335771
631.376 .0335515
632.136 .0335261
632.895 .0335011
633.655 .0334773
634.414 .0334549
635.172 .0334344
635.931 .0334160
636.689 .0333985
637.447 .0333820
638.204 .0333665
638.962 .0333511
639.718 .0333360
640.475 .0333205
641.231 .0333043
641.988 .0332869
642.743 .0332689
643.499 .0332499
644.254 .0332300
645.009 .0332094
645.764 .0331881
646.518 .0331667
647.272 .0331452
648.026 .0331238
648.780 .0331023
649.533 .0330815
650.286 .0330610
651.039 .0330401
651.792 .0330196
652.544 .0329999
653.296 .0329811
654.048 .0329638
654.799 .0329484
655.550 .0329347
656.301 .0329223
657.052 .0329111
657.802 .0329003
658.552 .0328894
659.302 .0328778
660.052 .0328654
660.801 .0328517
661.550 .0328372
662.299 .0328214
663.048 .0328049
663.796 .0327882
664.544 .0327712
665.292 .0327539
666.040 .0327368
666.787 .0327203
667.534 .0327047
668.281 .0326900
669.028 .0326767
669.774 .0326651
670.521 .0326546
671.266 .0326447
672.012 .0326354
672.758 .0326265
673.503 .0326172
674.248 .0326075
674.992 .0325979
675.737 .0325885
676.481 .0325793
677.225 .0325706
677.969 .0325621
678.712 .0325535
679.455 .0325441
680.199 .0325338
680.941 .0325219
681.684 .0325088
682.426 .0324938
683.168 .0324771
683.910 .0324599
684.652 .0324427
685.393 .0324252
686.134 .0324087
686.875 .0323936
687.616 .0323795
688.356 .0323662
689.097 .0323543
689.837 .0323427
690.576 .0323311
691.316 .0323196
692.055 .0323075
692.794 .0322943
693.533 .0322814
694.272 .0322682
695.010 .0322553
695.748 .0322434
696.486 .0322326
697.224 .0322227
697.962 .0322138
698.699 .0322052
699.436 .0321962
700.173 .0321866
700.909 .0321762
701.646 .0321646
702.382 .0321526
703.118 .0321400
703.853 .0321271
704.589 .0321141
705.324 .0321009
706.059 .0320871
706.794 .0320721
707.529 .0320558
708.263 .0320384
708.997 .0320197
709.731 .0319997
710.465 .0319790
711.198 .0319583
711.931 .0319376
712.664 .0319173
713.397 .0318969
714.130 .0318763
714.862 .0318554
715.594 .0318343
716.326 .0318130
717.058 .0317921
717.789 .0317719
718.520 .0317521
719.251 .0317330
719.982 .0317147
720.713 .0316970
721.443 .0316796
722.173 .0316627
722.903 .0316457
723.633 .0316283
724.362 .0316109
725.091 .0315932
725.820 .0315757
726.549 .0315587
727.278 .0315420
728.006 .0315255
728.734 .0315094
729.462 .0314934
730.190 .0314774
730.917 .0314617
731.644 .0314462
732.371 .0314307
733.098 .0314156
733.825 .0314002
734.551 .0313845
735.277 .0313687
736.003 .0313526
736.728 .0313365
737.454 .0313208
738.179 .0313056
738.904 .0312909
739.629 .0312771
740.353 .0312643
741.077 .0312520
741.801 .0312404
742.525 .0312288
743.249 .0312169
743.972 .0312049
744.695 .0311927
745.418 .0311800
746.141 .0311673
746.863 .0311546
747.585 .0311420
748.307 .0311291
749.029 .0311159
749.750 .0311021
750.472 .0310878
751.193 .0310729
751.913 .0310571
752.634 .0310403
753.354 .0310231
754.074 .0310052
754.794 .0309873
755.514 .0309696
756.233 .0309524
756.952 .0309354
757.671 .0309190
758.390 .0309032
759.108 .0308875
759.826 .0308720
760.544 .0308567
761.262 .0308412
761.979 .0308253
762.697 .0308086
763.414 .0307914
764.130 .0307736
764.847 .0307555
765.563 .0307367
766.279 .0307173
766.995 .0306982
767.710 .0306791
768.426 .0306598
769.141 .0306415
769.855 .0306236
770.570 .0306062
771.284 .0305893
771.998 .0305728
772.712 .0305567
773.426 .0305411
774.139 .0305258
774.852 .0305107
775.565 .0304957
776.277 .0304812
776.990 .0304668
777.702 .0304530
778.414 .0304400
779.125 .0304271
779.836 .0304145
780.547 .0304020
781.258 .0303892
781.969 .0303762
782.679 .0303627
783.389 .0303488
784.099 .0303349
784.808 .0303211
785.517 .0303079
786.226 .0302953
786.935 .0302838
787.643 .0302731
788.352 .0302632
789.060 .0302540
789.767 .0302451
790.475 .0302364
791.182 .0302278
791.889 .0302191
792.595 .0302106
793.301 .0302020
794.008 .0301934
794.713 .0301848
795.419 .0301762
796.124 .0301672
796.829 .0301576
797.534 .0301471
798.238 .0301358
798.942 .0301236
799.646 .0301106
800.350 .0300968
801.053 .0300823
801.756 .0300670
802.459 .0300512
803.162 .0300342
803.864 .0300165
804.566 .0299979
805.267 .0299782
805.969 .0299575
806.670 .0299364
807.371 .0299150
808.071 .0298940
808.772 .0298742
809.472 .0298552
810.171 .0298370
810.871 .0298196
811.570 .0298026
812.269 .0297857
812.967 .0297687
813.666 .0297512
814.364 .0297331
815.061 .0297151
815.759 .0296974
816.456 .0296802
817.153 .0296638
817.849 .0296480
818.545 .0296323
819.241 .0296164
819.937 .0295998
820.632 .0295819
821.327 .0295626
822.022 .0295420
822.717 .0295207
823.411 .0294990
824.105 .0294771
824.798 .0294560
825.491 .0294358
826.184 .0294160
826.877 .0293967
827.569 .0293772
828.261 .0293574
828.953 .0293369
829.645 .0293155
830.336 .0292936
831.027 .0292724
831.717 .0292517
832.407 .0292323
833.097 .0292146
833.787 .0291984
834.476 .0291829
835.165 .0291680
835.854 .0291534
836.542 .0291385
837.230 .0291231
837.918 .0291077
838.605 .0290922
839.292 .0290777
839.979 .0290641
840.665 .0290518
841.352 .0290413
842.037 .0290319
842.723 .0290224
843.408 .0290130
844.093 .0290027
844.777 .0289918
845.462 .0289797
846.145 .0289669
846.829 .0289535
847.512 .0289402
848.195 .0289269
848.878 .0289142
849.560 .0289022
850.242 .0288905
850.923 .0288786
851.605 .0288665
852.286 .0288535
852.966 .0288397
853.646 .0288257
854.326 .0288119
855.006 .0287987
855.685 .0287861
856.364 .0287739
857.043 .0287627
857.721 .0287524
858.399 .0287420
859.077 .0287314
859.754 .0287205
860.431 .0287089
861.107 .0286961
861.784 .0286828
862.459 .0286690
863.135 .0286551
863.810 .0286413
864.485 .0286273
865.160 .0286135
865.834 .0286001
866.508 .0285865
867.181 .0285733
867.854 .0285604
868.527 .0285475
869.199 .0285346
869.872 .0285222
870.543 .0285103
871.215 .0284986
871.886 .0284875
872.557 .0284768
873.227 .0284665
873.897 .0284568
874.567 .0284473
875.236 .0284383
875.905 .0284297
876.573 .0284210
877.242 .0284116
877.909 .0284021
878.577 .0283922
879.244 .0283816
879.911 .0283705
880.577 .0283592
881.243 .0283475
881.909 .0283356
882.575 .0283235
883.240 .0283115
883.904 .0282992
884.569 .0282869
885.232 .0282743
885.896 .0282614
886.559 .0282483
887.222 .0282347
887.885 .0282205
888.547 .0282060
889.208 .0281912
889.870 .0281760
890.531 .0281609
891.192 .0281459
891.852 .0281310
892.512 .0281165
893.171 .0281023
893.830 .0280889
894.489 .0280759
895.148 .0280634
895.806 .0280509
896.464 .0280384
897.121 .0280256
897.778 .0280121
898.434 .0279985
899.091 .0279845
899.747 .0279700
900.402 .0279549
901.057 .0279393
901.712 .0279234
902.366 .0279069
903.020 .0278896
903.674 .0278715
904.327 .0278530
904.980 .0278339
905.633 .0278145
906.285 .0277956
906.936 .0277775
907.588 .0277600
908.239 .0277427
908.889 .0277260
909.540 .0277092
910.190 .0276924
910.839 .0276751
911.488 .0276573
912.137 .0276391
912.785 .0276205
913.433 .0276019
914.081 .0275839
914.728 .0275667
915.375 .0275498
916.021 .0275336
916.668 .0275178
917.313 .0275023
917.959 .0274863
918.604 .0274703
919.248 .0274544
919.892 .0274388
920.536 .0274238
921.180 .0274098
921.823 .0273975
922.465 .0273870
923.108 .0273775
923.750 .0273690
924.391 .0273607
925.032 .0273521
925.673 .0273427
926.313 .0273326
926.953 .0273214
927.593 .0273091
928.232 .0272953
928.871 .0272808
929.510 .0272657
930.148 .0272504
930.786 .0272349
931.423 .0272196
932.060 .0272045
932.697 .0271895
933.333 .0271744
933.969 .0271598
934.604 .0271457
935.239 .0271321
935.874 .0271189
936.508 .0271065
937.142 .0270951
937.776 .0270848
938.409 .0270753
939.042 .0270669
939.674 .0270593
940.306 .0270521
940.938 .0270454
941.569 .0270391
942.200 .0270330
942.830 .0270270
943.460 .0270207
944.090 .0270140
944.720 .0270068
945.349 .0269987
945.977 .0269900
946.606 .0269811
947.233 .0269720
947.861 .0269624
948.488 .0269526
949.115 .0269429
949.741 .0269328
950.367 .0269224
950.993 .0269114
951.618 .0268999
952.243 .0268882
952.868 .0268762
953.492 .0268644
954.115 .0268531
954.739 .0268424
955.362 .0268324
955.984 .0268230
956.607 .0268138
957.229 .0268050
957.850 .0267961
958.471 .0267869
959.092 .0267772
959.713 .0267666
960.333 .0267552
960.952 .0267434
961.572 .0267318
962.191 .0267201
962.809 .0267086
963.428 .0266974
964.045 .0266857
964.663 .0266735
965.280 .0266604
965.897 .0266458
966.513 .0266298
967.129 .0266129
967.745 .0265949
968.361 .0265767
968.976 .0265585
969.590 .0265413
970.205 .0265251
970.818 .0265102
971.432 .0264961
972.045 .0264828
972.658 .0264699
973.271 .0264573
973.883 .0264443
974.495 .0264313
975.106 .0264186
975.717 .0264064
976.328 .0263946
976.938 .0263839
977.548 .0263742
978.158 .0263656
978.768 .0263575
979.377 .0263500
979.985 .0263416
980.594 .0263327
981.202 .0263227
981.809 .0263114
982.417 .0262993
983.024 .0262870
983.631 .0262746
984.237 .0262625
984.843 .0262514
985.449 .0262404
986.054 .0262290
986.659 .0262180
987.264 .0262062
987.868 .0261936
988.472 .0261806
989.076 .0261669
989.679 .0261532
990.282 .0261402
990.885 .0261276
991.487 .0261153
992.090 .0261039
992.691 .0260924
993.293 .0260801
993.894 .0260669
994.495 .0260532
995.095 .0260383
995.696 .0260232
996.296 .0260081
996.895 .0259934
997.494 .0259794
998.093 .0259663
998.692 .0259536
999.291 .0259422
999.889 .0259314
1000.487 .0259208
1001.084 .0259105
1001.681 .0259007
1002.278 .0258912
1002.875 .0258822
1003.471 .0258741
1004.067 .0258672
1004.663 .0258614
1005.258 .0258568
1005.854 .0258527
1006.449 .0258498
1007.043 .0258476
1007.638 .0258461
1008.232 .0258453
1008.826 .0258452
1009.419 .0258453
1010.012 .0258458
1010.605 .0258465
1011.198 .0258471
1011.791 .0258477
1012.383 .0258483
1012.975 .0258484
1013.566 .0258480
1014.158 .0258471
1014.749 .0258460
1015.340 .0258441
1015.931 .0258423
1016.521 .0258404
1017.111 .0258386
1017.701 .0258368
1018.291 .0258346
1018.880 .0258323
1019.470 .0258299
1020.059 .0258281
1020.647 .0258264
1021.236 .0258257
1021.824 .0258262
1022.412 .0258280
1023.000 .0258314
1023.588 .0258365
1024.175 .0258428
1024.762 .0258493
1025.349 .0258561
1025.936 .0258623
1026.523 .0258672
1027.109 .0258712
1027.695 .0258742
1028.281 .0258770
1028.867 .0258793
1029.452 .0258815
1030.038 .0258830
1030.623 .0258845
1031.208 .0258861
1031.792 .0258877
1032.377 .0258891
1032.961 .0258906
1033.546 .0258923
1034.130 .0258946
1034.714 .0258978
1035.297 .0259017
1035.881 .0259063
1036.464 .0259130
1037.047 .0259207
1037.630 .0259294
1038.213 .0259385
1038.796 .0259487
1039.378 .0259594
1039.961 .0259704
1040.543 .0259811
1041.125 .0259913
1041.707 .0260002
1042.289 .0260072
1042.871 .0260121
1043.452 .0260151
1044.034 .0260160
1044.615 .0260153
1045.196 .0260134
1045.777 .0260108
1046.358 .0260070
1046.939 .0260027
1047.520 .0259980
1048.101 .0259930
1048.681 .0259871
1049.262 .0259806
1049.842 .0259730
1050.422 .0259659
1051.002 .0259589
1051.582 .0259525
1052.162 .0259476
1052.742 .0259439
1053.322 .0259411
1053.902 .0259388
1054.482 .0259371
1055.061 .0259351
1055.641 .0259332
1056.220 .0259318
1056.800 .0259301
1057.379 .0259295
1057.958 .0259298
1058.538 .0259309
1059.117 .0259335
1059.696 .0259366
1060.275 .0259386
1060.854 .0259392
1061.433 .0259378
1062.012 .0259340
1062.592 .0259282
1063.171 .0259222
1063.750 .0259159
1064.329 .0259104
1064.908 .0259059
1065.487 .0259016
1066.066 .0258971
1066.645 .0258926
1067.224 .0258865
1067.803 .0258783
1068.382 .0258681
1068.961 .0258569
1069.540 .0258448
1070.119 .0258333
1070.698 .0258234
1071.278 .0258158
1071.857 .0258106
1072.436 .0258082
1073.016 .0258073
1073.595 .0258080
1074.175 .0258091
1074.754 .0258107
1075.334 .0258106
1075.913 .0258096
1076.493 .0258067
1077.073 .0258011
1077.653 .0257941
1078.233 .0257868
1078.813 .0257784
1079.393 .0257704
1079.974 .0257638
1080.554 .0257581
1081.135 .0257523
1081.716 .0257466
1082.296 .0257396
1082.877 .0257296
1083.458 .0257169
1084.040 .0257011
1084.621 .0256820
1085.202 .0256631
1085.784 .0256437
1086.366 .0256250
1086.948 .0256085
1087.530 .0255936
1088.112 .0255799
1088.695 .0255658
1089.277 .0255537
1089.860 .0255406
1090.443 .0255263
1091.026 .0255133
1091.610 .0255008
1092.193 .0254902
1092.777 .0254815
1093.361 .0254751
1093.946 .0254713
1094.530 .0254686
1095.115 .0254670
1095.700 .0254652
1096.285 .0254634
1096.871 .0254604
1097.456 .0254559
1098.042 .0254489
1098.628 .0254415
1099.215 .0254310
1099.802 .0254200
1100.389 .0254088
1100.976 .0253965
1101.564 .0253839
1102.152 .0253705
1102.740 .0253591
1103.329 .0253476
1103.917 .0253365
1104.507 .0253275
1105.096 .0253182
1105.686 .0253114
1106.276 .0253042
1106.867 .0252993
1107.457 .0252974
1108.049 .0252986
1108.640 .0253023
1109.232 .0253070
1109.825 .0253156
1110.417 .0253262
1111.010 .0253376
1111.604 .0253501
1112.198 .0253628
1112.792 .0253749
1113.387 .0253865
1113.982 .0253978
1114.577 .0254084
1115.173 .0254194
1115.769 .0254301
1116.366 .0254402
1116.963 .0254506
1117.561 .0254624
1118.159 .0254750
1118.758 .0254881
1119.357 .0255051
1119.957 .0255201
1120.557 .0255357
1121.157 .0255518
1121.758 .0255679
1122.360 .0255855
1122.962 .0256049
1123.564 .0256293
1124.167 .0256589
1124.771 .0256934
1125.375 .0257324
1125.980 .0257753
1126.585 .0258241
1127.191 .0258711
1127.797 .0259166
1128.404 .0259610
1129.012 .0260028
1129.620 .0260415
1130.229 .0260789
1130.838 .0261164
1131.448 .0261544
1132.058 .0261938
1132.669 .0262330
1133.281 .0262722
1133.894 .0263119
1134.507 .0263488
1135.120 .0263861
1135.735 .0264243
1136.350 .0264641
1136.965 .0265075
1137.582 .0265590
1138.199 .0266185
1138.816 .0266878
1139.435 .0267646
1140.054 .0268514
1140.674 .0269470
1141.294 .0270495
1141.916 .0271606
1142.538 .0272113
1143.160 .0273825
1143.784 .0275102
1144.408 .0276372
1145.033 .0278826
