Measurement Sequence started on: 14-45-04-498
Integration time: 36
Scans to Average: 2 
>>>>>Begin Spectral Data<<<<<
433.946 .0702074
434.870 .0542350
435.793 .0528322
436.715 .0527140
437.635 .0526199
438.555 .0537977
439.473 .0532758
440.389 .0533571
441.305 .0534836
442.219 .0536044
443.132 .0536972
444.044 .0537563
444.954 .0538054
445.863 .0538356
446.771 .0538625
447.678 .0538837
448.584 .0539181
449.488 .0539415
450.391 .0539616
451.293 .0539587
452.194 .0539230
453.094 .0538603
453.992 .0537580
454.890 .0536218
455.786 .0534679
456.681 .0533061
457.575 .0531436
458.468 .0529795
459.360 .0528304
460.250 .0526950
461.140 .0525616
462.028 .0524273
462.915 .0522935
463.801 .0521560
464.687 .0520200
465.571 .0518863
466.454 .0517611
467.335 .0516500
468.216 .0515507
469.096 .0514644
469.975 .0513844
470.853 .0513104
471.729 .0512376
472.605 .0511638
473.479 .0510885
474.353 .0510068
475.226 .0509228
476.097 .0508414
476.968 .0507645
477.838 .0506894
478.706 .0506172
479.574 .0505537
480.441 .0504939
481.306 .0504394
482.171 .0503899
483.035 .0503471
483.898 .0503132
484.760 .0502850
485.621 .0502634
486.481 .0502417
487.340 .0502242
488.198 .0502079
489.055 .0501904
489.912 .0501698
490.767 .0501455
491.622 .0501165
492.476 .0500824
493.329 .0500447
494.180 .0499990
495.032 .0499510
495.882 .0499002
496.731 .0498417
497.580 .0497763
498.427 .0497028
499.274 .0496258
500.120 .0495419
500.965 .0494580
501.809 .0493690
502.653 .0492793
503.495 .0491933
504.337 .0491072
505.178 .0490232
506.018 .0489409
506.858 .0488614
507.696 .0487851
508.534 .0487083
509.371 .0486293
510.208 .0485508
511.043 .0484790
511.878 .0484065
512.712 .0483361
513.545 .0482686
514.377 .0482056
515.209 .0481456
516.040 .0480920
516.870 .0480432
517.699 .0480011
518.528 .0479688
519.356 .0479436
520.183 .0479220
521.010 .0479063
521.836 .0478940
522.661 .0478823
523.485 .0478687
524.309 .0478480
525.132 .0478171
525.954 .0477846
526.776 .0477518
527.597 .0477218
528.417 .0476934
529.237 .0476749
530.056 .0476596
530.874 .0476420
531.692 .0476240
532.508 .0476013
533.325 .0475715
534.140 .0475373
534.955 .0474947
535.770 .0474459
536.583 .0474003
537.397 .0473630
538.209 .0473291
539.021 .0472979
539.832 .0472673
540.643 .0472232
541.453 .0471690
542.262 .0471058
543.071 .0470243
543.879 .0469341
544.687 .0468393
545.494 .0467386
546.300 .0466374
547.106 .0465415
547.911 .0464528
548.716 .0463709
549.520 .0462927
550.323 .0462152
551.126 .0461383
551.929 .0460679
552.731 .0459960
553.532 .0459255
554.332 .0458618
555.133 .0458043
555.932 .0457520
556.731 .0457048
557.530 .0456648
558.328 .0456395
559.125 .0456179
559.922 .0456015
560.719 .0455885
561.515 .0455767
562.310 .0455603
563.105 .0455386
563.899 .0455132
564.693 .0454820
565.487 .0454473
566.280 .0454092
567.072 .0453657
567.864 .0453200
568.655 .0452674
569.446 .0452089
570.236 .0451484
571.026 .0450860
571.816 .0450191
572.605 .0449536
573.393 .0448886
574.181 .0448240
574.969 .0447593
575.756 .0446952
576.543 .0446307
577.329 .0445645
578.115 .0444945
578.900 .0444232
579.685 .0443530
580.469 .0442874
581.253 .0442269
582.036 .0441755
582.820 .0441312
583.602 .0440942
584.384 .0440623
585.166 .0440343
585.947 .0440075
586.728 .0439824
587.509 .0439552
588.289 .0439276
589.069 .0439010
589.848 .0438765
590.627 .0438537
591.405 .0438343
592.183 .0438153
592.961 .0437968
593.738 .0437767
594.515 .0437541
595.291 .0437280
596.067 .0437002
596.843 .0436692
597.618 .0436359
598.393 .0436018
599.167 .0435683
599.941 .0435357
600.715 .0435054
601.488 .0434757
602.261 .0434480
603.034 .0434209
603.806 .0433951
604.578 .0433713
605.349 .0433506
606.121 .0433327
606.891 .0433188
607.662 .0433078
608.432 .0432990
609.201 .0432912
609.971 .0432844
610.740 .0432768
611.508 .0432677
612.277 .0432569
613.045 .0432450
613.812 .0432331
614.579 .0432221
615.346 .0432106
616.113 .0432003
616.879 .0431906
617.645 .0431803
618.411 .0431685
619.176 .0431557
619.941 .0431416
620.705 .0431266
621.470 .0431115
622.233 .0430967
622.997 .0430826
623.760 .0430702
624.523 .0430591
625.286 .0430487
626.048 .0430382
626.810 .0430264
627.572 .0430123
628.333 .0429972
629.095 .0429796
629.855 .0429595
630.616 .0429378
631.376 .0429153
632.136 .0428916
632.895 .0428671
633.655 .0428427
634.414 .0428183
635.172 .0427947
635.931 .0427726
636.689 .0427510
637.447 .0427309
638.204 .0427123
638.962 .0426944
639.718 .0426772
640.475 .0426604
641.231 .0426429
641.988 .0426248
642.743 .0426069
643.499 .0425883
644.254 .0425697
645.009 .0425519
645.764 .0425350
646.518 .0425189
647.272 .0425036
648.026 .0424878
648.780 .0424709
649.533 .0424532
650.286 .0424335
651.039 .0424114
651.792 .0423877
652.544 .0423632
653.296 .0423390
654.048 .0423161
654.799 .0422950
655.550 .0422755
656.301 .0422577
657.052 .0422406
657.802 .0422234
658.552 .0422055
659.302 .0421864
660.052 .0421661
660.801 .0421445
661.550 .0421222
662.299 .0420999
663.048 .0420775
663.796 .0420562
664.544 .0420359
665.292 .0420158
666.040 .0419960
666.787 .0419762
667.534 .0419559
668.281 .0419348
669.028 .0419129
669.774 .0418903
670.521 .0418670
671.266 .0418439
672.012 .0418208
672.758 .0417980
673.503 .0417762
674.248 .0417551
674.992 .0417343
675.737 .0417140
676.481 .0416937
677.225 .0416729
677.969 .0416520
678.712 .0416308
679.455 .0416094
680.199 .0415886
680.941 .0415687
681.684 .0415500
682.426 .0415327
683.168 .0415164
683.910 .0415006
684.652 .0414844
685.393 .0414677
686.134 .0414499
686.875 .0414309
687.616 .0414117
688.356 .0413932
689.097 .0413757
689.837 .0413593
690.576 .0413437
691.316 .0413289
692.055 .0413138
692.794 .0412974
693.533 .0412791
694.272 .0412592
695.010 .0412380
695.748 .0412156
696.486 .0411926
697.224 .0411706
697.962 .0411495
698.699 .0411295
699.436 .0411100
700.173 .0410902
700.909 .0410693
701.646 .0410472
702.382 .0410237
703.118 .0409992
703.853 .0409743
704.589 .0409499
705.324 .0409269
706.059 .0409059
706.794 .0408863
707.529 .0408682
708.263 .0408512
708.997 .0408345
709.731 .0408162
710.465 .0407973
711.198 .0407769
711.931 .0407555
712.664 .0407332
713.397 .0407108
714.130 .0406883
714.862 .0406660
715.594 .0406443
716.326 .0406232
717.058 .0406024
717.789 .0405825
718.520 .0405621
719.251 .0405416
719.982 .0405208
720.713 .0404998
721.443 .0404781
722.173 .0404564
722.903 .0404343
723.633 .0404121
724.362 .0403901
725.091 .0403683
725.820 .0403460
726.549 .0403241
727.278 .0403027
728.006 .0402810
728.734 .0402593
729.462 .0402377
730.190 .0402158
730.917 .0401938
731.644 .0401713
732.371 .0401487
733.098 .0401261
733.825 .0401045
734.551 .0400834
735.277 .0400637
736.003 .0400458
736.728 .0400296
737.454 .0400160
738.179 .0400048
738.904 .0399949
739.629 .0399860
740.353 .0399778
741.077 .0399700
741.801 .0399620
742.525 .0399533
743.249 .0399439
743.972 .0399343
744.695 .0399250
745.418 .0399153
746.141 .0399057
746.863 .0398974
747.585 .0398891
748.307 .0398805
749.029 .0398713
749.750 .0398602
750.472 .0398480
751.193 .0398348
751.913 .0398197
752.634 .0398037
753.354 .0397869
754.074 .0397697
754.794 .0397523
755.514 .0397350
756.233 .0397174
756.952 .0396991
757.671 .0396803
758.390 .0396604
759.108 .0396390
759.826 .0396175
760.544 .0395955
761.262 .0395736
761.979 .0395521
762.697 .0395309
763.414 .0395098
764.130 .0394901
764.847 .0394711
765.563 .0394525
766.279 .0394341
766.995 .0394162
767.710 .0393984
768.426 .0393805
769.141 .0393630
769.855 .0393455
770.570 .0393282
771.284 .0393113
771.998 .0392938
772.712 .0392765
773.426 .0392598
774.139 .0392429
774.852 .0392257
775.565 .0392087
776.277 .0391913
776.990 .0391736
777.702 .0391556
778.414 .0391376
779.125 .0391199
779.836 .0391025
780.547 .0390853
781.258 .0390687
781.969 .0390526
782.679 .0390371
783.389 .0390216
784.099 .0390065
784.808 .0389912
785.517 .0389765
786.226 .0389618
786.935 .0389476
787.643 .0389338
788.352 .0389208
789.060 .0389082
789.767 .0388965
790.475 .0388853
791.182 .0388743
791.889 .0388644
792.595 .0388556
793.301 .0388471
794.008 .0388392
794.713 .0388319
795.419 .0388246
796.124 .0388172
796.829 .0388096
797.534 .0388011
798.238 .0387925
798.942 .0387836
799.646 .0387742
800.350 .0387646
801.053 .0387548
801.756 .0387447
802.459 .0387338
803.162 .0387223
803.864 .0387093
804.566 .0386947
805.267 .0386793
805.969 .0386628
806.670 .0386453
807.371 .0386281
808.071 .0386114
808.772 .0385959
809.472 .0385813
810.171 .0385677
810.871 .0385552
811.570 .0385438
812.269 .0385322
812.967 .0385205
813.666 .0385085
814.364 .0384961
815.061 .0384829
815.759 .0384697
816.456 .0384563
817.153 .0384426
817.849 .0384281
818.545 .0384131
819.241 .0383969
819.937 .0383798
820.632 .0383605
821.327 .0383391
822.022 .0383160
822.717 .0382909
823.411 .0382640
824.105 .0382367
824.798 .0382096
825.491 .0381825
826.184 .0381558
826.877 .0381302
827.569 .0381052
828.261 .0380811
828.953 .0380573
829.645 .0380335
830.336 .0380098
831.027 .0379866
831.717 .0379631
832.407 .0379404
833.097 .0379186
833.787 .0378971
834.476 .0378754
835.165 .0378539
835.854 .0378318
836.542 .0378093
837.230 .0377865
837.918 .0377636
838.605 .0377410
839.292 .0377201
839.979 .0377002
840.665 .0376824
841.352 .0376664
842.037 .0376520
842.723 .0376379
843.408 .0376243
844.093 .0376102
844.777 .0375957
845.462 .0375809
846.145 .0375661
846.829 .0375512
847.512 .0375372
848.195 .0375237
848.878 .0375110
849.560 .0374987
850.242 .0374861
850.923 .0374724
851.605 .0374575
852.286 .0374412
852.966 .0374234
853.646 .0374043
854.326 .0373845
855.006 .0373647
855.685 .0373452
856.364 .0373260
857.043 .0373067
857.721 .0372879
858.399 .0372695
859.077 .0372510
859.754 .0372320
860.431 .0372128
861.107 .0371934
861.784 .0371737
862.459 .0371539
863.135 .0371337
863.810 .0371140
864.485 .0370951
865.160 .0370774
865.834 .0370617
866.508 .0370476
867.181 .0370355
867.854 .0370252
868.527 .0370165
869.199 .0370083
869.872 .0370002
870.543 .0369920
871.215 .0369833
871.886 .0369739
872.557 .0369638
873.227 .0369536
873.897 .0369438
874.567 .0369346
875.236 .0369256
875.905 .0369167
876.573 .0369076
877.242 .0368977
877.909 .0368867
878.577 .0368743
879.244 .0368602
879.911 .0368445
880.577 .0368279
881.243 .0368105
881.909 .0367922
882.575 .0367738
883.240 .0367551
883.904 .0367363
884.569 .0367171
885.232 .0366973
885.896 .0366770
886.559 .0366567
887.222 .0366356
887.885 .0366136
888.547 .0365908
889.208 .0365675
889.870 .0365431
890.531 .0365189
891.192 .0364952
891.852 .0364724
892.512 .0364507
893.171 .0364307
893.830 .0364119
894.489 .0363947
895.148 .0363782
895.806 .0363621
896.464 .0363464
897.121 .0363310
897.778 .0363154
898.434 .0363001
899.091 .0362849
899.747 .0362700
900.402 .0362547
901.057 .0362394
901.712 .0362234
902.366 .0362069
903.020 .0361895
903.674 .0361709
904.327 .0361515
904.980 .0361316
905.633 .0361111
906.285 .0360903
906.936 .0360694
907.588 .0360482
908.239 .0360265
908.889 .0360042
909.540 .0359817
910.190 .0359594
910.839 .0359375
911.488 .0359162
912.137 .0358956
912.785 .0358752
913.433 .0358547
914.081 .0358336
914.728 .0358122
915.375 .0357898
916.021 .0357668
916.668 .0357430
917.313 .0357192
917.959 .0356957
918.604 .0356724
919.248 .0356494
919.892 .0356264
920.536 .0356027
921.180 .0355782
921.823 .0355527
922.465 .0355265
923.108 .0354999
923.750 .0354738
924.391 .0354483
925.032 .0354243
925.673 .0354022
926.313 .0353817
926.953 .0353624
927.593 .0353438
928.232 .0353248
928.871 .0353049
929.510 .0352837
930.148 .0352612
930.786 .0352375
931.423 .0352136
932.060 .0351900
932.697 .0351674
933.333 .0351465
933.969 .0351276
934.604 .0351100
935.239 .0350939
935.874 .0350789
936.508 .0350646
937.142 .0350507
937.776 .0350374
938.409 .0350245
939.042 .0350123
939.674 .0350008
940.306 .0349906
940.938 .0349825
941.569 .0349763
942.200 .0349719
942.830 .0349690
943.460 .0349669
944.090 .0349645
944.720 .0349610
945.349 .0349571
945.977 .0349520
946.606 .0349460
947.233 .0349388
947.861 .0349310
948.488 .0349227
949.115 .0349140
949.741 .0349052
950.367 .0348960
950.993 .0348864
951.618 .0348760
952.243 .0348648
952.868 .0348529
953.492 .0348404
954.115 .0348270
954.739 .0348128
955.362 .0347982
955.984 .0347823
956.607 .0347652
957.229 .0347470
957.850 .0347280
958.471 .0347080
959.092 .0346870
959.713 .0346653
960.333 .0346434
960.952 .0346218
961.572 .0346009
962.191 .0345808
962.809 .0345616
963.428 .0345436
964.045 .0345265
964.663 .0345101
965.280 .0344945
965.897 .0344795
966.513 .0344649
967.129 .0344512
967.745 .0344382
968.361 .0344255
968.976 .0344140
969.590 .0344036
970.205 .0343936
970.818 .0343839
971.432 .0343745
972.045 .0343645
972.658 .0343540
973.271 .0343423
973.883 .0343284
974.495 .0343120
975.106 .0342939
975.717 .0342735
976.328 .0342515
976.938 .0342291
977.548 .0342061
978.158 .0341829
978.768 .0341603
979.377 .0341374
979.985 .0341142
980.594 .0340908
981.202 .0340671
981.809 .0340420
982.417 .0340173
983.024 .0339930
983.631 .0339699
984.237 .0339492
984.843 .0339313
985.449 .0339158
986.054 .0339029
986.659 .0338914
987.264 .0338809
987.868 .0338704
988.472 .0338604
989.076 .0338498
989.679 .0338393
990.282 .0338287
990.885 .0338189
991.487 .0338093
992.090 .0338005
992.691 .0337912
993.293 .0337816
993.894 .0337715
994.495 .0337603
995.095 .0337475
995.696 .0337337
996.296 .0337192
996.895 .0337044
997.494 .0336893
998.093 .0336748
998.692 .0336602
999.291 .0336463
999.889 .0336323
1000.487 .0336178
1001.084 .0336031
1001.681 .0335880
1002.278 .0335722
1002.875 .0335562
1003.471 .0335399
1004.067 .0335239
1004.663 .0335084
1005.258 .0334943
1005.854 .0334803
1006.449 .0334665
1007.043 .0334532
1007.638 .0334395
1008.232 .0334257
1008.826 .0334123
1009.419 .0333993
1010.012 .0333874
1010.605 .0333773
1011.198 .0333686
1011.791 .0333620
1012.383 .0333574
1012.975 .0333537
1013.566 .0333504
1014.158 .0333467
1014.749 .0333423
1015.340 .0333374
1015.931 .0333327
1016.521 .0333286
1017.111 .0333251
1017.701 .0333236
1018.291 .0333236
1018.880 .0333253
1019.470 .0333289
1020.059 .0333340
1020.647 .0333403
1021.236 .0333468
1021.824 .0333535
1022.412 .0333606
1023.000 .0333685
1023.588 .0333773
1024.175 .0333866
1024.762 .0333965
1025.349 .0334063
1025.936 .0334162
1026.523 .0334263
1027.109 .0334369
1027.695 .0334479
1028.281 .0334592
1028.867 .0334708
1029.452 .0334825
1030.038 .0334936
1030.623 .0335033
1031.208 .0335116
1031.792 .0335185
1032.377 .0335231
1032.961 .0335259
1033.546 .0335288
1034.130 .0335326
1034.714 .0335379
1035.297 .0335449
1035.881 .0335528
1036.464 .0335605
1037.047 .0335671
1037.630 .0335709
1038.213 .0335712
1038.796 .0335678
1039.378 .0335610
1039.961 .0335514
1040.543 .0335411
1041.125 .0335305
1041.707 .0335212
1042.289 .0335132
1042.871 .0335069
1043.452 .0335003
1044.034 .0334939
1044.615 .0334869
1045.196 .0334796
1045.777 .0334723
1046.358 .0334658
1046.939 .0334603
1047.520 .0334568
1048.101 .0334555
1048.681 .0334568
1049.262 .0334592
1049.842 .0334625
1050.422 .0334653
1051.002 .0334676
1051.582 .0334669
1052.162 .0334638
1052.742 .0334576
1053.322 .0334495
1053.902 .0334391
1054.482 .0334280
1055.061 .0334173
1055.641 .0334070
1056.220 .0333979
1056.800 .0333900
1057.379 .0333824
1057.958 .0333753
1058.538 .0333674
1059.117 .0333588
1059.696 .0333499
1060.275 .0333413
1060.854 .0333334
1061.433 .0333282
1062.012 .0333262
1062.592 .0333276
1063.171 .0333319
1063.750 .0333392
1064.329 .0333472
1064.908 .0333546
1065.487 .0333607
1066.066 .0333646
1066.645 .0333668
1067.224 .0333670
1067.803 .0333662
1068.382 .0333643
1068.961 .0333621
1069.540 .0333590
1070.119 .0333551
1070.698 .0333493
1071.278 .0333408
1071.857 .0333290
1072.436 .0333136
1073.016 .0332950
1073.595 .0332738
1074.175 .0332503
1074.754 .0332262
1075.334 .0331999
1075.913 .0331735
1076.493 .0331478
1077.073 .0331243
1077.653 .0331016
1078.233 .0330830
1078.813 .0330672
1079.393 .0330537
1079.974 .0330426
1080.554 .0330348
1081.135 .0330292
1081.716 .0330268
1082.296 .0330258
1082.877 .0330268
1083.458 .0330284
1084.040 .0330296
1084.621 .0330265
1085.202 .0330211
1085.784 .0330112
1086.366 .0329962
1086.948 .0329766
1087.530 .0329553
1088.112 .0329334
1088.695 .0329129
1089.277 .0328942
1089.860 .0328776
1090.443 .0328614
1091.026 .0328456
1091.610 .0328285
1092.193 .0328105
1092.777 .0327907
1093.361 .0327701
1093.946 .0327503
1094.530 .0327341
1095.115 .0327208
1095.700 .0327105
1096.285 .0327030
1096.871 .0326972
1097.456 .0326921
1098.042 .0326852
1098.628 .0326765
1099.215 .0326662
1099.802 .0326540
1100.389 .0326401
1100.976 .0326237
1101.564 .0326064
1102.152 .0325889
1102.740 .0325708
1103.329 .0325525
1103.917 .0325344
1104.507 .0325187
1105.096 .0325055
1105.686 .0324979
1106.276 .0324957
1106.867 .0324987
1107.457 .0325041
1108.049 .0325111
1108.640 .0325177
1109.232 .0325242
1109.825 .0325275
1110.417 .0325285
1111.010 .0325277
1111.604 .0325257
1112.198 .0325220
1112.792 .0325191
1113.387 .0325190
1113.982 .0325238
1114.577 .0325335
1115.173 .0325466
1115.769 .0325616
1116.366 .0325786
1116.963 .0325939
1117.561 .0326082
1118.159 .0326210
1118.758 .0326334
1119.357 .0326442
1119.957 .0326580
1120.557 .0326782
1121.157 .0327061
1121.758 .0327438
1122.360 .0327908
1122.962 .0328448
1123.564 .0329038
1124.167 .0329617
1124.771 .0330155
1125.375 .0330636
1125.980 .0331092
1126.585 .0331459
1127.191 .0331815
1127.797 .0332199
1128.404 .0332603
1129.012 .0333053
1129.620 .0333580
1130.229 .0334173
1130.838 .0334793
1131.448 .0335388
1132.058 .0335983
1132.669 .0336528
1133.281 .0337053
1133.894 .0337518
1134.507 .0337955
1135.120 .0338442
1135.735 .0338991
1136.350 .0339539
1136.965 .0340150
1137.582 .0340801
1138.199 .0341490
1138.816 .0342127
1139.435 .0342756
1140.054 .0343345
1140.674 .0343943
1141.294 .0344580
1141.916 .0345015
1142.538 .0345606
1143.160 .0345998
1143.784 .0347935
1144.408 .0349415
1145.033 .0343234
