Measurement Sequence started on: 09-47-49-393
Integration time: 28
Scans to Average: 2 
>>>>>Begin Spectral Data<<<<<
432.689 .0000100
433.621 .0000100
434.552 .0000100
435.482 .0000100
436.410 .0000100
437.337 .2857495
438.262 .3083836
439.187 .3078267
440.110 .2876191
441.031 .2554876
441.952 .2198222
442.871 .1674168
443.789 .1399133
444.705 .1242203
445.621 .1135659
446.535 .1055333
447.447 .0992913
448.359 .0943737
449.269 .0903705
450.178 .0871130
451.086 .0844065
451.993 .0821444
452.898 .0802037
453.803 .0785443
454.706 .0770834
455.608 .0757987
456.508 .0746523
457.408 .0736118
458.306 .0726509
459.204 .0717640
460.100 .0709164
460.995 .0701066
461.888 .0693339
462.781 .0686018
463.673 .0678954
464.563 .0672349
465.452 .0666110
466.340 .0660321
467.228 .0654930
468.114 .0649921
468.999 .0645300
469.882 .0640954
470.765 .0636877
471.647 .0633061
472.528 .0629471
473.407 .0626123
474.286 .0622967
475.163 .0620122
476.040 .0617664
476.915 .0615573
477.790 .0613839
478.663 .0612378
479.535 .0611167
480.407 .0610043
481.277 .0608877
482.147 .0607641
483.015 .0606379
483.883 .0605051
484.749 .0603841
485.615 .0602796
486.479 .0602008
487.343 .0601575
488.206 .0601508
489.067 .0601718
489.928 .0602041
490.788 .0602327
491.647 .0602613
492.505 .0602753
493.362 .0602922
494.218 .0603184
495.073 .0603650
495.928 .0604474
496.781 .0605642
497.634 .0607172
498.486 .0609023
499.337 .0611052
500.187 .0613211
501.036 .0615396
501.884 .0617659
502.731 .0619905
503.578 .0622230
504.424 .0624763
505.268 .0627607
506.113 .0630659
506.956 .0634051
507.798 .0637697
508.640 .0641573
509.480 .0645779
510.320 .0650213
511.160 .0654979
511.998 .0660147
512.836 .0665823
513.672 .0672195
514.508 .0679211
515.344 .0687117
516.178 .0695740
517.012 .0705407
517.845 .0716130
518.677 .0727982
519.508 .0740884
520.339 .0755043
521.169 .0770476
521.998 .0787148
522.826 .0805033
523.654 .0824280
524.481 .0844601
525.307 .0865947
526.133 .0887868
526.958 .0909904
527.782 .0931235
528.605 .0951371
529.428 .0969475
530.250 .0984699
531.072 .0996887
531.892 .1005623
532.712 .1010954
533.532 .1013299
534.350 .1012661
535.168 .1009002
535.986 .1002464
536.802 .0993027
537.618 .0980336
538.434 .0964600
539.249 .0946128
540.063 .0925252
540.876 .0902937
541.689 .0879885
542.501 .0856976
543.313 .0834967
544.124 .0814501
544.934 .0795580
545.744 .0778323
546.553 .0762689
547.361 .0748200
548.169 .0734684
548.976 .0721899
549.783 .0709713
550.589 .0698009
551.395 .0686627
552.200 .0675719
553.004 .0665359
553.808 .0655678
554.611 .0646587
555.414 .0638275
556.216 .0630760
557.018 .0623929
557.819 .0617630
558.619 .0611629
559.419 .0605810
560.218 .0600073
561.017 .0594262
561.815 .0588322
562.613 .0582378
563.410 .0576498
564.207 .0570707
565.003 .0565148
565.799 .0559984
566.594 .0555118
567.388 .0550631
568.182 .0546413
568.976 .0542356
569.769 .0538409
570.562 .0534588
571.354 .0530806
572.145 .0527120
572.936 .0523523
573.727 .0519993
574.517 .0516595
575.307 .0513301
576.096 .0510115
576.885 .0507026
577.673 .0504014
578.461 .0501073
579.248 .0498151
580.035 .0495332
580.821 .0492589
581.607 .0489998
582.392 .0487596
583.177 .0485374
583.962 .0483321
584.746 .0481439
585.529 .0479727
586.313 .0478165
587.095 .0476714
587.878 .0475347
588.660 .0474060
589.441 .0472844
590.222 .0471685
591.003 .0470588
591.783 .0469554
592.563 .0468583
593.342 .0467676
594.121 .0466805
594.899 .0465984
595.678 .0465194
596.455 .0464428
597.233 .0463680
598.009 .0462938
598.786 .0462209
599.562 .0461481
600.338 .0460771
601.113 .0460081
601.888 .0459415
602.663 .0458788
603.437 .0458191
604.211 .0457635
604.984 .0457118
605.757 .0456635
606.530 .0456176
607.302 .0455738
608.074 .0455303
608.845 .0454856
609.616 .0454396
610.387 .0453917
611.158 .0453422
611.928 .0452907
612.697 .0452381
613.467 .0451850
614.236 .0451319
615.004 .0450795
615.773 .0450290
616.541 .0449809
617.308 .0449348
618.076 .0448901
618.843 .0448457
619.609 .0448008
620.375 .0447550
621.141 .0447079
621.907 .0446600
622.672 .0446112
623.437 .0445614
624.202 .0445119
624.966 .0444628
625.730 .0444142
626.493 .0443652
627.257 .0443154
628.020 .0442646
628.782 .0442101
629.545 .0441521
630.307 .0440907
631.068 .0440277
631.830 .0439639
632.591 .0439001
633.352 .0438377
634.112 .0437771
634.872 .0437192
635.632 .0436648
636.392 .0436132
637.151 .0435645
637.910 .0435183
638.668 .0434732
639.427 .0434295
640.185 .0433876
640.943 .0433465
641.700 .0433076
642.457 .0432707
643.214 .0432347
643.971 .0431988
644.727 .0431637
645.483 .0431290
646.239 .0430937
646.994 .0430579
647.750 .0430207
648.505 .0429823
649.259 .0429441
650.014 .0429058
650.768 .0428676
651.521 .0428309
652.275 .0427958
653.028 .0427617
653.781 .0427290
654.534 .0426969
655.286 .0426650
656.039 .0426336
656.791 .0426017
657.542 .0425678
658.294 .0425323
659.045 .0424963
659.796 .0424593
660.546 .0424216
661.297 .0423832
662.047 .0423443
662.796 .0423047
663.546 .0422647
664.295 .0422240
665.044 .0421818
665.793 .0421394
666.542 .0420964
667.290 .0420530
668.038 .0420102
668.786 .0419684
669.533 .0419275
670.281 .0418884
671.028 .0418514
671.774 .0418152
672.521 .0417808
673.267 .0417485
674.013 .0417178
674.759 .0416882
675.505 .0416594
676.250 .0416308
676.995 .0416028
677.740 .0415750
678.484 .0415471
679.229 .0415191
679.973 .0414914
680.717 .0414636
681.460 .0414351
682.204 .0414062
682.947 .0413770
683.690 .0413473
684.433 .0413169
685.175 .0412850
685.917 .0412524
686.659 .0412186
687.401 .0411842
688.142 .0411492
688.884 .0411140
689.625 .0410790
690.365 .0410440
691.106 .0410092
691.846 .0409750
692.586 .0409411
693.326 .0409075
694.066 .0408747
694.805 .0408422
695.545 .0408104
696.284 .0407788
697.022 .0407480
697.761 .0407180
698.499 .0406879
699.237 .0406573
699.975 .0406256
700.713 .0405932
701.450 .0405598
702.187 .0405248
702.924 .0404897
703.661 .0404539
704.397 .0404179
705.133 .0403825
705.869 .0403478
706.605 .0403138
707.341 .0402813
708.076 .0402502
708.811 .0402196
709.546 .0401898
710.281 .0401608
711.015 .0401317
711.749 .0401029
712.483 .0400742
713.217 .0400447
713.950 .0400151
714.684 .0399857
715.417 .0399554
716.150 .0399251
716.882 .0398949
717.615 .0398637
718.347 .0398316
719.079 .0397991
719.811 .0397653
720.542 .0397306
721.273 .0396962
722.005 .0396617
722.735 .0396278
723.466 .0395962
724.196 .0395665
724.927 .0395390
725.656 .0395142
726.386 .0394915
727.116 .0394704
727.845 .0394506
728.574 .0394314
729.303 .0394122
730.031 .0393939
730.760 .0393763
731.488 .0393591
732.216 .0393431
732.944 .0393279
733.671 .0393132
734.398 .0392986
735.125 .0392834
735.852 .0392671
736.579 .0392495
737.305 .0392311
738.031 .0392122
738.757 .0391927
739.483 .0391733
740.208 .0391550
740.933 .0391373
741.658 .0391205
742.383 .0391041
743.108 .0390876
743.832 .0390712
744.556 .0390545
745.280 .0390370
746.004 .0390191
746.727 .0390014
747.450 .0389838
748.173 .0389663
748.896 .0389494
749.618 .0389324
750.340 .0389155
751.062 .0388990
751.784 .0388825
752.506 .0388651
753.227 .0388479
753.948 .0388301
754.669 .0388121
755.389 .0387940
756.110 .0387754
756.830 .0387566
757.550 .0387378
758.269 .0387188
758.989 .0386997
759.708 .0386809
760.427 .0386630
761.146 .0386459
761.864 .0386300
762.582 .0386147
763.300 .0386000
764.018 .0385858
764.736 .0385721
765.453 .0385580
766.170 .0385438
766.887 .0385294
767.603 .0385141
768.320 .0384982
769.036 .0384813
769.751 .0384636
770.467 .0384446
771.182 .0384244
771.897 .0384030
772.612 .0383804
773.327 .0383573
774.041 .0383339
774.755 .0383104
775.469 .0382875
776.183 .0382651
776.896 .0382435
777.609 .0382232
778.322 .0382043
779.035 .0381866
779.747 .0381699
780.459 .0381539
781.171 .0381378
781.882 .0381222
782.594 .0381063
783.305 .0380902
784.016 .0380742
784.726 .0380580
785.436 .0380414
786.147 .0380247
786.856 .0380081
787.566 .0379907
788.275 .0379729
788.984 .0379540
789.693 .0379337
790.401 .0379122
791.110 .0378894
791.818 .0378661
792.525 .0378433
793.233 .0378215
793.940 .0378007
794.647 .0377814
795.353 .0377642
796.060 .0377480
796.766 .0377324
797.472 .0377167
798.177 .0377000
798.883 .0376819
799.588 .0376623
800.292 .0376412
800.997 .0376191
801.701 .0375959
802.405 .0375718
803.109 .0375469
803.812 .0375211
804.515 .0374942
805.218 .0374655
805.921 .0374354
806.623 .0374044
807.325 .0373721
808.027 .0373396
808.728 .0373076
809.429 .0372766
810.130 .0372476
810.831 .0372207
811.531 .0371959
812.231 .0371735
812.931 .0371528
813.630 .0371335
814.330 .0371146
815.029 .0370963
815.727 .0370780
816.426 .0370595
817.124 .0370413
817.821 .0370224
818.519 .0370029
819.216 .0369831
819.913 .0369625
820.609 .0369414
821.306 .0369192
822.002 .0368960
822.697 .0368717
823.393 .0368462
824.088 .0368194
824.783 .0367909
825.477 .0367611
826.171 .0367305
826.865 .0366993
827.559 .0366684
828.252 .0366385
828.945 .0366104
829.638 .0365844
830.330 .0365608
831.023 .0365391
831.714 .0365191
832.406 .0364999
833.097 .0364814
833.788 .0364625
834.479 .0364429
835.169 .0364232
835.859 .0364032
836.548 .0363840
837.238 .0363655
837.927 .0363477
838.615 .0363308
839.304 .0363142
839.992 .0362971
840.680 .0362789
841.367 .0362596
842.054 .0362385
842.741 .0362153
843.428 .0361907
844.114 .0361648
844.800 .0361384
845.485 .0361119
846.170 .0360854
846.855 .0360596
847.540 .0360344
848.224 .0360096
848.908 .0359859
849.592 .0359633
850.275 .0359418
850.958 .0359216
851.641 .0359028
852.323 .0358858
853.005 .0358704
853.687 .0358565
854.368 .0358440
855.049 .0358327
855.730 .0358222
856.410 .0358114
857.090 .0358009
857.769 .0357906
858.449 .0357798
859.128 .0357687
859.806 .0357571
860.485 .0357447
861.163 .0357313
861.840 .0357168
862.518 .0357009
863.195 .0356839
863.871 .0356656
864.548 .0356461
865.224 .0356259
865.899 .0356054
866.574 .0355848
867.249 .0355646
867.924 .0355447
868.598 .0355248
869.272 .0355051
869.946 .0354859
870.619 .0354668
871.292 .0354481
871.964 .0354298
872.636 .0354120
873.308 .0353950
873.979 .0353787
874.651 .0353634
875.321 .0353497
875.992 .0353375
876.662 .0353264
877.331 .0353164
878.001 .0353075
878.670 .0352997
879.338 .0352926
880.007 .0352864
880.675 .0352807
881.342 .0352756
882.009 .0352707
882.676 .0352663
883.343 .0352617
884.009 .0352573
884.675 .0352526
885.340 .0352474
886.005 .0352413
886.670 .0352342
887.334 .0352260
887.998 .0352163
888.662 .0352056
889.325 .0351932
889.988 .0351793
890.650 .0351650
891.312 .0351496
891.974 .0351339
892.636 .0351183
893.297 .0351028
893.957 .0350875
894.618 .0350733
895.278 .0350600
895.937 .0350471
896.596 .0350354
897.255 .0350244
897.914 .0350134
898.572 .0350026
899.230 .0349917
899.887 .0349808
900.544 .0349698
901.201 .0349589
901.857 .0349476
902.513 .0349367
903.168 .0349256
903.823 .0349138
904.478 .0349015
905.132 .0348879
905.786 .0348729
906.440 .0348564
907.093 .0348387
907.746 .0348202
908.399 .0348008
909.051 .0347813
909.703 .0347617
910.354 .0347428
911.005 .0347246
911.656 .0347075
912.306 .0346915
912.956 .0346763
913.605 .0346618
914.254 .0346473
914.903 .0346333
915.551 .0346196
916.199 .0346063
916.847 .0345934
917.494 .0345808
918.141 .0345686
918.788 .0345566
919.434 .0345447
920.079 .0345318
920.725 .0345179
921.370 .0345023
922.014 .0344839
922.658 .0344628
923.302 .0344391
923.946 .0344135
924.589 .0343858
925.231 .0343572
925.873 .0343279
926.515 .0342982
927.157 .0342688
927.798 .0342386
928.439 .0342074
929.079 .0341752
929.719 .0341413
930.359 .0341057
930.998 .0340694
931.637 .0340330
932.275 .0339973
932.913 .0339633
933.551 .0339318
934.188 .0339025
934.825 .0338750
935.462 .0338493
936.098 .0338242
936.733 .0337990
937.369 .0337732
938.004 .0337464
938.638 .0337194
939.273 .0336922
939.907 .0336652
940.540 .0336387
941.173 .0336132
941.806 .0335888
942.438 .0335651
943.070 .0335417
943.702 .0335179
944.333 .0334935
944.964 .0334680
945.594 .0334415
946.224 .0334140
946.854 .0333860
947.483 .0333579
948.112 .0333300
948.741 .0333024
949.369 .0332746
949.996 .0332468
950.624 .0332191
951.251 .0331914
951.878 .0331639
952.504 .0331366
953.130 .0331102
953.755 .0330848
954.380 .0330609
955.005 .0330378
955.629 .0330156
956.253 .0329941
956.877 .0329734
957.500 .0329530
958.123 .0329328
958.746 .0329129
959.368 .0328934
959.990 .0328745
960.611 .0328566
961.232 .0328389
961.853 .0328222
962.473 .0328060
963.093 .0327897
963.712 .0327722
964.331 .0327544
964.950 .0327357
965.569 .0327164
966.187 .0326966
966.804 .0326769
967.422 .0326572
968.039 .0326382
968.655 .0326197
969.272 .0326014
969.887 .0325830
970.503 .0325640
971.118 .0325436
971.733 .0325223
972.347 .0325002
972.961 .0324772
973.575 .0324538
974.188 .0324300
974.801 .0324056
975.414 .0323806
976.026 .0323548
976.638 .0323286
977.250 .0323017
977.861 .0322743
978.472 .0322470
979.083 .0322196
979.693 .0321924
980.303 .0321659
980.912 .0321409
981.521 .0321177
982.130 .0320956
982.738 .0320753
983.346 .0320568
983.954 .0320398
984.562 .0320246
985.169 .0320096
985.775 .0319950
986.382 .0319802
986.988 .0319657
987.594 .0319511
988.199 .0319361
988.804 .0319219
989.409 .0319084
990.013 .0318954
990.617 .0318831
991.221 .0318712
991.824 .0318598
992.427 .0318488
993.030 .0318377
993.632 .0318261
994.234 .0318147
994.836 .0318037
995.438 .0317930
996.039 .0317827
996.640 .0317730
997.240 .0317627
997.840 .0317527
998.440 .0317434
999.040 .0317340
999.639 .0317252
1000.238 .0317176
1000.836 .0317108
1001.435 .0317048
1002.033 .0316990
1002.630 .0316926
1003.228 .0316858
1003.825 .0316782
1004.422 .0316683
1005.018 .0316568
1005.614 .0316449
1006.210 .0316323
1006.806 .0316195
1007.401 .0316071
1007.996 .0315948
1008.591 .0315823
1009.186 .0315699
1009.780 .0315568
1010.374 .0315430
1010.967 .0315290
1011.561 .0315147
1012.154 .0314999
1012.746 .0314861
1013.339 .0314723
1013.931 .0314593
1014.523 .0314483
1015.115 .0314387
1015.706 .0314297
1016.298 .0314222
1016.888 .0314170
1017.479 .0314130
1018.069 .0314101
1018.660 .0314088
1019.250 .0314080
1019.839 .0314089
1020.429 .0314106
1021.018 .0314120
1021.607 .0314140
1022.195 .0314172
1022.784 .0314208
1023.372 .0314246
1023.960 .0314292
1024.547 .0314338
1025.135 .0314391
1025.722 .0314455
1026.309 .0314522
1026.896 .0314587
1027.483 .0314662
1028.069 .0314737
1028.655 .0314799
1029.241 .0314856
1029.827 .0314896
1030.412 .0314924
1030.997 .0314947
1031.582 .0314961
1032.167 .0314970
1032.752 .0314983
1033.336 .0315008
1033.921 .0315041
1034.505 .0315081
1035.089 .0315127
1035.672 .0315168
1036.256 .0315211
1036.839 .0315255
1037.422 .0315300
1038.005 .0315357
1038.588 .0315430
1039.171 .0315520
1039.753 .0315618
1040.335 .0315721
1040.918 .0315826
1041.500 .0315926
1042.081 .0316010
1042.663 .0316078
1043.244 .0316129
1043.826 .0316166
1044.407 .0316196
1044.988 .0316227
1045.569 .0316257
1046.150 .0316289
1046.730 .0316319
1047.311 .0316335
1047.891 .0316335
1048.471 .0316322
1049.052 .0316291
1049.632 .0316250
1050.211 .0316208
1050.791 .0316175
1051.371 .0316145
1051.950 .0316132
1052.530 .0316127
1053.109 .0316122
1053.688 .0316112
1054.268 .0316094
1054.847 .0316053
1055.426 .0316005
1056.005 .0315954
1056.583 .0315911
1057.162 .0315887
1057.741 .0315895
1058.319 .0315922
1058.898 .0315972
1059.476 .0316030
1060.055 .0316094
1060.633 .0316142
1061.211 .0316180
1061.790 .0316208
1062.368 .0316229
1062.946 .0316259
1063.524 .0316310
1064.102 .0316379
1064.680 .0316475
1065.258 .0316580
1065.836 .0316690
1066.414 .0316782
1066.992 .0316849
1067.570 .0316888
1068.148 .0316891
1068.726 .0316873
1069.304 .0316835
1069.882 .0316791
1070.460 .0316763
1071.038 .0316751
1071.616 .0316764
1072.194 .0316801
1072.772 .0316853
1073.350 .0316897
1073.928 .0316933
1074.506 .0316950
1075.084 .0316952
1075.662 .0316925
1076.240 .0316877
1076.819 .0316811
1077.397 .0316742
1077.976 .0316694
1078.554 .0316662
1079.133 .0316661
1079.711 .0316683
1080.290 .0316707
1080.869 .0316740
1081.448 .0316760
1082.027 .0316772
1082.606 .0316769
1083.185 .0316775
1083.764 .0316787
1084.343 .0316818
1084.923 .0316877
1085.502 .0316977
1086.082 .0317108
1086.662 .0317260
1087.242 .0317406
1087.822 .0317534
1088.402 .0317654
1088.983 .0317763
1089.563 .0317856
1090.144 .0317944
1090.725 .0318026
1091.306 .0318137
1091.887 .0318258
1092.469 .0318397
1093.050 .0318534
1093.632 .0318684
1094.214 .0318824
1094.796 .0318930
1095.379 .0318998
1095.961 .0319027
1096.544 .0319026
1097.127 .0318987
1097.710 .0318916
1098.294 .0318833
1098.877 .0318745
1099.461 .0318684
1100.046 .0318647
1100.630 .0318651
1101.215 .0318674
1101.800 .0318726
1102.385 .0318809
1102.970 .0318924
1103.556 .0319054
1104.142 .0319207
1104.728 .0319402
1105.315 .0319646
1105.902 .0319938
1106.489 .0320290
1107.077 .0320699
1107.664 .0321174
1108.253 .0321661
1108.841 .0322151
1109.430 .0322600
1110.019 .0322994
1110.609 .0323316
1111.198 .0323577
1111.789 .0323781
1112.379 .0323957
1112.970 .0324113
1113.561 .0324279
1114.153 .0324449
1114.745 .0324644
1115.338 .0324839
1115.931 .0325046
1116.524 .0325245
1117.117 .0325431
1117.712 .0325593
1118.306 .0325767
1118.901 .0325935
1119.496 .0326121
1120.092 .0326343
1120.689 .0326613
1121.285 .0326916
1121.882 .0327249
1122.480 .0327593
1123.078 .0327942
1123.677 .0328257
1124.276 .0328524
1124.875 .0328750
1125.476 .0328937
1126.076 .0329108
1126.677 .0329285
1127.279 .0329485
1127.881 .0329764
1128.484 .0330071
1129.087 .0330445
1129.691 .0330854
1130.295 .0331301
1130.900 .0331768
1131.505 .0332232
1132.111 .0332689
1132.718 .0333169
1133.325 .0333662
1133.933 .0334217
1134.541 .0334843
1135.150 .0335557
1135.760 .0336339
1136.370 .0337209
1136.981 .0338133
1137.592 .0339113
1138.204 .0340100
1138.817 .0341137
1139.431 .0342162
1140.045 .0343310
1140.660 .0344531
1141.275 .0345830
1141.891 .0347313
1142.508 .0347758
1143.126 .0351565
1143.744 .0352529
1144.363 .0353108
1144.983 .0356482
