BestFit value for E:\RC_data\Compressed_For_Future_Analysis_Full\0007_2025-12-10_09-47-26\Interpretation_History\2025-12-10_16-25-46\ResultsGraphs\BestFit\(Run)spectra_09-48-16-680_BestFit.txt
600.338 0.0409131
601.113 0.0408605
601.888 0.0408080
602.663 0.0407555
603.437 0.0407032
604.211 0.0406509
604.984 0.0405987
605.757 0.0405466
606.530 0.0404944
607.302 0.0404424
608.074 0.0403904
608.845 0.0403384
609.616 0.0402865
610.387 0.0402346
611.158 0.0401826
611.928 0.0401308
612.697 0.0400790
613.467 0.0400272
614.236 0.0399755
615.004 0.0399238
615.773 0.0398721
616.541 0.0398205
617.308 0.0397690
618.076 0.0397175
618.843 0.0396661
619.609 0.0396148
620.375 0.0395636
621.141 0.0395125
621.907 0.0394615
622.672 0.0394107
623.437 0.0393599
624.202 0.0393093
624.966 0.0392589
625.730 0.0392087
626.493 0.0391587
627.257 0.0391088
628.020 0.0390591
628.782 0.0390098
629.545 0.0389606
630.307 0.0389116
631.068 0.0388630
631.830 0.0388146
632.591 0.0387666
633.352 0.0387188
634.112 0.0386713
634.872 0.0386242
635.632 0.0385774
636.392 0.0385309
637.151 0.0384848
637.910 0.0384390
638.668 0.0383937
639.427 0.0383487
640.185 0.0383040
640.943 0.0382598
641.700 0.0382160
642.457 0.0381725
643.214 0.0381295
643.971 0.0380868
644.727 0.0380446
645.483 0.0380027
646.239 0.0379613
646.994 0.0379202
647.750 0.0378795
648.505 0.0378393
649.259 0.0377994
650.014 0.0377599
650.768 0.0377208
651.521 0.0376821
652.275 0.0376437
653.028 0.0376056
653.781 0.0375679
654.534 0.0375305
655.286 0.0374935
656.039 0.0374567
656.791 0.0374202
657.542 0.0373841
658.294 0.0373481
659.045 0.0373125
659.796 0.0372770
660.546 0.0372419
661.297 0.0372068
662.047 0.0371720
662.796 0.0371374
663.546 0.0371029
664.295 0.0370686
665.044 0.0370344
665.793 0.0370003
666.542 0.0369663
667.290 0.0369324
668.038 0.0368985
668.786 0.0368646
669.533 0.0368309
670.281 0.0367970
671.028 0.0367632
671.774 0.0367295
672.521 0.0366956
673.267 0.0366617
674.013 0.0366277
674.759 0.0365937
675.505 0.0365595
676.250 0.0365253
676.995 0.0364910
677.740 0.0364565
678.484 0.0364220
679.229 0.0363872
679.973 0.0363524
680.717 0.0363174
681.460 0.0362822
682.204 0.0362468
682.947 0.0362113
683.690 0.0361756
684.433 0.0361398
685.175 0.0361037
685.917 0.0360675
686.659 0.0360311
687.401 0.0359945
688.142 0.0359578
688.884 0.0359209
689.625 0.0358838
690.365 0.0358465
691.106 0.0358091
691.846 0.0357715
692.586 0.0357338
693.326 0.0356959
694.066 0.0356579
694.805 0.0356198
695.545 0.0355815
696.284 0.0355432
697.022 0.0355048
697.761 0.0354663
698.499 0.0354277
699.237 0.0353891
699.975 0.0353504
700.713 0.0353117
701.450 0.0352730
702.187 0.0352343
702.924 0.0351957
703.661 0.0351570
704.397 0.0351184
705.133 0.0350799
705.869 0.0350415
706.605 0.0350031
707.341 0.0349649
708.076 0.0349268
708.811 0.0348888
709.546 0.0348510
710.281 0.0348134
711.015 0.0347760
711.749 0.0347388
712.483 0.0347018
713.217 0.0346651
713.950 0.0346286
714.684 0.0345924
715.417 0.0345565
716.150 0.0345209
716.882 0.0344856
717.615 0.0344506
718.347 0.0344160
719.079 0.0343817
719.811 0.0343478
720.542 0.0343143
721.273 0.0342811
722.005 0.0342483
722.735 0.0342160
723.466 0.0341840
724.196 0.0341525
724.927 0.0341214
725.656 0.0340908
726.386 0.0340605
727.116 0.0340307
727.845 0.0340014
728.574 0.0339725
729.303 0.0339440
730.031 0.0339161
730.760 0.0338885
731.488 0.0338614
732.216 0.0338348
732.944 0.0338086
733.671 0.0337828
734.398 0.0337575
735.125 0.0337326
735.852 0.0337082
736.579 0.0336842
737.305 0.0336606
738.031 0.0336374
738.757 0.0336146
739.483 0.0335922
740.208 0.0335702
740.933 0.0335486
741.658 0.0335273
742.383 0.0335064
743.108 0.0334858
743.832 0.0334655
744.556 0.0334456
745.280 0.0334260
746.004 0.0334066
746.727 0.0333876
747.450 0.0333688
748.173 0.0333502
748.896 0.0333319
749.618 0.0333138
750.340 0.0332959
751.062 0.0332781
751.784 0.0332605
752.506 0.0332431
753.227 0.0332258
753.948 0.0332086
754.669 0.0331915
755.389 0.0331745
756.110 0.0331575
756.830 0.0331406
757.550 0.0331237
758.269 0.0331069
758.989 0.0330900
759.708 0.0330731
760.427 0.0330561
761.146 0.0330391
761.864 0.0330221
762.582 0.0330049
763.300 0.0329877
764.018 0.0329703
764.736 0.0329528
765.453 0.0329351
766.170 0.0329173
766.887 0.0328993
767.603 0.0328811
768.320 0.0328627
769.036 0.0328441
769.751 0.0328253
770.467 0.0328062
771.182 0.0327869
771.897 0.0327673
772.612 0.0327475
773.327 0.0327273
774.041 0.0327069
774.755 0.0326862
775.469 0.0326652
776.183 0.0326439
776.896 0.0326223
777.609 0.0326004
778.322 0.0325781
779.035 0.0325555
779.747 0.0325326
780.459 0.0325094
781.171 0.0324858
781.882 0.0324619
782.594 0.0324376
783.305 0.0324130
784.016 0.0323881
784.726 0.0323629
785.436 0.0323373
786.147 0.0323113
786.856 0.0322851
787.566 0.0322585
788.275 0.0322317
788.984 0.0322045
789.693 0.0321769
790.401 0.0321492
791.110 0.0321210
791.818 0.0320927
792.525 0.0320640
793.233 0.0320351
793.940 0.0320059
794.647 0.0319764
795.353 0.0319468
796.060 0.0319169
796.766 0.0318867
797.472 0.0318564
798.177 0.0318259
798.883 0.0317951
799.588 0.0317642
800.292 0.0317332
800.997 0.0317020
801.701 0.0316707
802.405 0.0316392
803.109 0.0316077
803.812 0.0315760
804.515 0.0315443
805.218 0.0315125
805.921 0.0314807
806.623 0.0314488
807.325 0.0314169
808.027 0.0313850
808.728 0.0313532
809.429 0.0313214
810.130 0.0312896
810.831 0.0312578
811.531 0.0312261
812.231 0.0311946
812.931 0.0311631
813.630 0.0311318
814.330 0.0311005
815.029 0.0310694
815.727 0.0310386
816.426 0.0310078
817.124 0.0309773
817.821 0.0309470
818.519 0.0309168
819.216 0.0308870
819.913 0.0308573
820.609 0.0308280
821.306 0.0307989
822.002 0.0307701
822.697 0.0307416
823.393 0.0307134
824.088 0.0306855
824.783 0.0306580
825.477 0.0306308
826.171 0.0306040
826.865 0.0305775
827.559 0.0305514
828.252 0.0305257
828.945 0.0305004
829.638 0.0304755
830.330 0.0304510
831.023 0.0304269
831.714 0.0304033
832.406 0.0303800
833.097 0.0303572
833.788 0.0303349
834.479 0.0303130
835.169 0.0302916
835.859 0.0302706
836.548 0.0302501
837.238 0.0302300
837.927 0.0302104
838.615 0.0301913
839.304 0.0301726
839.992 0.0301545
840.680 0.0301367
841.367 0.0301195
842.054 0.0301028
842.741 0.0300865
843.428 0.0300707
844.114 0.0300553
844.800 0.0300405
845.485 0.0300261
846.170 0.0300121
846.855 0.0299987
847.540 0.0299856
848.224 0.0299731
848.908 0.0299609
849.592 0.0299492
850.275 0.0299380
850.958 0.0299272
851.641 0.0299168
852.323 0.0299068
853.005 0.0298972
853.687 0.0298881
854.368 0.0298793
855.049 0.0298709
855.730 0.0298629
856.410 0.0298553
857.090 0.0298480
857.769 0.0298410
858.449 0.0298344
859.128 0.0298282
859.806 0.0298222
860.485 0.0298166
861.163 0.0298113
861.840 0.0298062
862.518 0.0298014
863.195 0.0297969
863.871 0.0297926
864.548 0.0297886
865.224 0.0297848
865.899 0.0297813
866.574 0.0297779
867.249 0.0297747
867.924 0.0297717
868.598 0.0297689
869.272 0.0297662
869.946 0.0297636
870.619 0.0297612
871.292 0.0297589
871.964 0.0297567
872.636 0.0297546
873.308 0.0297526
873.979 0.0297506
874.651 0.0297487
875.321 0.0297468
875.992 0.0297449
876.662 0.0297431
877.331 0.0297413
878.001 0.0297394
878.670 0.0297375
879.338 0.0297356
880.007 0.0297336
880.675 0.0297316
881.342 0.0297295
882.009 0.0297273
882.676 0.0297250
883.343 0.0297226
884.009 0.0297200
884.675 0.0297174
885.340 0.0297146
886.005 0.0297116
886.670 0.0297085
887.334 0.0297052
887.998 0.0297017
888.662 0.0296980
889.325 0.0296941
889.988 0.0296900
890.650 0.0296857
891.312 0.0296812
891.974 0.0296764
892.636 0.0296713
893.297 0.0296660
893.957 0.0296604
894.618 0.0296546
895.278 0.0296484
895.937 0.0296420
896.596 0.0296353
897.255 0.0296283
897.914 0.0296210
898.572 0.0296133
899.230 0.0296054
899.887 0.0295971
900.544 0.0295885
901.201 0.0295795
901.857 0.0295703
902.513 0.0295606
903.168 0.0295507
903.823 0.0295404
904.478 0.0295297
905.132 0.0295187
905.786 0.0295073
906.440 0.0294955
907.093 0.0294834
907.746 0.0294709
908.399 0.0294581
909.051 0.0294449
909.703 0.0294313
910.354 0.0294174
911.005 0.0294031
911.656 0.0293885
912.306 0.0293734
912.956 0.0293580
913.605 0.0293423
914.254 0.0293262
914.903 0.0293097
915.551 0.0292929
916.199 0.0292757
916.847 0.0292582
917.494 0.0292403
918.141 0.0292220
918.788 0.0292035
919.434 0.0291845
920.079 0.0291653
920.725 0.0291457
921.370 0.0291258
922.014 0.0291056
922.658 0.0290851
923.302 0.0290642
923.946 0.0290430
924.589 0.0290215
925.231 0.0289998
925.873 0.0289778
926.515 0.0289554
927.157 0.0289328
927.798 0.0289099
928.439 0.0288868
929.079 0.0288634
929.719 0.0288397
930.359 0.0288158
930.998 0.0287917
931.637 0.0287673
932.275 0.0287428
932.913 0.0287180
933.551 0.0286930
934.188 0.0286678
934.825 0.0286424
935.462 0.0286168
936.098 0.0285911
936.733 0.0285653
937.369 0.0285392
938.004 0.0285130
938.638 0.0284867
939.273 0.0284602
939.907 0.0284336
940.540 0.0284069
941.173 0.0283801
941.806 0.0283532
942.438 0.0283263
943.070 0.0282992
943.702 0.0282721
944.333 0.0282449
944.964 0.0282177
945.594 0.0281905
946.224 0.0281632
946.854 0.0281358
947.483 0.0281085
948.112 0.0280812
948.741 0.0280539
949.369 0.0280266
949.996 0.0279993
950.624 0.0279721
951.251 0.0279449
951.878 0.0279177
952.504 0.0278906
953.130 0.0278636
953.755 0.0278367
954.380 0.0278098
955.005 0.0277830
955.629 0.0277564
956.253 0.0277299
956.877 0.0277034
957.500 0.0276771
958.123 0.0276510
958.746 0.0276249
959.368 0.0275991
959.990 0.0275734
960.611 0.0275513
961.232 0.0275295
961.853 0.0275078
962.473 0.0274863
963.093 0.0274650
963.712 0.0274439
964.331 0.0274230
964.950 0.0274023
965.569 0.0273818
966.187 0.0273615
966.804 0.0273414
967.422 0.0273216
968.039 0.0273020
968.655 0.0272827
969.272 0.0272635
969.887 0.0272447
970.503 0.0272261
971.118 0.0272078
971.733 0.0271897
972.347 0.0271719
972.961 0.0271544
973.575 0.0271372
974.188 0.0271203
974.801 0.0271036
975.414 0.0270873
976.026 0.0270713
976.638 0.0270555
977.250 0.0270401
977.861 0.0270250
978.472 0.0270102
979.083 0.0269958
979.693 0.0269816
980.303 0.0269678
980.912 0.0269544
981.521 0.0269412
982.130 0.0269284
982.738 0.0269160
983.346 0.0269038
983.954 0.0268920
984.562 0.0268806
985.169 0.0268695
985.775 0.0268588
986.382 0.0268484
986.988 0.0268384
987.594 0.0268287
988.199 0.0268193
988.804 0.0268104
989.409 0.0268017
990.013 0.0267935
990.617 0.0267856
991.221 0.0267780
991.824 0.0267708
992.427 0.0267640
993.030 0.0267575
993.632 0.0267513
994.234 0.0267456
994.836 0.0267401
995.438 0.0267351
996.039 0.0267303
996.640 0.0267260
997.240 0.0267219
997.840 0.0267183
998.440 0.0267149
999.040 0.0267120
999.639 0.0267093
1000.238 0.0267058
1000.836 0.0267009
1001.435 0.0266963
1002.033 0.0266921
1002.63 0.0266882
1003.228 0.0266846
1003.825 0.0266814
1004.422 0.0266785
1005.018 0.0266759
1005.614 0.0266737
1006.21 0.0266718
1006.806 0.0266702
1007.401 0.0266689
1007.996 0.0266679
1008.591 0.0266673
1009.186 0.0266669
1009.78 0.0266669
1010.374 0.0266671
1010.967 0.0266676
1011.561 0.0266685
1012.154 0.0266696
1012.746 0.0266709
1013.339 0.0266726
1013.931 0.0266745
1014.523 0.0266767
1015.115 0.0266792
1015.706 0.0266819
1016.298 0.0266848
1016.888 0.0266880
1017.479 0.0266915
1018.069 0.0266952
1018.66 0.0266991
1019.25 0.0267032
1019.839 0.0267076
1020.429 0.0267121
1021.018 0.0267169
1021.607 0.0267219
1022.195 0.0267271
1022.784 0.0267324
1023.372 0.0267380
1023.96 0.0267437
1024.547 0.0267496
1025.135 0.0267557
1025.722 0.0267620
1026.309 0.0267684
1026.896 0.0267749
1027.483 0.0267816
1028.069 0.0267885
1028.655 0.0267955
1029.241 0.0268026
1029.827 0.0268098
1030.412 0.0268171
1030.997 0.0268246
1031.582 0.0268321
1032.167 0.0268398
1032.752 0.0268476
1033.336 0.0268554
1033.921 0.0268633
1034.505 0.0268713
1035.089 0.0268794
1035.672 0.0268875
1036.256 0.0268957
1036.839 0.0269039
1037.422 0.0269122
1038.005 0.0269205
1038.588 0.0269289
1039.171 0.0269373
1039.753 0.0269456
1040.335 0.0269541
1040.918 0.0269625
1041.50 0.0269709
1042.081 0.0269793
1042.663 0.0269878
1043.244 0.0269962
1043.826 0.0270046
1044.407 0.0270129
1044.988 0.0270212
1045.569 0.0270295
1046.15 0.0270378
1046.73 0.0270460
1047.311 0.0270541
1047.891 0.0270622
1048.471 0.0270702
1049.052 0.0270782
1049.632 0.0270861
1050.211 0.0270939
1050.791 0.0271016
1051.371 0.0271092
1051.95 0.0271168
1052.53 0.0271242
1053.109 0.0271315
1053.688 0.0271387
1054.268 0.0271458
1054.847 0.0271528
1055.426 0.0271596
1056.005 0.0271664
1056.583 0.0271729
1057.162 0.0271794
1057.741 0.0271857
1058.319 0.0271918
1058.898 0.0271978
1059.476 0.0272037
1060.055 0.0272093
1060.633 0.0272148
1061.211 0.0272202
1061.79 0.0272253
1062.368 0.0272303
1062.946 0.0272351
1063.524 0.0272397
1064.102 0.0272441
1064.68 0.0272484
1065.258 0.0272524
1065.836 0.0272562
1066.414 0.0272598
1066.992 0.0272632
1067.57 0.0272664
1068.148 0.0272694
1068.726 0.0272721
1069.304 0.0272747
1069.882 0.0272770
1070.46 0.0272790
1071.038 0.0272809
1071.616 0.0272825
1072.194 0.0272838
1072.772 0.0272850
1073.35 0.0272858
1073.928 0.0272865
1074.506 0.0272868
1075.084 0.0272870
1075.662 0.0272868
1076.24 0.0272864
1076.819 0.0272858
1077.397 0.0272849
1077.976 0.0272837
1078.554 0.0272823
1079.133 0.0272806
1079.711 0.0272786
1080.29 0.0272764
1080.869 0.0272738
1081.448 0.0272710
1082.027 0.0272680
1082.606 0.0272646
1083.185 0.0272610
1083.764 0.0272571
1084.343 0.0272529
1084.923 0.0272484
1085.502 0.0272436
1086.082 0.0272386
1086.662 0.0272332
1087.242 0.0272276
1087.822 0.0272217
1088.402 0.0272155
1088.983 0.0272090
1089.563 0.0272022
1090.144 0.0271951
1090.725 0.0271877
1091.306 0.0271801
1091.887 0.0271721
1092.469 0.0271639
1093.05 0.0271553
1093.632 0.0271465
1094.214 0.0271374
1094.796 0.0271279
1095.379 0.0271182
1095.961 0.0271082
1096.544 0.0270979
1097.127 0.0270873
1097.71 0.0270764
1098.294 0.0270653
1098.877 0.0270538
1099.461 0.0270420
1100.046 0.0270300
1100.63 0.0270177
1101.215 0.0270050
1101.80 0.0269921
1102.385 0.0269789
1102.97 0.0269655
1103.556 0.0269517
1104.142 0.0269376
1104.728 0.0269233
1105.315 0.0269087
1105.902 0.0268938
1106.489 0.0268787
1107.077 0.0268632
1107.664 0.0268475
1108.253 0.0268315
1108.841 0.0268153
1109.43 0.0267988
1110.019 0.0267820
1110.609 0.0267649
1111.198 0.0267477
1111.789 0.0267301
1112.379 0.0267122
1112.97 0.0266942
1113.561 0.0266758
1114.153 0.0266572
1114.745 0.0266384
1115.338 0.0266193
1115.931 0.0266000
1116.524 0.0265804
1117.117 0.0265606
1117.712 0.0265406
1118.306 0.0265203
1118.901 0.0264998
1119.496 0.0264791
1120.092 0.0264581
1120.689 0.0264369
1121.285 0.0264155
1121.882 0.0263939
1122.48 0.0263721
1123.078 0.0263501
1123.677 0.0263278
1124.276 0.0263054
1124.875 0.0262828
1125.476 0.0262599
1126.076 0.0262369
1126.677 0.0262137
1127.279 0.0261903
1127.881 0.0261667
1128.484 0.0261429
1129.087 0.0261190
1129.691 0.0260949
1130.295 0.0260707
1130.90 0.0260462
1131.505 0.0260217
1132.111 0.0259969
1132.718 0.0259720
1133.325 0.0259470
1133.933 0.0259218
1134.541 0.0258965
1135.15 0.0258711
1135.76 0.0258455
1136.37 0.0258198
1136.981 0.0257940
1137.592 0.0257681
1138.204 0.0257420
1138.817 0.0257159
1139.431 0.0256896
1140.045 0.0256632
1140.66 0.0256368
1141.275 0.0256103
1141.891 0.0255836
1142.508 0.0255569
1143.126 0.0255302
1143.744 0.0255033
1144.363 0.0254764
1144.983 0.0254494
