Measurement Sequence started on: 09-46-08-630
Integration time: 30
Scans to Average: 2 
>>>>>Begin Spectral Data<<<<<
434.745 .1087780
435.665 .1093995
436.585 .0974749
437.503 .0919962
438.420 .0859709
439.335 .0848348
440.249 .0810944
441.162 .0778052
442.074 .0752381
442.984 .0731078
443.894 .0713682
444.802 .0698865
445.708 .0686633
446.614 .0676000
447.518 .0666927
448.422 .0658952
449.324 .0652216
450.224 .0646506
451.124 .0641532
452.022 .0637252
452.920 .0633527
453.816 .0630129
454.711 .0627139
455.605 .0624505
456.497 .0622225
457.389 .0620217
458.279 .0618574
459.169 .0617247
460.057 .0616135
460.944 .0615261
461.830 .0614515
462.715 .0613800
463.599 .0613128
464.482 .0612387
465.363 .0611573
466.244 .0610802
467.124 .0610078
468.002 .0609394
468.880 .0608789
469.756 .0608255
470.632 .0607728
471.506 .0607264
472.379 .0606898
473.252 .0606539
474.123 .0606240
474.994 .0606106
475.863 .0606055
476.731 .0606102
477.599 .0606256
478.465 .0606491
479.331 .0606801
480.195 .0607115
481.059 .0607366
481.921 .0607588
482.783 .0607825
483.643 .0608119
484.503 .0608478
485.362 .0608953
486.220 .0609539
487.077 .0610138
487.933 .0610740
488.788 .0611278
489.642 .0611649
490.496 .0611899
491.348 .0612032
492.200 .0612151
493.050 .0612310
493.900 .0612573
494.749 .0613026
495.597 .0613672
496.445 .0614422
497.291 .0615195
498.136 .0615883
498.981 .0616465
499.825 .0616897
500.668 .0617202
501.510 .0617462
502.352 .0617778
503.192 .0618200
504.032 .0618852
504.871 .0619639
505.709 .0620598
506.546 .0621609
507.383 .0622638
508.219 .0623686
509.054 .0624710
509.888 .0625760
510.722 .0626924
511.554 .0628276
512.386 .0629886
513.217 .0631738
514.048 .0633898
514.877 .0636302
515.706 .0638883
516.535 .0641555
517.362 .0644296
518.189 .0647010
519.015 .0649767
519.840 .0652471
520.665 .0655149
521.489 .0657844
522.312 .0660496
523.134 .0663127
523.956 .0665864
524.777 .0668786
525.598 .0671920
526.417 .0675203
527.236 .0678752
528.055 .0682361
528.872 .0685979
529.690 .0689585
530.506 .0693088
531.322 .0696337
532.137 .0699280
532.951 .0701820
533.765 .0704061
534.578 .0705988
535.391 .0707553
536.203 .0708659
537.014 .0709350
537.824 .0709351
538.634 .0708520
539.444 .0706801
540.253 .0704386
541.061 .0701217
541.868 .0697420
542.675 .0693171
543.482 .0688735
544.288 .0684219
545.093 .0679750
545.897 .0675370
546.702 .0671271
547.505 .0667236
548.308 .0663310
549.110 .0659467
549.912 .0655748
550.713 .0652125
551.514 .0648695
552.314 .0645482
553.114 .0642605
553.913 .0639930
554.711 .0637499
555.509 .0635319
556.306 .0633416
557.103 .0631690
557.900 .0630105
558.695 .0628649
559.491 .0627347
560.285 .0626011
561.080 .0624772
561.873 .0623506
562.667 .0622261
563.459 .0620916
564.252 .0619403
565.043 .0617691
565.835 .0615674
566.625 .0613365
567.416 .0610811
568.205 .0607983
568.995 .0605044
569.783 .0601947
570.572 .0598842
571.360 .0595747
572.147 .0592787
572.934 .0589946
573.720 .0587264
574.506 .0584756
575.292 .0582343
576.077 .0580034
576.862 .0577843
577.646 .0575774
578.429 .0573832
579.213 .0572069
579.996 .0570478
580.778 .0569017
581.560 .0567753
582.341 .0566594
583.123 .0565487
583.903 .0564415
584.684 .0563345
585.463 .0562247
586.243 .0561111
587.022 .0559980
587.800 .0558854
588.578 .0557810
589.356 .0556864
590.134 .0556005
590.911 .0555260
591.687 .0554634
592.463 .0554084
593.239 .0553608
594.014 .0553198
594.789 .0552842
595.564 .0552529
596.338 .0552259
597.112 .0552003
597.885 .0551766
598.658 .0551551
599.431 .0551346
600.203 .0551133
600.975 .0550913
601.747 .0550680
602.518 .0550432
603.289 .0550182
604.059 .0549910
604.829 .0549619
605.599 .0549316
606.369 .0548990
607.138 .0548633
607.906 .0548243
608.675 .0547815
609.443 .0547359
610.210 .0546892
610.977 .0546421
611.744 .0545946
612.511 .0545494
613.277 .0545056
614.043 .0544637
614.809 .0544229
615.574 .0543818
616.339 .0543392
617.104 .0542961
617.868 .0542516
618.632 .0542056
619.395 .0541595
620.159 .0541155
620.922 .0540741
621.684 .0540372
622.447 .0540045
623.209 .0539756
623.970 .0539506
624.732 .0539286
625.493 .0539075
626.254 .0538881
627.014 .0538701
627.774 .0538541
628.534 .0538411
629.294 .0538319
630.053 .0538268
630.812 .0538264
631.571 .0538299
632.329 .0538366
633.087 .0538439
633.845 .0538516
634.602 .0538584
635.359 .0538645
636.116 .0538703
636.873 .0538757
637.629 .0538815
638.385 .0538878
639.141 .0538932
639.897 .0538972
640.652 .0538982
641.407 .0538960
642.161 .0538891
642.916 .0538776
643.670 .0538615
644.424 .0538423
645.177 .0538201
645.931 .0537963
646.684 .0537706
647.436 .0537432
648.189 .0537127
648.941 .0536783
649.693 .0536393
650.445 .0535957
651.196 .0535475
651.947 .0534961
652.698 .0534421
653.449 .0533878
654.199 .0533336
654.949 .0532812
655.699 .0532310
656.449 .0531815
657.198 .0531324
657.947 .0530828
658.696 .0530327
659.445 .0529813
660.193 .0529291
660.941 .0528780
661.689 .0528285
662.436 .0527816
663.184 .0527371
663.931 .0526956
664.678 .0526578
665.424 .0526226
666.171 .0525891
666.917 .0525567
667.663 .0525250
668.408 .0524931
669.154 .0524618
669.899 .0524306
670.644 .0524003
671.388 .0523713
672.133 .0523436
672.877 .0523170
673.621 .0522916
674.365 .0522671
675.108 .0522432
675.851 .0522198
676.594 .0521961
677.337 .0521711
678.080 .0521461
678.822 .0521209
679.564 .0520958
680.306 .0520714
681.047 .0520479
681.789 .0520251
682.530 .0520039
683.271 .0519842
684.012 .0519658
684.752 .0519492
685.492 .0519346
686.232 .0519217
686.972 .0519101
687.712 .0518996
688.451 .0518899
689.190 .0518809
689.929 .0518720
690.667 .0518624
691.406 .0518524
692.144 .0518415
692.882 .0518295
693.620 .0518162
694.357 .0518021
695.095 .0517863
695.832 .0517680
696.569 .0517465
697.305 .0517210
698.042 .0516907
698.778 .0516556
699.514 .0516157
700.249 .0515719
700.985 .0515246
701.720 .0514748
702.455 .0514237
703.190 .0513722
703.925 .0513198
704.659 .0512670
705.393 .0512139
706.127 .0511598
706.861 .0511046
707.595 .0510489
708.328 .0509923
709.061 .0509353
709.794 .0508780
710.527 .0508206
711.259 .0507633
711.991 .0507068
712.723 .0506507
713.455 .0505953
714.186 .0505410
714.918 .0504872
715.649 .0504337
716.380 .0503804
717.110 .0503273
717.841 .0502741
718.571 .0502209
719.301 .0501679
720.031 .0501155
720.760 .0500648
721.490 .0500158
722.219 .0499692
722.948 .0499253
723.676 .0498843
724.405 .0498458
725.133 .0498090
725.861 .0497737
726.589 .0497397
727.317 .0497069
728.044 .0496748
728.771 .0496442
729.498 .0496156
730.225 .0495891
730.951 .0495649
731.677 .0495432
732.403 .0495241
733.129 .0495076
733.855 .0494935
734.580 .0494818
735.305 .0494721
736.030 .0494645
736.755 .0494581
737.479 .0494533
738.203 .0494494
738.927 .0494452
739.651 .0494403
740.375 .0494344
741.098 .0494271
741.821 .0494180
742.544 .0494074
743.267 .0493958
743.989 .0493832
744.711 .0493693
745.433 .0493539
746.155 .0493376
746.877 .0493202
747.598 .0493008
748.319 .0492794
749.040 .0492557
749.760 .0492296
750.481 .0492009
751.201 .0491710
751.921 .0491402
752.640 .0491090
753.360 .0490776
754.079 .0490459
754.798 .0490141
755.517 .0489815
756.235 .0489476
756.953 .0489122
757.671 .0488755
758.389 .0488370
759.107 .0487968
759.824 .0487556
760.541 .0487140
761.258 .0486718
761.974 .0486293
762.691 .0485863
763.407 .0485427
764.123 .0484980
764.838 .0484526
765.554 .0484059
766.269 .0483589
766.984 .0483111
767.699 .0482624
768.413 .0482135
769.127 .0481648
769.841 .0481158
770.555 .0480669
771.268 .0480182
771.982 .0479700
772.694 .0479216
773.407 .0478741
774.120 .0478269
774.832 .0477803
775.544 .0477344
776.256 .0476889
776.967 .0476436
777.678 .0475990
778.389 .0475545
779.100 .0475105
779.810 .0474676
780.521 .0474260
781.231 .0473848
781.940 .0473450
782.650 .0473059
783.359 .0472669
784.068 .0472274
784.776 .0471880
785.485 .0471483
786.193 .0471089
786.901 .0470700
787.609 .0470323
788.316 .0469965
789.023 .0469627
789.730 .0469302
790.436 .0468997
791.143 .0468702
791.849 .0468418
792.555 .0468136
793.260 .0467862
793.965 .0467595
794.670 .0467339
795.375 .0467097
796.080 .0466879
796.784 .0466684
797.488 .0466512
798.191 .0466365
798.895 .0466244
799.598 .0466142
800.301 .0466060
801.003 .0465994
801.705 .0465942
802.408 .0465896
803.109 .0465860
803.811 .0465827
804.512 .0465797
805.213 .0465766
805.913 .0465725
806.614 .0465676
807.314 .0465621
808.014 .0465553
808.713 .0465472
809.412 .0465382
810.111 .0465280
810.810 .0465159
811.508 .0465030
812.206 .0464887
812.904 .0464734
813.602 .0464578
814.299 .0464421
814.996 .0464268
815.692 .0464124
816.389 .0463988
817.085 .0463861
817.781 .0463746
818.476 .0463637
819.171 .0463533
819.866 .0463432
820.561 .0463332
821.255 .0463227
821.949 .0463114
822.643 .0463000
823.336 .0462873
824.029 .0462736
824.722 .0462581
825.415 .0462405
826.107 .0462207
826.799 .0461976
827.490 .0461723
828.182 .0461444
828.873 .0461141
829.563 .0460816
830.254 .0460467
830.944 .0460098
831.634 .0459715
832.323 .0459312
833.012 .0458895
833.701 .0458469
834.390 .0458036
835.078 .0457605
835.766 .0457182
836.453 .0456781
837.141 .0456398
837.828 .0456034
838.514 .0455693
839.201 .0455355
839.887 .0455024
840.572 .0454693
841.258 .0454359
841.943 .0454023
842.628 .0453681
843.312 .0453337
843.996 .0452999
844.680 .0452665
845.363 .0452335
846.046 .0452000
846.729 .0451660
847.412 .0451308
848.094 .0450934
848.776 .0450543
849.457 .0450132
850.139 .0449703
850.819 .0449269
851.500 .0448823
852.180 .0448380
852.860 .0447942
853.540 .0447513
854.219 .0447096
854.898 .0446688
855.576 .0446288
856.254 .0445897
856.932 .0445512
857.610 .0445134
858.287 .0444755
858.964 .0444386
859.640 .0444018
860.317 .0443657
860.993 .0443303
861.668 .0442962
862.343 .0442628
863.018 .0442311
863.693 .0442005
864.367 .0441713
865.041 .0441432
865.714 .0441163
866.387 .0440909
867.060 .0440667
867.732 .0440431
868.404 .0440205
869.076 .0439986
869.748 .0439779
870.419 .0439580
871.089 .0439393
871.760 .0439222
872.430 .0439062
873.099 .0438911
873.769 .0438763
874.438 .0438620
875.106 .0438471
875.774 .0438311
876.442 .0438141
877.110 .0437962
877.777 .0437772
878.444 .0437583
879.110 .0437400
879.776 .0437231
880.442 .0437080
881.108 .0436949
881.773 .0436834
882.437 .0436737
883.102 .0436648
883.766 .0436567
884.429 .0436493
885.093 .0436432
885.755 .0436385
886.418 .0436357
887.080 .0436354
887.742 .0436374
888.403 .0436417
889.064 .0436481
889.725 .0436554
890.385 .0436634
891.045 .0436709
891.705 .0436772
892.364 .0436822
893.023 .0436854
893.682 .0436873
894.340 .0436873
894.998 .0436861
895.655 .0436842
896.312 .0436818
896.969 .0436790
897.625 .0436766
898.281 .0436745
898.937 .0436729
899.592 .0436711
900.247 .0436690
900.901 .0436666
901.555 .0436635
902.209 .0436596
902.862 .0436552
903.515 .0436505
904.168 .0436462
904.820 .0436413
905.472 .0436370
906.123 .0436329
906.774 .0436289
907.425 .0436244
908.076 .0436191
908.726 .0436122
909.375 .0436033
910.024 .0435915
910.673 .0435765
911.322 .0435585
911.970 .0435380
912.618 .0435147
913.265 .0434892
913.912 .0434623
914.558 .0434340
915.205 .0434044
915.850 .0433745
916.496 .0433440
917.141 .0433132
917.786 .0432821
918.430 .0432503
919.074 .0432179
919.718 .0431852
920.361 .0431523
921.004 .0431188
921.646 .0430856
922.288 .0430520
922.930 .0430176
923.571 .0429829
924.212 .0429476
924.853 .0429116
925.493 .0428750
926.133 .0428382
926.772 .0428009
927.411 .0427632
928.050 .0427249
928.688 .0426856
929.326 .0426451
929.963 .0426031
930.600 .0425592
931.237 .0425133
931.874 .0424670
932.510 .0424205
933.145 .0423741
933.780 .0423281
934.415 .0422831
935.050 .0422386
935.684 .0421944
936.318 .0421505
936.951 .0421063
937.584 .0420612
938.217 .0420158
938.849 .0419692
939.481 .0419221
940.112 .0418746
940.743 .0418271
941.374 .0417799
942.004 .0417338
942.634 .0416880
943.264 .0416428
943.893 .0415979
944.522 .0415533
945.150 .0415082
945.778 .0414624
946.406 .0414157
947.033 .0413684
947.660 .0413206
948.287 .0412724
948.913 .0412243
949.539 .0411771
950.165 .0411305
950.790 .0410849
951.414 .0410404
952.039 .0409972
952.663 .0409550
953.286 .0409138
953.910 .0408730
954.533 .0408333
955.155 .0407946
955.777 .0407573
956.399 .0407221
957.020 .0406895
957.641 .0406597
958.262 .0406325
958.882 .0406075
959.502 .0405845
960.122 .0405625
960.741 .0405414
961.360 .0405209
961.979 .0405012
962.597 .0404825
963.214 .0404652
963.832 .0404498
964.449 .0404367
965.066 .0404255
965.682 .0404165
966.298 .0404097
966.914 .0404051
967.529 .0404016
968.144 .0403989
968.758 .0403970
969.373 .0403954
969.986 .0403936
970.600 .0403916
971.213 .0403900
971.826 .0403890
972.438 .0403885
973.050 .0403884
973.662 .0403890
974.274 .0403903
974.885 .0403918
975.495 .0403934
976.106 .0403948
976.716 .0403955
977.325 .0403954
977.935 .0403953
978.544 .0403953
979.152 .0403953
979.761 .0403960
980.369 .0403977
980.976 .0404007
981.584 .0404043
982.191 .0404085
982.797 .0404135
983.404 .0404192
984.010 .0404251
984.615 .0404306
985.221 .0404367
985.826 .0404436
986.430 .0404501
987.035 .0404569
987.639 .0404638
988.243 .0404705
988.846 .0404767
989.449 .0404823
990.052 .0404872
990.654 .0404916
991.256 .0404953
991.858 .0404988
992.460 .0405025
993.061 .0405066
993.662 .0405111
994.262 .0405163
994.863 .0405221
995.463 .0405280
996.062 .0405337
996.662 .0405395
997.261 .0405457
997.860 .0405522
998.458 .0405593
999.056 .0405670
999.654 .0405760
1000.252 .0405857
1000.849 .0405955
1001.446 .0406057
1002.043 .0406154
1002.639 .0406245
1003.235 .0406323
1003.831 .0406390
1004.427 .0406446
1005.022 .0406495
1005.617 .0406538
1006.212 .0406576
1006.806 .0406606
1007.401 .0406625
1007.995 .0406630
1008.588 .0406627
1009.182 .0406621
1009.775 .0406614
1010.368 .0406611
1010.960 .0406620
1011.553 .0406635
1012.145 .0406664
1012.737 .0406700
1013.328 .0406744
1013.920 .0406786
1014.511 .0406821
1015.102 .0406849
1015.692 .0406862
1016.283 .0406869
1016.873 .0406875
1017.463 .0406878
1018.052 .0406884
1018.642 .0406885
1019.231 .0406880
1019.820 .0406865
1020.409 .0406845
1020.997 .0406810
1021.585 .0406762
1022.173 .0406704
1022.761 .0406634
1023.349 .0406548
1023.936 .0406454
1024.524 .0406351
1025.111 .0406239
1025.697 .0406120
1026.284 .0405997
1026.870 .0405864
1027.457 .0405736
1028.043 .0405608
1028.628 .0405480
1029.214 .0405344
1029.800 .0405200
1030.385 .0405040
1030.970 .0404863
1031.555 .0404666
1032.139 .0404441
1032.724 .0404198
1033.308 .0403939
1033.893 .0403654
1034.477 .0403353
1035.060 .0403038
1035.644 .0402710
1036.228 .0402368
1036.811 .0402015
1037.394 .0401655
1037.977 .0401290
1038.560 .0400924
1039.143 .0400559
1039.726 .0400196
1040.308 .0399841
1040.891 .0399491
1041.473 .0399140
1042.055 .0398794
1042.637 .0398446
1043.219 .0398094
1043.801 .0397736
1044.382 .0397373
1044.964 .0397000
1045.545 .0396613
1046.127 .0396211
1046.708 .0395785
1047.289 .0395333
1047.870 .0394862
1048.451 .0394375
1049.032 .0393876
1049.612 .0393383
1050.193 .0392891
1050.774 .0392409
1051.354 .0391953
1051.935 .0391518
1052.515 .0391100
1053.095 .0390715
1053.675 .0390364
1054.256 .0390042
1054.836 .0389753
1055.416 .0389509
1055.996 .0389302
1056.576 .0389147
1057.156 .0389032
1057.735 .0388937
1058.315 .0388863
1058.895 .0388805
1059.475 .0388742
1060.055 .0388676
1060.634 .0388607
1061.214 .0388524
1061.794 .0388437
1062.373 .0388342
1062.953 .0388236
1063.533 .0388123
1064.113 .0388009
1064.692 .0387875
1065.272 .0387710
1065.852 .0387523
1066.431 .0387299
1067.011 .0387039
1067.591 .0386767
1068.171 .0386471
1068.751 .0386157
1069.331 .0385835
1069.910 .0385511
1070.490 .0385187
1071.071 .0384879
1071.651 .0384571
1072.231 .0384277
1072.811 .0384005
1073.391 .0383763
1073.972 .0383541
1074.552 .0383365
1075.133 .0383240
1075.713 .0383146
1076.294 .0383076
1076.875 .0383021
1077.456 .0382961
1078.037 .0382897
1078.618 .0382821
1079.199 .0382735
1079.780 .0382639
1080.362 .0382563
1080.943 .0382501
1081.525 .0382471
1082.107 .0382483
1082.689 .0382522
1083.271 .0382580
1083.853 .0382641
1084.436 .0382688
1085.018 .0382705
1085.601 .0382701
1086.184 .0382685
1086.767 .0382648
1087.351 .0382611
1087.934 .0382587
1088.518 .0382589
1089.102 .0382621
1089.686 .0382704
1090.270 .0382807
1090.855 .0382921
1091.439 .0383042
1092.024 .0383155
1092.609 .0383251
1093.195 .0383321
1093.780 .0383383
1094.366 .0383420
1094.952 .0383452
1095.539 .0383508
1096.125 .0383578
1096.712 .0383718
1097.299 .0383913
1097.887 .0384151
1098.475 .0384422
1099.063 .0384719
1099.651 .0385012
1100.239 .0385276
1100.828 .0385533
1101.417 .0385752
1102.007 .0385942
1102.597 .0386114
1103.187 .0386299
1103.777 .0386498
1104.368 .0386740
1104.959 .0387014
1105.551 .0387305
1106.143 .0387609
1106.735 .0387910
1107.328 .0388197
1107.921 .0388479
1108.514 .0388747
1109.108 .0389015
1109.702 .0389267
1110.296 .0389536
1110.891 .0389796
1111.486 .0390096
1112.082 .0390417
1112.678 .0390772
1113.275 .0391139
1113.872 .0391514
1114.469 .0391883
1115.067 .0392240
1115.665 .0392577
1116.264 .0392920
1116.864 .0393256
1117.463 .0393604
1118.063 .0393972
1118.664 .0394407
1119.265 .0394913
1119.867 .0395497
1120.469 .0396134
1121.072 .0396828
1121.675 .0397527
1122.279 .0398212
1122.883 .0398881
1123.488 .0399538
1124.093 .0400191
1124.699 .0400892
1125.305 .0401639
1125.912 .0402444
1126.520 .0403329
1127.128 .0404313
1127.737 .0405347
1128.346 .0406427
1128.956 .0407497
1129.567 .0408491
1130.178 .0409423
1130.790 .0410293
1131.402 .0411087
1132.015 .0411870
1132.629 .0412698
1133.243 .0413579
1133.858 .0414531
1134.474 .0415567
1135.090 .0416620
1135.707 .0417692
1136.325 .0418770
1136.943 .0419806
1137.562 .0420757
1138.182 .0421689
1138.802 .0422649
1139.423 .0423653
1140.045 .0424706
1140.668 .0425743
1141.291 .0426919
1141.916 .0428399
1142.540 .0429945
1143.166 .0430617
1143.793 .0429709
1144.420 .0434524
1145.048 .0442084
