BestFit value for E:\RC_data\Compressed_For_Future_Analysis_Lite\test_shlomo\aqueous_test\GoodSpectraLarge_Full\0012_2025-06-24_09-45-30\Interpretation_History\2025-07-21_16-23-34\ResultsGraphs\BestFit\(Run)spectra_09-46-28-713_BestFit.txt
600.203 0.0461759
600.975 0.0461158
601.747 0.0460561
602.518 0.0459968
603.289 0.0459379
604.059 0.0458795
604.829 0.0458214
605.599 0.0457635
606.369 0.0457060
607.138 0.0456487
607.906 0.0455918
608.675 0.0455349
609.443 0.0454782
610.210 0.0454217
610.977 0.0453653
611.744 0.0453089
612.511 0.0452525
613.277 0.0451962
614.043 0.0451398
614.809 0.0450834
615.574 0.0450270
616.339 0.0449704
617.104 0.0449138
617.868 0.0448572
618.632 0.0448005
619.395 0.0447438
620.159 0.0446870
620.922 0.0446303
621.684 0.0445736
622.447 0.0445169
623.209 0.0444603
623.970 0.0444039
624.732 0.0443475
625.493 0.0442915
626.254 0.0442356
627.014 0.0441800
627.774 0.0441248
628.534 0.0440698
629.294 0.0440153
630.053 0.0439611
630.812 0.0439075
631.571 0.0438542
632.329 0.0438015
633.087 0.0437492
633.845 0.0436974
634.602 0.0436462
635.359 0.0435955
636.116 0.0435452
636.873 0.0434954
637.629 0.0434460
638.385 0.0433971
639.141 0.0433486
639.897 0.0433004
640.652 0.0432525
641.407 0.0432050
642.161 0.0431577
642.916 0.0431106
643.670 0.0430636
644.424 0.0430168
645.177 0.0429700
645.931 0.0429232
646.684 0.0428764
647.436 0.0428296
648.189 0.0427825
648.941 0.0427354
649.693 0.0426882
650.445 0.0426407
651.196 0.0425930
651.947 0.0425452
652.698 0.0424970
653.449 0.0424486
654.199 0.0424001
654.949 0.0423513
655.699 0.0423023
656.449 0.0422531
657.198 0.0422038
657.947 0.0421544
658.696 0.0421049
659.445 0.0420553
660.193 0.0420057
660.941 0.0419562
661.689 0.0419068
662.436 0.0418575
663.184 0.0418084
663.931 0.0417596
664.678 0.0417110
665.424 0.0416628
666.171 0.0416150
666.917 0.0415676
667.663 0.0415206
668.408 0.0414743
669.154 0.0414283
669.899 0.0413830
670.644 0.0413382
671.388 0.0412941
672.133 0.0412505
672.877 0.0412075
673.621 0.0411652
674.365 0.0411234
675.108 0.0410822
675.851 0.0410415
676.594 0.0410014
677.337 0.0409617
678.080 0.0409225
678.822 0.0408838
679.564 0.0408453
680.306 0.0408072
681.047 0.0407694
681.789 0.0407318
682.530 0.0406943
683.271 0.0406569
684.012 0.0406196
684.752 0.0405822
685.492 0.0405448
686.232 0.0405073
686.972 0.0404695
687.712 0.0404316
688.451 0.0403934
689.190 0.0403549
689.929 0.0403160
690.667 0.0402768
691.406 0.0402372
692.144 0.0401972
692.882 0.0401568
693.620 0.0401160
694.357 0.0400748
695.095 0.0400331
695.832 0.0399910
696.569 0.0399486
697.305 0.0399058
698.042 0.0398627
698.778 0.0398193
699.514 0.0397757
700.249 0.0397319
700.985 0.0396879
701.720 0.0396439
702.455 0.0395998
703.190 0.0395557
703.925 0.0395117
704.659 0.0394679
705.393 0.0394243
706.127 0.0393809
706.861 0.0393378
707.595 0.0392951
708.328 0.0392528
709.061 0.0392111
709.794 0.0391698
710.527 0.0391291
711.259 0.0390891
711.991 0.0390497
712.723 0.0390110
713.455 0.0389729
714.186 0.0389357
714.918 0.0388991
715.649 0.0388632
716.380 0.0388281
717.110 0.0387938
717.841 0.0387601
718.571 0.0387272
719.301 0.0386949
720.031 0.0386632
720.760 0.0386322
721.490 0.0386017
722.219 0.0385718
722.948 0.0385423
723.676 0.0385133
724.405 0.0384845
725.133 0.0384561
725.861 0.0384279
726.589 0.0383999
727.317 0.0383719
728.044 0.0383441
728.771 0.0383162
729.498 0.0382881
730.225 0.0382600
730.951 0.0382316
731.677 0.0382030
732.403 0.0381740
733.129 0.0381446
733.855 0.0381148
734.580 0.0380846
735.305 0.0380539
736.030 0.0380225
736.755 0.0379907
737.479 0.0379582
738.203 0.0379252
738.927 0.0378915
739.651 0.0378572
740.375 0.0378222
741.098 0.0377867
741.821 0.0377506
742.544 0.0377139
743.267 0.0376766
743.989 0.0376388
744.711 0.0376006
745.433 0.0375619
746.155 0.0375229
746.877 0.0374834
747.598 0.0374438
748.319 0.0374039
749.040 0.0373638
749.760 0.0373236
750.481 0.0372834
751.201 0.0372432
751.921 0.0372032
752.640 0.0371633
753.360 0.0371236
754.079 0.0370842
754.798 0.0370452
755.517 0.0370067
756.235 0.0369686
756.953 0.0369311
757.671 0.0368942
758.389 0.0368579
759.107 0.0368223
759.824 0.0367875
760.541 0.0367534
761.258 0.0367202
761.974 0.0366878
762.691 0.0366562
763.407 0.0366255
764.123 0.0365958
764.838 0.0365669
765.554 0.0365388
766.269 0.0365117
766.984 0.0364854
767.699 0.0364600
768.413 0.0364354
769.127 0.0364116
769.841 0.0363885
770.555 0.0363662
771.268 0.0363445
771.982 0.0363234
772.694 0.0363029
773.407 0.0362829
774.120 0.0362633
774.832 0.0362442
775.544 0.0362253
776.256 0.0362067
776.967 0.0361883
777.678 0.0361700
778.389 0.0361517
779.100 0.0361334
779.810 0.0361150
780.521 0.0360965
781.231 0.0360777
781.940 0.0360586
782.650 0.0360392
783.359 0.0360193
784.068 0.0359990
784.776 0.0359781
785.485 0.0359567
786.193 0.0359346
786.901 0.0359119
787.609 0.0358885
788.316 0.0358644
789.023 0.0358395
789.730 0.0358138
790.436 0.0357873
791.143 0.0357600
791.849 0.0357320
792.555 0.0357031
793.260 0.0356734
793.965 0.0356429
794.670 0.0356117
795.375 0.0355797
796.080 0.0355470
796.784 0.0355136
797.488 0.0354795
798.191 0.0354449
798.895 0.0354096
799.598 0.0353739
800.301 0.0353377
801.003 0.0353011
801.705 0.0352641
802.408 0.0352268
803.109 0.0351894
803.811 0.0351518
804.512 0.0351141
805.213 0.0350763
805.913 0.0350387
806.614 0.0350011
807.314 0.0349638
808.014 0.0349266
808.713 0.0348899
809.412 0.0348535
810.111 0.0348176
810.810 0.0347821
811.508 0.0347473
812.206 0.0347131
812.904 0.0346795
813.602 0.0346467
814.299 0.0346147
814.996 0.0345836
815.692 0.0345533
816.389 0.0345239
817.085 0.0344954
817.781 0.0344679
818.476 0.0344414
819.171 0.0344158
819.866 0.0343913
820.561 0.0343678
821.255 0.0343453
821.949 0.0343238
822.643 0.0343033
823.336 0.0342838
824.029 0.0342653
824.722 0.0342477
825.415 0.0342310
826.107 0.0342153
826.799 0.0342004
827.490 0.0341863
828.182 0.0341729
828.873 0.0341603
829.563 0.0341484
830.254 0.0341370
830.944 0.0341263
831.634 0.0341160
832.323 0.0341062
833.012 0.0340968
833.701 0.0340876
834.390 0.0340787
835.078 0.0340700
835.766 0.0340614
836.453 0.0340529
837.141 0.0340443
837.828 0.0340357
838.514 0.0340269
839.201 0.0340178
839.887 0.0340085
840.572 0.0339989
841.258 0.0339888
841.943 0.0339783
842.628 0.0339672
843.312 0.0339556
843.996 0.0339433
844.680 0.0339304
845.363 0.0339168
846.046 0.0339024
846.729 0.0338872
847.412 0.0338712
848.094 0.0338543
848.776 0.0338366
849.457 0.0338180
850.139 0.0337984
850.819 0.0337779
851.500 0.0337565
852.180 0.0337341
852.860 0.0337108
853.540 0.0336866
854.219 0.0336614
854.898 0.0336353
855.576 0.0336084
856.254 0.0335806
856.932 0.0335519
857.610 0.0335223
858.287 0.0334921
858.964 0.0334610
859.640 0.0334293
860.317 0.0333968
860.993 0.0333638
861.668 0.0333302
862.343 0.0332961
863.018 0.0332614
863.693 0.0332264
864.367 0.0331910
865.041 0.0331553
865.714 0.0331194
866.387 0.0330833
867.060 0.0330471
867.732 0.0330109
868.404 0.0329746
869.076 0.0329384
869.748 0.0329023
870.419 0.0328665
871.089 0.0328309
871.760 0.0327956
872.430 0.0327607
873.099 0.0327263
873.769 0.0326923
874.438 0.0326589
875.106 0.0326262
875.774 0.0325940
876.442 0.0325626
877.110 0.0325319
877.777 0.0325020
878.444 0.0324729
879.110 0.0324448
879.776 0.0324175
880.442 0.0323911
881.108 0.0323658
881.773 0.0323414
882.437 0.0323180
883.102 0.0322957
883.766 0.0322744
884.429 0.0322542
885.093 0.0322350
885.755 0.0322170
886.418 0.0321999
887.080 0.0321840
887.742 0.0321691
888.403 0.0321553
889.064 0.0321425
889.725 0.0321307
890.385 0.0321199
891.045 0.0321101
891.705 0.0321012
892.364 0.0320932
893.023 0.0320861
893.682 0.0320799
894.340 0.0320745
894.998 0.0320698
895.655 0.0320659
896.312 0.0320626
896.969 0.0320600
897.625 0.0320580
898.281 0.0320565
898.937 0.0320555
899.592 0.0320549
900.247 0.0320547
900.901 0.0320548
901.555 0.0320552
902.209 0.0320557
902.862 0.0320564
903.515 0.0320572
904.168 0.0320581
904.820 0.0320589
905.472 0.0320596
906.123 0.0320602
906.774 0.0320607
907.425 0.0320608
908.076 0.0320607
908.726 0.0320602
909.375 0.0320593
910.024 0.0320579
910.673 0.0320561
911.322 0.0320537
911.970 0.0320507
912.618 0.0320470
913.265 0.0320427
913.912 0.0320377
914.558 0.0320319
915.205 0.0320253
915.850 0.0320180
916.496 0.0320098
917.141 0.0320007
917.786 0.0319907
918.430 0.0319798
919.074 0.0319680
919.718 0.0319552
920.361 0.0319415
921.004 0.0319268
921.646 0.0319112
922.288 0.0318945
922.930 0.0318769
923.571 0.0318584
924.212 0.0318388
924.853 0.0318183
925.493 0.0317969
926.133 0.0317745
926.772 0.0317512
927.411 0.0317270
928.050 0.0317019
928.688 0.0316760
929.326 0.0316492
929.963 0.0316217
930.600 0.0315934
931.237 0.0315643
931.874 0.0315345
932.510 0.0315041
933.145 0.0314730
933.780 0.0314414
934.415 0.0314091
935.050 0.0313764
935.684 0.0313432
936.318 0.0313096
936.951 0.0312756
937.584 0.0312413
938.217 0.0312067
938.849 0.0311720
939.481 0.0311370
940.112 0.0311019
940.743 0.0310667
941.374 0.0310314
942.004 0.0309962
942.634 0.0309611
943.264 0.0309261
943.893 0.0308912
944.522 0.0308566
945.150 0.0308222
945.778 0.0307881
946.406 0.0307544
947.033 0.0307211
947.660 0.0306883
948.287 0.0306559
948.913 0.0306240
949.539 0.0305928
950.165 0.0305621
950.790 0.0305321
951.414 0.0305028
952.039 0.0304742
952.663 0.0304464
953.286 0.0304194
953.910 0.0303931
954.533 0.0303678
955.155 0.0303433
955.777 0.0303197
956.399 0.0302970
957.020 0.0302753
957.641 0.0302545
958.262 0.0302346
958.882 0.0302158
959.502 0.0301979
960.122 0.0301820
960.741 0.0301707
961.360 0.0301603
961.979 0.0301510
962.597 0.0301427
963.214 0.0301354
963.832 0.0301290
964.449 0.0301236
965.066 0.0301193
965.682 0.0301158
966.298 0.0301134
966.914 0.0301119
967.529 0.0301113
968.144 0.0301116
968.758 0.0301128
969.373 0.0301148
969.986 0.0301177
970.600 0.0301215
971.213 0.0301260
971.826 0.0301313
972.438 0.0301373
973.050 0.0301440
973.662 0.0301514
974.274 0.0301595
974.885 0.0301681
975.495 0.0301773
976.106 0.0301871
976.716 0.0301974
977.325 0.0302081
977.935 0.0302192
978.544 0.0302307
979.152 0.0302426
979.761 0.0302547
980.369 0.0302672
980.976 0.0302798
981.584 0.0302926
982.191 0.0303056
982.797 0.0303186
983.404 0.0303317
984.010 0.0303448
984.615 0.0303578
985.221 0.0303709
985.826 0.0303837
986.430 0.0303964
987.035 0.0304090
987.639 0.0304213
988.243 0.0304333
988.846 0.0304450
989.449 0.0304563
990.052 0.0304673
990.654 0.0304778
991.256 0.0304879
991.858 0.0304975
992.460 0.0305066
993.061 0.0305151
993.662 0.0305230
994.262 0.0305303
994.863 0.0305369
995.463 0.0305429
996.062 0.0305482
996.662 0.0305527
997.261 0.0305565
997.860 0.0305595
998.458 0.0305617
999.056 0.0305632
999.654 0.0305637
1000.252 0.0305618
1000.849 0.0305567
1001.446 0.0305507
1002.043 0.0305439
1002.639 0.0305361
1003.235 0.0305275
1003.831 0.0305180
1004.427 0.0305075
1005.022 0.0304961
1005.617 0.0304839
1006.212 0.0304707
1006.806 0.0304566
1007.401 0.0304415
1007.995 0.0304256
1008.588 0.0304088
1009.182 0.0303911
1009.775 0.0303725
1010.368 0.0303530
1010.96 0.0303327
1011.553 0.0303115
1012.145 0.0302896
1012.737 0.0302667
1013.328 0.0302431
1013.92 0.0302187
1014.511 0.0301936
1015.102 0.0301677
1015.692 0.0301411
1016.283 0.0301138
1016.873 0.0300858
1017.463 0.0300572
1018.052 0.0300280
1018.642 0.0299982
1019.231 0.0299678
1019.82 0.0299369
1020.409 0.0299055
1020.997 0.0298737
1021.585 0.0298414
1022.173 0.0298087
1022.761 0.0297756
1023.349 0.0297421
1023.936 0.0297084
1024.524 0.0296743
1025.111 0.0296401
1025.697 0.0296056
1026.284 0.0295710
1026.87 0.0295362
1027.457 0.0295013
1028.043 0.0294664
1028.628 0.0294314
1029.214 0.0293964
1029.80 0.0293615
1030.385 0.0293267
1030.97 0.0292919
1031.555 0.0292573
1032.139 0.0292229
1032.724 0.0291887
1033.308 0.0291548
1033.893 0.0291210
1034.477 0.0290877
1035.06 0.0290547
1035.644 0.0290221
1036.228 0.0289898
1036.811 0.0289580
1037.394 0.0289267
1037.977 0.0288959
1038.56 0.0288656
1039.143 0.0288359
1039.726 0.0288067
1040.308 0.0287781
1040.891 0.0287502
1041.473 0.0287229
1042.055 0.0286964
1042.637 0.0286705
1043.219 0.0286453
1043.801 0.0286209
1044.382 0.0285973
1044.964 0.0285744
1045.545 0.0285524
1046.127 0.0285311
1046.708 0.0285107
1047.289 0.0284911
1047.87 0.0284724
1048.451 0.0284545
1049.032 0.0284376
1049.612 0.0284215
1050.193 0.0284063
1050.774 0.0283920
1051.354 0.0283786
1051.935 0.0283661
1052.515 0.0283546
1053.095 0.0283439
1053.675 0.0283342
1054.256 0.0283254
1054.836 0.0283175
1055.416 0.0283105
1055.996 0.0283044
1056.576 0.0282993
1057.156 0.0282950
1057.735 0.0282916
1058.315 0.0282891
1058.895 0.0282875
1059.475 0.0282867
1060.055 0.0282868
1060.634 0.0282877
1061.214 0.0282894
1061.794 0.0282919
1062.373 0.0282952
1062.953 0.0282993
1063.533 0.0283042
1064.113 0.0283098
1064.692 0.0283160
1065.272 0.0283230
1065.852 0.0283307
1066.431 0.0283390
1067.011 0.0283480
1067.591 0.0283575
1068.171 0.0283677
1068.751 0.0283784
1069.331 0.0283896
1069.91 0.0284013
1070.49 0.0284135
1071.071 0.0284262
1071.651 0.0284392
1072.231 0.0284527
1072.811 0.0284665
1073.391 0.0284807
1073.972 0.0284952
1074.552 0.0285099
1075.133 0.0285249
1075.713 0.0285401
1076.294 0.0285555
1076.875 0.0285710
1077.456 0.0285867
1078.037 0.0286024
1078.618 0.0286182
1079.199 0.0286341
1079.78 0.0286499
1080.362 0.0286657
1080.943 0.0286814
1081.525 0.0286971
1082.107 0.0287126
1082.689 0.0287279
1083.271 0.0287431
1083.853 0.0287580
1084.436 0.0287727
1085.018 0.0287871
1085.601 0.0288012
1086.184 0.0288149
1086.767 0.0288283
1087.351 0.0288413
1087.934 0.0288539
1088.518 0.0288660
1089.102 0.0288777
1089.686 0.0288888
1090.27 0.0288994
1090.855 0.0289095
1091.439 0.0289189
1092.024 0.0289278
1092.609 0.0289361
1093.195 0.0289437
1093.78 0.0289506
1094.366 0.0289568
1094.952 0.0289624
1095.539 0.0289672
1096.125 0.0289712
1096.712 0.0289745
1097.299 0.0289771
1097.887 0.0289788
1098.475 0.0289797
1099.063 0.0289798
1099.651 0.0289790
1100.239 0.0289774
1100.828 0.0289749
1101.417 0.0289716
1102.007 0.0289674
1102.597 0.0289622
1103.187 0.0289562
1103.777 0.0289493
1104.368 0.0289415
1104.959 0.0289328
1105.551 0.0289231
1106.143 0.0289126
1106.735 0.0289011
1107.328 0.0288887
1107.921 0.0288753
1108.514 0.0288611
1109.108 0.0288459
1109.702 0.0288299
1110.296 0.0288129
1110.891 0.0287951
1111.486 0.0287763
1112.082 0.0287567
1112.678 0.0287362
1113.275 0.0287148
1113.872 0.0286925
1114.469 0.0286695
1115.067 0.0286456
1115.665 0.0286208
1116.264 0.0285953
1116.864 0.0285690
1117.463 0.0285419
1118.063 0.0285141
1118.664 0.0284855
1119.265 0.0284563
1119.867 0.0284263
1120.469 0.0283956
1121.072 0.0283643
1121.675 0.0283324
1122.279 0.0282998
1122.883 0.0282667
1123.488 0.0282331
1124.093 0.0281989
1124.699 0.0281641
1125.305 0.0281290
1125.912 0.0280933
1126.52 0.0280572
1127.128 0.0280208
1127.737 0.0279839
1128.346 0.0279467
1128.956 0.0279092
1129.567 0.0278714
1130.178 0.0278334
1130.79 0.0277952
1131.402 0.0277568
1132.015 0.0277182
1132.629 0.0276795
1133.243 0.0276407
1133.858 0.0276018
1134.474 0.0275629
1135.09 0.0275241
1135.707 0.0274852
1136.325 0.0274464
1136.943 0.0274078
1137.562 0.0273693
1138.182 0.0273309
1138.802 0.0272928
1139.423 0.0272549
1140.045 0.0272173
1140.668 0.0271799
1141.291 0.0271430
1141.916 0.0271063
1142.54 0.0270701
1143.166 0.0270343
1143.793 0.0269989
1144.42 0.0269641
1145.048 0.0269298
